time	FP1	FPZ	FP2	F7	F3	FZ	F4	F8	FT7	FC3	FCZ	FC4	FT8	T7	C3	CZ	C4	T8	TP7	CP3	CPZ	CP4	TP8	P7	P3	PZ	P4	P8	PO3	POZ	PO4	O1	OZ	O2
-200	-0.3299068800226255	-0.7370113711822854	0.11419260473030711	-0.8721916057500458	-0.6619722230410526	-0.37032666708907813	-0.6193519815066602	-0.26249012284763684	-0.4929194735956621	-0.5633196816527057	-0.3605644395784776	-0.692732153574048	-0.2262733125934258	-0.2172504359959137	-0.614554344056157	-0.2582732432520365	-0.32329180755054215	-0.8002939204037685	-0.23860152005512844	-0.6289527400349718	-0.32486808217997004	-0.14624930881292306	-0.13014583256764597	-0.6304126962004142	-0.5516611919780084	-0.0464004686793417	0.25995841556719407	0.020893866143522816	-0.40635171430036976	0.1089276594153642	0.15910869796636165	0.08524174221690275	0.4054999639286799	0.3760880520385213
-196	0.0012751518483675485	-0.2150255585248388	0.08900283254563704	-0.6474603994235166	-0.25370949442704155	-0.025777740338927282	-0.3186404995025932	-0.05132734390055274	-0.33560654436255954	-0.2532036894127546	-0.09160400903939014	-0.5428606854084307	0.020346725308188516	-0.06818900985191004	-0.3969545354357744	-0.13301311399732693	-0.34099045309759324	-0.7288479190544587	0.06138042345047137	-0.5057409988986028	-0.20863458461538392	-0.32291453995238883	-0.17083482401154698	-0.5574555382959292	-0.5279314504645866	-0.12740363148471034	-0.08193442204769785	-0.09107776708257745	-0.48968255396233984	-0.06322995557318213	-0.04871035727481289	0.035456232637055565	0.2907536022474851	0.3216186455712765
-192	0.32583290256251335	0.37186545039703695	0.16109329421379245	-0.22223995569862554	0.3556803455909461	0.4178154756010774	0.04225276399911884	0.20419894107284903	-0.004681689652901359	0.17901806488138922	0.26082208686780894	-0.2997758976997121	0.24685230788849186	0.2020951802396519	-0.0819636804776281	0.08326324054438486	-0.28785869406502046	-0.4731316256498636	0.24902307924340852	-0.2832116775514845	-0.008523623437521038	-0.3997141112726182	-0.17490804151244016	-0.48947599406639225	-0.4060926129101853	-0.12479392407619531	-0.331069736836935	-0.18843287181963236	-0.5051663505197741	-0.19747625241489541	-0.18083751155972555	-0.04342494148973161	0.15516532918378384	0.1912272865712594
-188	0.5589302168085939	0.825698910059018	0.3301625243434217	0.21273066049749076	0.9376630163360892	0.829014120393055	0.4023102809762228	0.4517797220267853	0.3807148029728848	0.6015472992968214	0.5984643682628875	-0.00299900140787465	0.3971545686231356	0.49734526747067276	0.2561558180540591	0.347658216075525	-0.17536470249723388	-0.11983825236104986	0.2784058146600232	-0.0023943867939607865	0.2355774933112451	-0.3583580544483976	-0.1440252956091952	-0.42058670414594534	-0.1863185758654978	-0.011998393542573885	-0.4063980271092433	-0.23322550893550759	-0.41797086490961455	-0.21934895162038384	-0.17994183256494714	-0.09345865971095806	0.058954045027661384	0.03944895034009252
-184	0.6664535386425313	1.00645673020888	0.5183718787457107	0.46890324235785064	1.2632538048321362	1.0739773484771276	0.6882430297641234	0.6516541226146803	0.6762877089591942	0.877079961469668	0.8167580941559932	0.29189065025067207	0.4460376191798783	0.7080031019455267	0.5312201367317656	0.5903989657754687	-0.02776469655775618	0.21698395853095692	0.1861003036568814	0.273348539377534	0.4565244007505391	-0.2275339210249202	-0.09209009236688681	-0.3345477274554428	0.09184912568982948	0.17974421336569327	-0.31618925849239404	-0.21986392084878184	-0.2321387523512229	-0.10899995239871363	-0.05593197778647011	-0.07036061567185145	0.041715904964982335	-0.07039428484548395
-180	0.6658201796887472	0.8871622659219043	0.6152858718596385	0.46322172763220487	1.2130590646634556	1.0753831836252505	0.8376770594428385	0.7883199433450716	0.7850077728479103	0.9245818830034848	0.8491594173926691	0.5308125005671759	0.4139809001961012	0.7696400265335608	0.6796938163762842	0.7439919691375311	0.12618704108327145	0.4462465036569663	0.06784533692158343	0.4823409306746012	0.589643000067691	-0.06750141812209773	-0.039073482057148806	-0.2179368728857364	0.3617420187400095	0.37669563198350525	-0.14902336857841067	-0.1766676451275731	0.006162271353690389	0.08784104861493074	0.12269559471623964	0.030216185299759554	0.10097366545932991	-0.09774886792060819
-176	0.5982024654544056	0.5551815614988446	0.5453261123240506	0.2596515410543428	0.8347289541150461	0.8482469298881065	0.824890075031458	0.8723840691475396	0.7019258123795716	0.7556459288592368	0.6966567617947301	0.6788336021450576	0.3594155302510103	0.6947463733298573	0.6862045509179517	0.7731414417774062	0.26238918238196457	0.5367000089446453	0.02614086300985306	0.5892830476188012	0.6041361674314594	0.06179674699201517	0.001033316480180941	-0.07100871932459976	0.5570957646609733	0.5034216033623139	-0.018486810801442165	-0.14465782009795466	0.22813974263288772	0.2851169698192419	0.2705749862515257	0.16967652695255125	0.19466957400763682	-0.04454715911227785
-172	0.49151304240109295	0.16396018821328337	0.31850722351721195	0.024796739158013455	0.31762942591582094	0.49386277670149586	0.6763042194457553	0.9310582852698482	0.5077628480489241	0.46627670408780963	0.4273520697294504	0.7308070641186346	0.35046949894158086	0.5601025209590765	0.5868384823288001	0.6894300562618284	0.3679682901152046	0.5222356306242308	0.11846877604614808	0.5976788386513758	0.5185015784524145	0.1315090652960233	0.03132974348502888	0.08926482476108581	0.6405177100222526	0.5248816000084195	0.0057157501434022175	-0.14725647829547234	0.37404730821585386	0.40285995500895366	0.3348153523098086	0.28801685498953267	0.2655435793848037	0.04721391934156978
-168	0.34168171796363056	-0.1415603455307323	0.0326223409842354	-0.0746450347803924	-0.10464445475145748	0.15165300628997216	0.46260851504830386	0.9896516178894008	0.31757891097950136	0.18638730002075032	0.14347237312333228	0.7073390465997607	0.42827340852373985	0.4581769097204423	0.4467134166406354	0.5409544096640371	0.44127437360932376	0.47435793160837636	0.32856672919287916	0.5418847189573426	0.3891663243481837	0.15572985967418745	0.07252950202988186	0.23405086935078978	0.6162262543378856	0.46391680719549816	-0.060769706811064035	-0.17182373957167993	0.41867649449500643	0.4074024249758175	0.3219975820994793	0.33594018136084747	0.2720008783625649	0.11728453606557934
-164	0.12559965221165417	-0.28625118660180915	-0.17922815635253087	0.028559958490147943	-0.2724474065577724	-0.06701023114690506	0.2683715813536769	1.0538918945407167	0.21542105024308617	0.013943100312912023	-0.06775473786175357	0.6388450248801438	0.5819014296145193	0.4416960466677226	0.32435813464288166	0.3829402019846002	0.48537492629529805	0.4584881055700289	0.5754060730711651	0.46426233532038874	0.2783564620142738	0.17751213863377988	0.15008579156652727	0.3344582906861831	0.5221958147216214	0.3841905286148968	-0.12865637210311426	-0.17632392004318245	0.3787121167158104	0.32406824745374846	0.28696772383716745	0.3003025643396178	0.20917460269568555	0.118617087303136
-160	-0.16609255927590044	-0.2868857078461636	-0.2252632820879345	0.2632769339590079	-0.1777214850468637	-0.13132652607185952	0.15077720544417614	1.1004171343677098	0.21065521187049047	-0.033105421727759085	-0.17578619674169887	0.5451835976187525	0.7490191440744847	0.4936574088984408	0.24032854973197385	0.24526904461448168	0.4978993224447836	0.49585020416954634	0.7549506406796872	0.3888457407670687	0.21793018226437727	0.23620778262583117	0.272767185476185	0.37218111659497044	0.405338107516201	0.34846857102152284	-0.09482058113715362	-0.11888816922689006	0.2982510022739509	0.21639408116542658	0.2915918223648451	0.20821011013868768	0.10855914624939016	0.041288297519152986
-156	-0.501932977362807	-0.23282369912492995	-0.1111048159178363	0.46107935789045196	0.03704038253015451	-0.10504877540768993	0.10696209940131049	1.0811620923402134	0.23764783083996882	-0.02330970013216963	-0.2214221650732107	0.420851259361113	0.8421795942978038	0.537980674339056	0.16657131868268882	0.11470357299693468	0.4634152341109796	0.5491121993506245	0.7919042090449456	0.3065898112662641	0.18935690772409108	0.3355293563477703	0.41566881432491154	0.34548160346543505	0.29454180523894313	0.3769203712960635	0.0859705803607955	0.008464281425861513	0.22232472840444328	0.14566802941737983	0.3599677374811377	0.10930839153348634	0.017841685518279957	-0.08348164686345166
-152	-0.8117342570791386	-0.2366495871529521	0.05909188449364677	0.4541020679929831	0.15772595961803085	-0.11270378501570512	0.07116077822361846	0.9428639984167689	0.19732907364615537	-0.07227457296482115	-0.29454895779629814	0.2368406200389749	0.7896231988997952	0.48504459735478683	0.04360188905317151	-0.055785417415918054	0.355922698075991	0.542269824566264	0.676688490589652	0.1819404955085094	0.1336059864962497	0.4330867517981016	0.5218123184381047	0.2688222520716858	0.18804036033361624	0.43164184580542697	0.3615598371437135	0.16513611334592693	0.17480909780236284	0.13607355917907607	0.4584658432352615	0.048540934797756896	-0.025260519172549536	-0.19818328270943603
-148	-1.01800274591917	-0.37947672509705865	0.13883088494058526	0.17405113533899025	0.014247741514235048	-0.273107319380737	-0.05216074721756901	0.6555753929752633	0.01756557445263567	-0.2761353247346491	-0.4841008770164408	-0.038554351679497924	0.5705605134863836	0.28598788308417866	-0.1807283605542562	-0.3132223777015449	0.15400776228168475	0.4051853706143496	0.467162458909258	-0.01998452464660928	-0.01187043168378994	0.460130213529445	0.5264597521841531	0.16640788274712734	0.06370666607031153	0.4388013769038365	0.6016329511711473	0.2786497168658283	0.15340733489405578	0.16633547800506923	0.5148235546465456	0.045563708875774996	-0.009011946595803998	-0.2443648421555219
-144	-1.0781733962494315	-0.6738851649436536	0.022226259056242183	-0.30399131698151916	-0.42587140095000087	-0.6317540987276976	-0.3316774657935306	0.23718862175661742	-0.30105847044275075	-0.6515666229963709	-0.8240018466172577	-0.4089470197366273	0.22787722887679848	-0.035407535642397014	-0.5105350004657838	-0.664492068997215	-0.13743948901762268	0.118663109539367	0.2567928724958101	-0.3002287439872498	-0.2688342624075777	0.36231583265381345	0.39321568509006577	0.06451182051106588	-0.09454633271665387	0.33559384857325447	0.6676242930722537	0.2849471263843832	0.14203022384547156	0.19036714684583858	0.4646709847639371	0.09151699370881836	0.05366002382201238	-0.18677805316975002
-140	-1.010595080685187	-1.057503459167829	-0.2930003397219762	-0.7961323241160577	-1.0338079903250663	-1.1262601585563077	-0.7581814508369356	-0.2381301069207901	-0.6777529103333635	-1.1141028376107447	-1.2624976603104245	-0.8276005366411309	-0.1471485193828955	-0.38949996134647163	-0.8828193523052446	-1.0532932254901044	-0.4722391355035726	-0.2629900568044282	0.12674695221371662	-0.6075418576160371	-0.5921124800991454	0.1385667767602523	0.14239600264837346	-0.014997865966839458	-0.2721566551012921	0.11453548044851186	0.49413919324094385	0.16917429821694183	0.13026209142698683	0.17230242447266253	0.29716673418357925	0.16188181895869644	0.13983043992978372	-0.02570098073252127
-136	-0.8848128892493691	-1.4176576101750311	-0.6982641202463299	-1.1023528548065482	-1.577005263161694	-1.6037411649267728	-1.2290286986792274	-0.6561916453960402	-0.9855616067798846	-1.5081393680642623	-1.672763343402411	-1.1995168894046775	-0.4521766591576648	-0.6614299995888999	-1.1841634482050378	-1.3710685933782893	-0.7667818646145075	-0.627146600093548	0.10514906767285191	-0.8495981075771084	-0.8795316793170241	-0.14553384446116802	-0.14794741533596423	-0.059277407675332065	-0.4197686900031132	-0.1622768189386257	0.13470225002135208	-0.01900056558520594	0.12468716470709153	0.11219461978957745	0.07130538654205906	0.23438370168637523	0.23246353805978398	0.20551402814953057
-132	-0.7763140181968559	-1.634459014580663	-1.0278021071233718	-1.1049600811717308	-1.8277908517466608	-1.8831760835785674	-1.5806375702051356	-0.9015695429927681	-1.1080504627862429	-1.6746234851518649	-1.9018908691071836	-1.4108266794824387	-0.614384947656133	-0.7637835125712963	-1.2973107066779135	-1.4996068439769181	-0.9257107949726804	-0.8500048496720287	0.155557557547738	-0.9311938858363699	-1.0158454154116163	-0.38030040168113016	-0.3719266047624221	-0.06678910536592725	-0.4744485604705285	-0.3893785466853707	-0.2562084191529406	-0.18682904494322664	0.1435463275861506	0.04533244285463037	-0.11003857078188314	0.29914367123417573	0.3255417934781653	0.45200538521133515
-128	-0.7165268045454665	-1.6252787072155355	-1.1418111295482343	-0.8214606621983196	-1.669076438504493	-1.8346015168600809	-1.657313819515636	-0.901117322553999	-0.9910318826449798	-1.52478980633094	-1.837392325530708	-1.3755572999557015	-0.6139296277758434	-0.6731497628382715	-1.1572313279498538	-1.366573687917836	-0.8817195870072705	-0.8506435134391847	0.20042690584124548	-0.8023222068557093	-0.9296476817501552	-0.46152359130684134	-0.4431944776312704	-0.04709122690589971	-0.39630547065813154	-0.4704949545902364	-0.49696439379151963	-0.24590718684099705	0.19920477220785646	0.01790788392671649	-0.15369363090335034	0.35634824543629046	0.41688695444711066	0.6535927636811052
-124	-0.6697666628140067	-1.3746114934547935	-0.9931787227350796	-0.38738897345011375	-1.1459991902981586	-1.4379115068371517	-1.38434338220128	-0.6554383618972707	-0.6657960994123187	-1.0836044522583634	-1.4600728713365585	-1.0772581073265715	-0.48192980763830096	-0.43564304599445214	-0.7873309234768107	-0.9852296685139685	-0.6300116761513778	-0.6268883927730329	0.1666432167852676	-0.48954522486112406	-0.6329222305530565	-0.3415708533246282	-0.33563363467354157	-0.01762001211962965	-0.19819642553357583	-0.3682791879415681	-0.468289016494991	-0.15877355595079698	0.28108900714478013	0.055358368763632065	-0.026381192662270958	0.4053724695938272	0.49603196853333	0.7602344732163957
-120	-0.5555360303204289	-0.9391405558716959	-0.6430426223732081	0.01760605159427141	-0.44112449773041446	-0.793804643534166	-0.809900579791898	-0.24274262724624937	-0.23432673454727498	-0.4817678618188551	-0.8575864412590273	-0.5840390905893469	-0.277394651666284	-0.14071498775717844	-0.2962819628387672	-0.4563539612692342	-0.23832638501553988	-0.25636842782143615	0.028471032085657877	-0.09222163981757396	-0.2207891041426496	-0.05480248839727964	-0.0950713676794129	0.0020180283994686334	0.05079558106353167	-0.12413991211304856	-0.17039935247791746	0.04217206303558701	0.35233461767886104	0.14337518775027136	0.2255847299363966	0.434976785276835	0.5380201326137977	0.7426651697481806
-116	-0.3056956521899236	-0.42527374517834693	-0.22047059182293527	0.2584594183595224	0.21247966533897528	-0.0812594367002237	-0.09126522368992276	0.20797449297848544	0.17470891729590954	0.10104143594026843	-0.1907329107475793	-0.02598249719437498	-0.057503878925098645	0.11996351897230968	0.1666453625524741	0.07130511832115825	0.17601081684496783	0.13714657689277474	-0.1756932880018898	0.2589045756479035	0.1706469501716893	0.2964333586361145	0.1835244293347716	-0.0029223817326851243	0.2547208660370369	0.1632120903185962	0.2806484692163575	0.2727949612405802	0.36595308688275896	0.23504003823066236	0.497710792953835	0.42422804129304764	0.5112552033867864	0.5995780214430592
-112	0.08071807751541803	0.050432976207956066	0.14596028589113688	0.3016210488810429	0.6348847134773314	0.5169636594118028	0.5685356244991864	0.5636839256360084	0.45752122882724605	0.5133278356943283	0.3719894280578568	0.45536643151708883	0.14187231624069904	0.2880017750144426	0.4761483061212969	0.4634498644095067	0.49326681966221375	0.4356065679519417	-0.3603838077029418	0.460303812056915	0.4271711994353361	0.5877102598610839	0.4004039456271845	-0.03505326798648833	0.3377422383841145	0.38725715777852576	0.7119573932792321	0.44059297331197184	0.29125991390125133	0.2782881252892113	0.6772192103453921	0.354157655537036	0.3958426703949415	0.35938939361434225
-108	0.5196616040461044	0.4021987606861296	0.3859244277270352	0.21483194773793596	0.7704274038890558	0.8857098199416846	1.003244755119333	0.7351935487305151	0.5716856107583232	0.6927272659931888	0.721607683267227	0.7619547228649151	0.30769771259822953	0.353463082613222	0.584253905728575	0.6550686342866624	0.6404387338681246	0.5717158899177927	-0.4358661163769608	0.4823901343087391	0.5078647123865881	0.7267881017455113	0.49309950942475167	-0.08115045705810765	0.2839997999650373	0.4841593789751401	0.9743429397778746	0.48829439159134813	0.13549707795742516	0.24669909414948352	0.6937593800195135	0.22326508108036808	0.2014206940810765	0.07523269187291048
-104	0.8751121141273768	0.600398479376321	0.5044568764348039	0.1152953353593513	0.6942722183818663	1.0118226979458815	1.1457307309787679	0.7046026569696761	0.543036399900785	0.681192813583956	0.8451657273888667	0.8720760323441181	0.4363033462476068	0.3460764876211139	0.5348509536590916	0.6695815903924462	0.6179161652222908	0.5457023964455676	-0.35527527242607526	0.378893404242437	0.45713114623049833	0.6885061246654978	0.45434102301328433	-0.11566656798723635	0.14631064199224206	0.45629250888062595	1.00086009249718	0.41325226321788405	-0.054387882214559105	0.15379002651486998	0.5444700108133032	0.05554896579069107	-0.028494983839571365	-0.18740123463046454
-100	1.0279953453812458	0.6705537421462785	0.5546393380466917	0.09928043161598682	0.5568376765497475	0.968576369224349	1.0418084833544887	0.5220547901324388	0.44277816899088773	0.5892644509696783	0.8150053003715086	0.8360205867640678	0.5160024153079369	0.3104240588456949	0.4319903839648711	0.5932660683912158	0.49075913305355484	0.41080379382365995	-0.14288157188581022	0.2529816323092045	0.3707680990871702	0.5148136602755379	0.32054772892130085	-0.11275153578663025	0.016314919996793634	0.35731092005162723	0.817169366203905	0.2559008591866761	-0.21405526941615113	0.04106993962885994	0.2833685569761373	-0.1070558426061443	-0.23250161052653814	-0.3703507473655066
-96	0.9402702427012717	0.6700587255726687	0.5902145490049993	0.1934131975059108	0.4993264066487153	0.863434491361755	0.8124235847942256	0.27834397484122486	0.34863951714230706	0.5307705985020046	0.7386428099103137	0.7381951790291806	0.5221760259796059	0.2803167991713422	0.3796201636743485	0.5197675214996028	0.3478426030436721	0.2399052673481701	0.11336863757359303	0.19857706079415047	0.3350434294824658	0.281564473394953	0.141797721027951	-0.06092550962682325	-0.0277534908845667	0.25040680106837565	0.5049654828673882	0.06795348954925531	-0.2964906088972767	-0.0520919895347039	-0.01543791960752454	-0.22482201400261517	-0.36048912910999403	-0.4432351279989046
-92	0.6769691092565461	0.6554712636611036	0.6301082356756702	0.35111358673139753	0.5851455316075189	0.7796334008560167	0.588929830494754	0.06494204683596842	0.30898061316681363	0.563419579037097	0.6975195390256757	0.6493446214493991	0.4300344873538272	0.2638341181769615	0.4257722486236673	0.49617984765664436	0.2531045668887434	0.0905624327757311	0.30123051924946054	0.24952956971110862	0.3737762560944221	0.05445829392631256	-0.04641263920271605	0.02736508653109424	0.034539099695502465	0.1669673915462213	0.1474186029288521	-0.11710860550638837	-0.29783683940077477	-0.11546561837846406	-0.29587683006925175	-0.28050798106897656	-0.3984857787561882	-0.41416096582751305
-88	0.37192004825151337	0.6556866748467781	0.6553511603021844	0.49008336539512	0.7781875113867058	0.7415193300599116	0.45491120104376614	-0.0608814766956066	0.3266305617192061	0.6648875458143013	0.7069811803134328	0.5940951093933036	0.23705145656817436	0.24545286533850488	0.5399451838212482	0.5003306257013557	0.21572215800657002	-0.015478352045676816	0.33372381245279276	0.3634682586553136	0.4337418366448516	-0.1399847265523953	-0.23240175784563027	0.11634847492406755	0.15385206004876334	0.09030223615020168	-0.2082824701772623	-0.29237529561611714	-0.2591727071417486	-0.1742645199667474	-0.5376317487494219	-0.2880918674347931	-0.37502732778277653	-0.32527503289114656
-84	0.15601865907855628	0.6645041091354292	0.6353961809328577	0.5442168102829366	0.9738029813022175	0.7182873469337522	0.421164302954683	-0.09152338630695438	0.36588904169210945	0.7545866947196076	0.7173056584367801	0.5489469156710797	-0.020152470046065667	0.1999300415236523	0.6352656467611292	0.46085739019386884	0.19373278270922836	-0.09124896652310133	0.18823362839381247	0.44917997604450316	0.41722750558417504	-0.31437283674977246	-0.4171327341992215	0.16153307218299615	0.23967917202994668	-0.02698447362226134	-0.5525240288135985	-0.46289691212132145	-0.24170805452833377	-0.2704876356448279	-0.7475436310967951	-0.2835182540411127	-0.3444568506127214	-0.234224676494516
-80	0.09285984164873397	0.6541699154550081	0.5600873217746972	0.4992065119060523	1.0608766052164416	0.6589884741357745	0.4418080139926505	-0.0634821726269124	0.37644860053385737	0.7458921056035284	0.6535401327799014	0.4695160377092393	-0.2703923874227173	0.10946479412098209	0.6210134609755793	0.3077492706158301	0.12865863707961	-0.16718441205730056	-0.08252765217448836	0.42037287248335353	0.24389252005035303	-0.49398171776984484	-0.5936996325762173	0.13132722642643385	0.21241646951451174	-0.224070861369891	-0.884589967878472	-0.6215063317819826	-0.28989350722554774	-0.4308470476716762	-0.9348329878092987	-0.3028093568786073	-0.35605910330521506	-0.18925544571777836
-76	0.15962813754310654	0.5981697425045066	0.4511737514072062	0.39371463557022085	0.9792648529124206	0.533898411833341	0.4546083200421047	-0.034817073406291275	0.3217277518732624	0.5986418708945804	0.46984651566136204	0.327236800559686	-0.4354726363154695	-0.024282315684642793	0.4563692200582582	0.02387213887207594	-0.010876804562763928	-0.26942703059837236	-0.37375643755008436	0.24638815161963656	-0.09263505018211171	-0.6830708367267975	-0.7347210627125735	0.026122646340339572	0.050444178155855265	-0.49541267627567726	-1.1791341275008778	-0.7353254538090701	-0.4023720015857319	-0.6404944642108488	-1.0884839268859365	-0.35914975314062786	-0.42573994290628064	-0.20877949840762822
-72	0.2771974198972202	0.4901297974132828	0.3474723091889399	0.28896444962977935	0.7440400104810987	0.3567138603264196	0.4196674813165401	-0.05640757814709337	0.1967252487937828	0.3429240277692251	0.18638932657866755	0.13350349630981717	-0.468011169444072	-0.17920385255868504	0.17593291357444307	-0.3326631776040149	-0.20181877860136507	-0.4013258506655979	-0.5725621566621771	-0.027832413021985504	-0.5065188395109578	-0.8456761815654344	-0.7967311719806042	-0.11593341798122203	-0.19415058146572664	-0.7796658257826927	-1.3731080258987751	-0.7539629917182527	-0.5283072577489466	-0.840459881091086	-1.1718461483933016	-0.4334312070393889	-0.5275766240151345	-0.27832391787830857
-68	0.3677626540912487	0.35032102377182023	0.27434697677964576	0.2298984074748678	0.43011230121738503	0.17713428989034147	0.33688700114071407	-0.14873817525504165	0.03039427466467304	0.06396061165873593	-0.11195027799951825	-0.062251567683406075	-0.3768906285783956	-0.320384352590384	-0.12537367610272002	-0.6481947286452955	-0.3718060841709906	-0.5356295691318267	-0.6057784542048094	-0.30226269288043	-0.8514856078584453	-0.9140058136751757	-0.7404024582289301	-0.23256234765941092	-0.4200889755610051	-0.9817890500076406	-1.3846737111417913	-0.6361354573401404	-0.5922521337815015	-0.9518924927520369	-1.1387448282101507	-0.483969746798266	-0.6097349509103658	-0.3647862365572595
-64	0.40033754605307237	0.2163032138846959	0.2221609199398529	0.22122894171649793	0.13064923849498675	0.05117565753056294	0.23709590673190337	-0.29235631153680414	-0.1281718459469584	-0.14137117528985402	-0.3143783203770779	-0.19805969247880628	-0.22460286262549056	-0.41340836778215667	-0.33830046568334904	-0.8053738454512152	-0.4351616788844614	-0.6221348627595522	-0.4695252466268338	-0.470263807778381	-0.9876094435552624	-0.8221665003999676	-0.5545904026334547	-0.2641809278017115	-0.5269248472261612	-1.016687629040166	-1.1564027041802785	-0.3789419820278063	-0.5329030738727497	-0.9133579707927477	-0.9611860489419519	-0.4691839206293893	-0.6238279922947673	-0.43621483335033884
-60	0.3967489590164631	0.12544247476377832	0.1508739288812412	0.232278689155641	-0.08514469095429225	0.009132588259169948	0.15781326552124517	-0.4360589672046447	-0.23087336064699734	-0.21140088087590916	-0.33970978770318255	-0.23177169204846157	-0.09578820293799431	-0.4368174065051743	-0.3909086873198589	-0.7401933055309413	-0.3392692795770822	-0.6062929018925669	-0.23028963746102452	-0.4686508166878642	-0.8493696429742612	-0.5467677102589485	-0.26853522590549456	-0.1822655494379713	-0.4635317611912213	-0.851554451222987	-0.6977056843308392	-0.030487185267127254	-0.3348147562633624	-0.7111273986028303	-0.6508875472801593	-0.3704905798617966	-0.5505473599839029	-0.47439765810401885
-56	0.39726856250598075	0.09995985005890494	0.019558509762378506	0.22519174161322347	-0.1936679924605211	0.040112335133606535	0.11910229891270503	-0.5205673562258244	-0.24965017970950712	-0.14557181261979407	-0.17904566183185056	-0.16353800851540518	-0.05270012827323121	-0.3896090080438129	-0.27986740995319276	-0.4745444047390854	-0.09744624768926698	-0.45490762476508867	0.004140443158126918	-0.3046184472499401	-0.48046257970621437	-0.1327462043986966	0.05362031967811162	-0.004445187270594179	-0.25060257252364615	-0.525537310703938	-0.10168765459613048	0.3220713428472026	-0.03706211959899115	-0.38746154210494455	-0.2637827687756171	-0.20281675406748098	-0.40750628606907646	-0.47394883512999336
-52	0.4119379808039049	0.13960698211708497	-0.1762376423200879	0.18467323435411082	-0.21210996753068934	0.10126251701776277	0.11380711914177613	-0.5056505786527068	-0.18635332537331412	0.001756634442357229	0.09769578253398914	-0.036482628342786684	-0.10274238858509045	-0.2906682483963822	-0.06763515604347486	-0.1077194062135922	0.21004502422230417	-0.17964325799885983	0.13118419018049524	-0.04853492962981094	-0.01719224262367273	0.3114988795998935	0.3330894700223722	0.21205188280450235	0.03213363505237524	-0.13716830278574052	0.47582793115643807	0.5840791449105348	0.28367587852382325	-0.024193117333961622	0.11489136488040601	-0.007934542352789968	-0.23663552045682062	-0.4307355571839053
-48	0.400402276697135	0.2240309262579923	-0.38850602409502905	0.12920467522901874	-0.17698229804654797	0.14400301837326662	0.11564160109171909	-0.39249518414583995	-0.07041168940171443	0.15222553870391667	0.3744232347095031	0.08474882670701596	-0.1987388128985013	-0.17119416551282937	0.1490756418517467	0.22787418903992263	0.4683865594959197	0.1541402932090082	0.096059344466393	0.19922739217049162	0.37051159049902693	0.6503599865705844	0.5029426204381082	0.39429020782104124	0.28299871015623973	0.19329157422855367	0.8682503082288687	0.6892942172767282	0.5438352809526925	0.2879495017411065	0.3978663672892462	0.16340078372231748	-0.08113837966699053	-0.3315458587381988
-44	0.29645228311078287	0.32081237354343545	-0.5356548415011477	0.09769207959544182	-0.12297575144713783	0.1392587717831863	0.0955885199279203	-0.23009420873246061	0.05257315175372872	0.2404410683998645	0.5424144254341241	0.143203943606264	-0.27133473685423704	-0.06488301588604804	0.2822769575144768	0.42383673680108513	0.5771413430901299	0.44400575644925994	-0.08435783513943775	0.3501503160696145	0.551684139766189	0.7733388523604038	0.5292193280209968	0.4849513458882712	0.42082410944548637	0.3695216169564519	0.9595770811649472	0.6228371842871675	0.6827317459035264	0.4798033821389852	0.5238034711964442	0.2710890763114155	0.033850595269569336	-0.15703955253053045
-40	0.06314576401264944	0.39402100344359287	-0.5474971518998681	0.1187596839648205	-0.07368144374364448	0.08761315025620742	0.03601622199859682	-0.09849243586230386	0.1351365443632503	0.23810636937106822	0.5474695549494067	0.11140303285605585	-0.27386081149576275	0.0005099244286470364	0.2860608391691995	0.43789243587562904	0.49221178765003065	0.5870520457704911	-0.32568135775355456	0.3584342887888728	0.4863001095891658	0.6404641254467347	0.4189514805229834	0.46592908980035724	0.41234898463091596	0.3527498832379627	0.7291880231566884	0.42227283013541694	0.6784927231824478	0.5219559656316508	0.4757049369722546	0.29763168021397585	0.10616441789287599	0.09960803364400644
-36	-0.2579366558238397	0.4125896085812667	-0.4100814749377731	0.18520057154626848	-0.043758660444405864	0.011786150716290326	-0.06298781915497403	-0.07548470776096515	0.14280582928365312	0.15715597530264405	0.40938213364238907	-0.0004828530060509366	-0.21300524419411654	0.009605455188043613	0.16813981490599314	0.30419000906437627	0.24370728371601996	0.5251917229744029	-0.5104592429624655	0.23096884728768644	0.23520283341629414	0.30207750124958044	0.21556448882037602	0.3624102464108993	0.27606284548678517	0.17242853299952765	0.2631221108945947	0.15995937545444827	0.547358928728983	0.42795368920997184	0.28562462257751214	0.24867270824114218	0.14728383682735519	0.4101481725351083
-32	-0.5462492094553565	0.35873386173275756	-0.1815756405775992	0.2521906190703874	-0.045268427466303225	-0.061446759694648606	-0.18627434921918612	-0.19967202791823224	0.06539192034185547	0.035487703889417514	0.2058406467009139	-0.15225972196760904	-0.14573264085215323	-0.03815023963952165	-0.020284295030879362	0.11033093156376829	-0.07752256820894886	0.2797568433374136	-0.5406300411879884	0.018470868421650147	-0.07305985670717367	-0.11655915499107485	-0.01438733838591429	0.22673468234514488	0.06753524375792236	-0.0873804537235918	-0.2726046138079706	-0.08282206931661307	0.3329410544572562	0.24643671450384472	0.026240069352895776	0.14602051638453034	0.16843120711240314	0.7032593470937646
-28	-0.6590231640389462	0.2358275645977689	0.03230907014795777	0.2604165368657811	-0.08937847591722434	-0.11773955047206529	-0.31129699866854893	-0.4472136188183276	-0.07850990424599923	-0.08449386038905235	0.030700394806240823	-0.2917736165309511	-0.14188504183232648	-0.12869651583126912	-0.2093380237300859	-0.045921247336557475	-0.3576579978972781	-0.049338523173934175	-0.3852722337055495	-0.20611609466488673	-0.30102819128328134	-0.4607237267782975	-0.20003473708193595	0.11160684348777013	-0.1446643021030576	-0.3202137938997898	-0.6874164325524652	-0.23914901851833048	0.09161716676469109	0.045876979712052623	-0.20896834082296106	0.017888219981925704	0.17145636634453434	0.8812515117330311
-24	-0.5171062337217455	0.07189328950373622	0.13223278489105886	0.1713843788349886	-0.17964552297535558	-0.16012802679641444	-0.4155884374616348	-0.7368668895237147	-0.24574750599804696	-0.17252980129074538	-0.050385925791605286	-0.37396901751513906	-0.2363604152195544	-0.2368565493802509	-0.3373258701390872	-0.09843871717633566	-0.5043162094734891	-0.3229446104956021	-0.10131199632338203	-0.37217968608349944	-0.3588696411132131	-0.6038908347141833	-0.28587397860830044	0.045972339692871886	-0.301235138609419	-0.43556716928184463	-0.8308078029637522	-0.271595984011628	-0.12096398293233868	-0.10447318080512782	-0.3340094379098353	-0.10875556590517094	0.1497019674574652	0.8585128762504322
-20	-0.1720911707109507	-0.08715383686472791	0.07803673277464443	-0.008870583005205173	-0.3043199769919809	-0.20336720296059196	-0.48360976454705384	-0.9631923412800262	-0.3831595470768199	-0.21771584396230612	-0.027404516866158756	-0.3766626706150277	-0.4010229100592918	-0.3344567409654229	-0.37029075529069166	-0.036328248587917895	-0.48136874911844674	-0.4243820000901138	0.18498305929687106	-0.4318426836554906	-0.23631755948006908	-0.49660989516761306	-0.24845112797474908	0.0255230049889616	-0.3663189699937889	-0.39116522571032447	-0.6455767734440805	-0.17841097667472344	-0.260651736793471	-0.1548138703967531	-0.300748883918569	-0.21194155460730166	0.09747457479662497	0.6067078098238009
-16	0.19598446736922334	-0.19625393996757254	-0.0918705982630556	-0.23268036485576823	-0.437645106402758	-0.2650328271850129	-0.5127854930328862	-1.0445847484918274	-0.4484141457680401	-0.22835153283640114	0.053275637194116675	-0.3091018490139807	-0.5554238543792448	-0.4007298638239935	-0.31108030598301506	0.09657698845321855	-0.32157283940188225	-0.3152292064814207	0.3304418913127786	-0.3739501824474376	-0.0008947571018472029	-0.18810929310512492	-0.10597261014647305	0.020536908828025426	-0.33459386145038245	-0.21006014890087774	-0.1924149836212164	0.007083215732870479	-0.30568301600526315	-0.09370664483491996	-0.12221324412961261	-0.2776705019616081	0.01890217694338167	0.18059265567960645
-12	0.3600692739932562	-0.23554538130895344	-0.28495624589501084	-0.4364191878744353	-0.5520336614022695	-0.35951328186819514	-0.517537592534896	-0.9623496508143192	-0.428773610701432	-0.2276639932606529	0.11299563915811096	-0.2117761368173064	-0.6124054178034953	-0.43079495321227407	-0.19767849097410772	0.22255675438480688	-0.1144725975484326	-0.05663224667913608	0.23983229636198808	-0.22981686832102094	0.23272240103138994	0.18814860236825506	0.08382209369238795	-0.005059221746665208	-0.23309293330470066	0.023813284873444283	0.3643250456194743	0.22230833712717143	-0.2667388015211446	0.04103327159654476	0.1223913502583324	-0.30385214013632	-0.07152590137542947	-0.29473566934558565
-8	0.1662386055563926	-0.22402526381675295	-0.40767881171294323	-0.5744059071343592	-0.6336779578422557	-0.4949545251747679	-0.5266194926317478	-0.7689655403749854	-0.3497208944074144	-0.2456923418994466	0.07818563262749802	-0.14456212484100936	-0.5312772975859609	-0.43956306465749817	-0.08940876997785495	0.26209008627523683	0.0264695155697342	0.21923974101026986	-0.08431965091397492	-0.06505508704449955	0.3488578489555681	0.46175211551433326	0.24082563756698439	-0.07287854682880529	-0.1144218367429539	0.1938357795351402	0.8087173679914491	0.3890063752843328	-0.1881045992393607	0.16975374476966282	0.3094664506251512	-0.30248656792564116	-0.15631571372620562	-0.6710410697207316
-4	-0.37176886107042234	-0.21208894199229789	-0.4172321845487781	-0.6400818212561106	-0.6913503987023535	-0.6713184101321713	-0.5725649580804745	-0.5623005018342645	-0.26747924021899744	-0.3090231708830758	-0.08582870640542707	-0.16491872030581875	-0.3490840485819196	-0.4578494716051954	-0.045562393848302955	0.16392829972840903	0.006214121806578621	0.3737342944246062	-0.5338855968347467	0.04161468510253838	0.27359139850205816	0.4884161936826391	0.29074993656184067	-0.17908430054272864	-0.0417734793263997	0.1941543663606603	0.947341618530281	0.4346401382439935	-0.13548681105738852	0.19895869443252256	0.31686609903443214	-0.29779016896403343	-0.22498366179883791	-0.8375061729266989
0	-1.060742733184614	-0.2530802481937364	-0.34056046519126915	-0.6610186679363435	-0.7485246043380318	-0.8756689407174627	-0.6745755655423438	-0.4357392478908767	-0.24491880772266575	-0.4285332251696598	-0.3576388052017089	-0.3027545206055524	-0.16720391767725407	-0.5189024792921616	-0.10211924437727883	-0.07616633902631496	-0.21527770107276328	0.32729655421592246	-0.9359695291730064	0.02802930765227815	9.06480779561761e-05	0.20595298655487068	0.19440008650812649	-0.2978206865420814	-0.06739335490139278	-0.02609215670196879	0.6811234933822572	0.31766790071392637	-0.17085185603874856	0.06205785258837514	0.07861000279606617	-0.3184773317879325	-0.27975091267527336	-0.7669218759247314
4	-1.6126621920877822	-0.3667233279029242	-0.2513298087927146	-0.6728020293415298	-0.8224458673693246	-1.0765829059122605	-0.8220297077405535	-0.43227410207328565	-0.32053664245740066	-0.5890814051060351	-0.6654561145193783	-0.5414453731218124	-0.0993574706191645	-0.6405909641304965	-0.2546362274416695	-0.41291195049939816	-0.6046008452409551	0.09458498632869312	-1.12872123433287	-0.12347173659622282	-0.4099224199435915	-0.3379497519543761	-0.03334138161466792	-0.394681542115326	-0.21014521962991864	-0.4356950510468874	0.048407323536249595	0.04894635813991491	-0.32285109080818564	-0.2446185195230455	-0.37611731791903213	-0.3853623857305447	-0.33267795955588186	-0.5243440257185475
8	-1.7838460161947691	-0.5159710632648642	-0.2220138007757575	-0.6891589743380743	-0.903631982906079	-1.2248322932790556	-0.9701963042559647	-0.525613425835124	-0.48458644625387753	-0.7483401279629177	-0.9137994623954844	-0.8165502527601861	-0.20760098047294348	-0.8101055005601184	-0.45687258128211555	-0.7662959675515252	-1.0626664134852382	-0.22651492002041285	-1.0368596289205723	-0.3744907965741855	-0.8486962893039336	-0.998947379451167	-0.32441022910228384	-0.44404855258410064	-0.4439967263455993	-0.9269931889017852	-0.7812164406126095	-0.3027715079292705	-0.5687045440620533	-0.6512330754050499	-0.9227340198108235	-0.5006502258058344	-0.3969589461794767	-0.23510552883394398
12	-1.4966496191384981	-0.6173894985823851	-0.2799470417584116	-0.6893572789907414	-0.9525296067984326	-1.2670674292045268	-1.0553067895948227	-0.639384804541867	-0.6774212700906705	-0.8501059987539572	-1.0216361258462148	-1.0369490358875095	-0.4636995780681627	-0.9822056864735687	-0.6385292990775657	-1.0494908067909032	-1.4575428925908098	-0.5066385852420092	-0.7095185500351149	-0.6437244995077169	-1.2010105817989776	-1.5863494832995402	-0.5803044423710843	-0.4412847448174885	-0.7055329066583369	-1.3553680147283542	-1.5634734591110806	-0.6283300503125754	-0.8397553541916196	-1.039364812134157	-1.3858104909240774	-0.6457549913315089	-0.4791409361186241	-0.029586028232978775
16	-0.8791031219221711	-0.585963724564285	-0.3937709917617137	-0.6345506890488535	-0.9219102836221074	-1.1733926505027394	-1.0277857754507447	-0.6955215913378489	-0.8150001147674263	-0.8514128305873583	-0.9592912768939709	-1.1245222063283349	-0.7596566061867572	-1.0965245934458359	-0.7377301435918172	-1.2026028602754872	-1.67349922234495	-0.6476893408635209	-0.30118358059181843	-0.8428405502020493	-1.3868007624898755	-1.9337261866385016	-0.7087456566082638	-0.40473586218691093	-0.9207109785676096	-1.5993419845255872	-2.067785973096603	-0.8163069466008273	-1.0523158285275451	-1.294976469585113	-1.6133638579643066	-0.7905856350965534	-0.578160701722505	0.006361386722656599
20	-0.20246976562879712	-0.39101171394809303	-0.4983545827204286	-0.5021374212938704	-0.7944735268561467	-0.9667196845442833	-0.888233480595103	-0.6633167846145012	-0.8303238132493981	-0.7521231751526157	-0.7693541626579398	-1.0555976602605923	-0.961941955045085	-1.1066271038726	-0.7348028998896435	-1.220632073181628	-1.6587631660543352	-0.6229854210383495	-0.0033681185365368065	-0.9202200151098343	-1.3933055365670806	-1.9629524896652983	-0.6597955210239957	-0.36774286534923323	-1.0405030224279141	-1.6155623156766514	-2.1640262549123355	-0.7980403879997902	-1.1495728463712893	-1.36380970133729	-1.546910758881291	-0.909765241233337	-0.69024973933471	-0.1443301584652904
24	0.24917115208181792	-0.09004764236126697	-0.5416274057064968	-0.3145347825692183	-0.6123377665318461	-0.7346955519246741	-0.7046089750620063	-0.581581769905396	-0.7120228391790302	-0.6102606042713128	-0.5606833086163016	-0.8824340082777445	-0.9820378397943049	-1.008550283746685	-0.6698344332949451	-1.1635054320523603	-1.4516454898423328	-0.4792633640586836	0.04057519127615093	-0.8903949238231359	-1.283618566133259	-1.7152354673949106	-0.44738650209006214	-0.3654200425458784	-1.0670591565848042	-1.4609326087306282	-1.8714430284934442	-0.5799045548102958	-1.1313137979554748	-1.2785459724571013	-1.250641223610928	-0.9958370302807056	-0.8142315128749882	-0.43650403508605884
28	0.3075517706258654	0.18266624166146223	-0.5238940106516294	-0.14456769787528181	-0.4768410611034498	-0.6108331664875797	-0.5965157732208102	-0.5413900600116005	-0.5202935920930623	-0.5308773504205277	-0.474553047412556	-0.7214548569584088	-0.8264694789047287	-0.8541011788738753	-0.6330041273347711	-1.1410711974898606	-1.172359821220679	-0.3072698108544673	-0.2023710156338148	-0.8329877832362634	-1.1765109270909357	-1.3358951773293983	-0.14687037430875338	-0.42217036975130673	-1.055767891125641	-1.2694222895043674	-1.3486052717492127	-0.24616070029574794	-1.0538573238468343	-1.141232606867505	-0.8829865433334174	-1.0608057948986271	-0.950995621664366	-0.7898181656923632
32	-0.02017651865752667	0.27226224472924515	-0.5044293390889871	-0.091404981680407	-0.5122172819556771	-0.7265139799848813	-0.689379749941765	-0.6392475350452959	-0.369431017896622	-0.6282526238792077	-0.6337858422490267	-0.7103899103348864	-0.6001359209167483	-0.7390284519610368	-0.7289189677908516	-1.275537487624304	-0.9820340847016936	-0.2003846908516899	-0.6458218081381334	-0.858949241853731	-1.2034920423640016	-1.0189944479964392	0.12929049101611745	-0.5438641892053356	-1.089768764605471	-1.193306800690498	-0.8294218161622894	0.07057967764200913	-0.998529610496991	-1.0694421502769078	-0.6229504927165994	-1.124084708236788	-1.095959064577635	-1.118566271818836
36	-0.5850806221495224	0.07887449840658918	-0.570781646717942	-0.23473450482231512	-0.8070397952684811	-1.1517133683690588	-1.0565410825757153	-0.9232266521986483	-0.3812308599860472	-0.9752401088887686	-1.092964646440969	-0.9511604881113985	-0.4595895397980525	-0.7663055638993098	-1.0295656893485334	-1.652893896698121	-1.0226837370801423	-0.22290869000899463	-1.1305863828724725	-1.0589357587781654	-1.4578199349790264	-0.9332252121251866	0.26873648098807057	-0.7171268445029053	-1.2386760680396358	-1.3357524838101664	-0.5320352898516558	0.2406101965789877	-1.0260313723408552	-1.135371086115092	-0.5871644601302537	-1.1945863932013054	-1.231069561711184	-1.352917906206403
40	-1.1936328380965964	-0.3876885165916762	-0.7878431061880724	-0.5922467693634853	-1.3638057674307449	-1.8534449292117978	-1.6772873359294411	-1.3616465295745632	-0.6290862544389315	-1.5629900654431728	-1.8103818847724868	-1.4634638987785586	-0.5383745418307374	-0.999917325833148	-1.5364013871503173	-2.28181051631845	-1.3610254491775717	-0.39872941274109247	-1.5016915760273188	-1.4572970830363767	-1.9548617552039138	-1.1585068673448267	0.1973769957804338	-0.9143724418442636	-1.5211977920272648	-1.7066813664262122	-0.5786261543923809	0.18844297480689629	-1.1426702708958576	-1.3322157826167031	-0.780840394909671	-1.2593785492572034	-1.3250122036859158	-1.449210401690827
44	-1.7048441128602942	-1.0066925261830162	-1.1546348304207037	-1.1028367253116131	-2.085845703580792	-2.6954877308501874	-2.4331512389740713	-1.8506408883100638	-1.0980128022128306	-2.2923035563767966	-2.6546609334679134	-2.1701331083820246	-0.8806818105397063	-1.4292324745333196	-2.170471662763494	-3.0782930773263235	-1.9588315437452217	-0.7142578345385302	-1.6770280557253228	-1.9949530312715162	-2.6208932333578563	-1.658422823533527	-0.09456590539183257	-1.1031852932733797	-1.8922814083007569	-2.2233567181719645	-0.9586486792202698	-0.07802337388366788	-1.3003416028570898	-1.5879709680519158	-1.1082079382573418	-1.289390799128024	-1.3471267189346474	-1.3956656420756481
48	-2.072810644638482	-1.5995206792501726	-1.5938132961087597	-1.6428695875651047	-2.8099887300117836	-3.482273808270482	-3.145543090507974	-2.2554104271211877	-1.6802662568585045	-3.00241183476583	-3.44462155426093	-2.9195933268267336	-1.4146870338962152	-1.962730521968715	-2.7953662801738237	-3.885034789767036	-2.6818549565315792	-1.1246523828721957	-1.673508282250933	-2.5488533909341484	-3.31588172075418	-2.2980091513788707	-0.5471849427713229	-1.2557256190067216	-2.260826820387542	-2.7533557345492996	-1.5469189843222493	-0.4725584077825059	-1.4303476774342514	-1.8178399755358225	-1.43500542278382	-1.2605605093601153	-1.2901145187230596	-1.218037483001106
52	-2.3199558199483388	-2.007479424176597	-1.9812711427257375	-2.0707669205835835	-3.3707311068309087	-4.029182423909323	-3.639074316373744	-2.464121335484014	-2.2101545278061265	-3.5270161539674545	-4.008122434033296	-3.535948506010943	-1.9779415080677012	-2.456299537179177	-3.2646186269352424	-4.521450031309046	-3.3447704230738213	-1.5597901304918402	-1.5849324424782276	-2.9799194260701767	-3.8827016255578384	-2.8981883452676165	-1.0482902500388684	-1.3565114702308385	-2.530160897542622	-3.1775996604801398	-2.1641824190812526	-0.8674348570857554	-1.4922349415297103	-1.9842307517499425	-1.6679689842073622	-1.179239746931153	-1.188551422933034	-0.9834704374278646
56	-2.472323649840136	-2.15313100271206	-2.198244566135757	-2.2788424434347085	-3.6632680800455706	-4.227019776162518	-3.801929464278004	-2.4278039870954817	-2.5249338086275963	-3.7534408474570666	-4.236598004135161	-3.8757746121781107	-2.3824953972745724	-2.765748493841131	-3.473933926394565	-4.846066939516566	-3.7748014831605823	-1.929888243571104	-1.5251109561561789	-3.1877670207602558	-4.2032675636980725	-3.302805892234947	-1.4677736722128067	-1.4058065378935507	-2.6410767965393194	-3.4409816178229766	-2.649137490259813	-1.1442770929056558	-1.5070095024207526	-2.126495117540662	-1.8052446796615558	-1.0944141121889575	-1.1183984251395722	-0.793524501704429
60	-2.5091905530521097	-2.0552017636862363	-2.1790039484322596	-2.230952257245805	-3.6752157118513433	-4.072675694673537	-3.6189081577485114	-2.171420807124501	-2.5280184681962243	-3.6595845130077516	-4.114952077013088	-3.870841493370375	-2.4908575948769607	-2.803464405611142	-3.3965232286529967	-4.806727397226973	-3.8701841733494518	-2.13857054170451	-1.5675052364827984	-3.147416583697824	-4.239086140420383	-3.4306847962547353	-1.6985235171349802	-1.4162267410761655	-2.59529947579308	-3.566142550047869	-2.9101285860974557	-1.2362760274191693	-1.5511654576239058	-2.3397102296885026	-1.9284754942842046	-1.0838330956751445	-1.1711022824283828	-0.7583796362803134
64	-2.367263311131389	-1.7954612925021134	-1.9334835957348782	-1.9739122340910578	-3.476315012738041	-3.657186260526624	-3.167698375333629	-1.7773485138842084	-2.2290117684353965	-3.315993300648918	-3.719029178766482	-3.544395199410027	-2.2713227214688305	-2.5755925113500373	-3.0895636003691576	-4.458882320590549	-3.631931057343317	-2.1098923629896844	-1.7129782395029656	-2.9141547606325786	-4.040793408682255	-3.2933654702006763	-1.6900393920190715	-1.405379530219458	-2.449404948726125	-3.6269822029094008	-2.9379475042553693	-1.1443985671714014	-1.711788769214831	-2.712521307772514	-2.1413192694960324	-1.2169606654913125	-1.4109076225898391	-0.9555050110534631
68	-2.0010924288771705	-1.4640177451364131	-1.5373500546741672	-1.6185648400449864	-3.176574460592591	-3.122400037511595	-2.5862200194866576	-1.3536080087818703	-1.7437579587779763	-2.855155460778486	-3.1850740829161026	-2.9999515934542926	-1.8102201177669748	-2.1825060789318407	-2.6714270047451634	-3.943835963782395	-3.158027640952528	-1.8206765605735216	-1.8966801118647854	-2.596937888264529	-3.7230529691158196	-2.974846355556862	-1.4615131579692746	-1.3864524329466876	-2.2838096560991694	-3.698101034364364	-2.78092717422273	-0.9227275229045594	-2.025783772122326	-3.2579848684070694	-2.489301198396515	-1.5111767015450581	-1.8345783902579664	-1.3867216075218136
72	-1.4548398219570706	-1.1202614279119683	-1.0983138056681863	-1.2992821899035267	-2.8781580852321285	-2.609495633212682	-2.027562374717933	-1.0024907563648282	-1.252567168888048	-2.4224581657283637	-2.6644236974203155	-2.3892524182078296	-1.276002284643089	-1.7812238886684304	-2.278534883468444	-3.4348595055642637	-2.6036136084625183	-1.3213896718041926	-2.02642034972692	-2.3120040835182194	-3.4149577531425868	-2.586149209168843	-1.0897022458220695	-1.3609431947679893	-2.1614100878504594	-3.806999673768377	-2.5019969877016197	-0.6437606199223597	-2.4370469985467547	-3.876441945779331	-2.9075515196824533	-1.9044480275708813	-2.3545741975464827	-1.9551380823363949
76	-0.8893496967749936	-0.7907146195475218	-0.7186818700765244	-1.1278077335493488	-2.64663361834841	-2.2226028386267487	-1.6203032691101162	-0.7991923669664557	-0.9333680248537078	-2.13035201488505	-2.281181091271211	-1.8697546673297993	-0.8505732991678164	-1.5244311055795872	-2.019726986554122	-3.0736641806247538	-2.1232552474774304	-0.730586288514944	-2.029039616230317	-2.1378972476388274	-3.2077798762395133	-2.21681212819215	-0.6772763711995874	-1.3170232739575507	-2.097378963897132	-3.913547505988383	-2.142720217063296	-0.362890749253543	-2.7995152402768744	-4.374673355501642	-3.229337922526027	-2.263284915931873	-2.8177213597682615	-2.481920474461903
80	-0.5358192907156678	-0.49826219552126	-0.47163614511622476	-1.1572024793018554	-2.510395758966425	-2.017368788394182	-1.4438353740478425	-0.7813747505487333	-0.8961400367045965	-2.031284565565469	-2.1050193256637306	-1.5625925024635245	-0.6580412371233956	-1.5010437927495355	-1.943657512525903	-2.9222586081157806	-1.8177869274021063	-0.199263005945655	-1.881572003382422	-2.0889868683525243	-3.120734445322197	-1.9050803136410623	-0.3149228386080487	-1.2354203431409343	-2.0528385587361484	-3.924561967477908	-1.7127248005540203	-0.09962460373521216	-2.9287078306641954	-4.534140098568266	-3.2546083844983578	-2.426203960015171	-3.0527152938063065	-2.760301106159572
84	-0.5908006414755959	-0.294055341931837	-0.39583116669852886	-1.3668615783513745	-2.4776499208838176	-2.0076205679750685	-1.5182113609129786	-0.9472088193820567	-1.1437797517509056	-2.114059681323279	-2.142404312446784	-1.5199580154190666	-0.720806656448113	-1.7024438338212493	-2.028474087362116	-2.9483237192102507	-1.704417820441937	0.14148755335848415	-1.615482326243565	-2.1156673377981017	-3.0975942533487597	-1.6368033844630498	-0.0535609236497429	-1.0996510954749907	-1.9541463802591257	-3.7338664437436697	-1.2056357830125808	0.15714015026949613	-2.6785886220061346	-4.196001042262561	-2.8435692715377185	-2.265169376376334	-2.9271006510265294	-2.628275626222518
88	-1.1073702545817834	-0.26033294135169466	-0.5007767068617285	-1.6724091726040498	-2.549730532884449	-2.1749057714864297	-1.8030537321344335	-1.2550083367133056	-1.5734416206688602	-2.3170924128205583	-2.3420481622692697	-1.7094722943061287	-0.9591632461173165	-2.027475828773938	-2.1936025564123693	-3.046439163145883	-1.7196493105386739	0.22678317072354723	-1.2972516980797348	-2.127566093795282	-3.0332012099932704	-1.3684447969219011	0.10309845183091847	-0.9063858963016835	-1.7267808870587544	-3.2671539700990073	-0.6271625741383074	0.42585298311481173	-2.0067419955132975	-3.3233303939836647	-1.9874960133917838	-1.7379180149069176	-2.3907835423189545	-2.030171627641033
92	-1.9459540794833006	-0.47202327728306354	-0.7718871812405643	-1.956360215969784	-2.7169151237556832	-2.4701006350142056	-2.2033152524632866	-1.6252444941495208	-2.0164599367729417	-2.5488605434915037	-2.608628504842679	-2.0210599848265134	-1.231717583407546	-2.322137111523032	-2.327445739591904	-3.08262061294467	-1.751062865604626	0.07858132551142102	-0.9971184705354964	-2.0285098501488905	-2.816699020903655	-1.0588202449768824	0.18568651331273417	-0.6704015714885511	-1.3274420466286945	-2.5116031106479473	-0.015123647599481732	0.7077783328306463	-0.9958341096531189	-2.0136895128907764	-0.8200435617723625	-0.9066527462956692	-1.4893693886347232	-1.0380390856284099
96	-2.8199405598969363	-0.9383783912808772	-1.1678689688760604	-2.110103601850235	-2.940267555442749	-2.809902422486367	-2.586191647675816	-1.9517433594064282	-2.3015270175046325	-2.708852284267983	-2.822454922225793	-2.2989833296906204	-1.3983933890322624	-2.4387681422649434	-2.3214604795972495	-2.9429664537513647	-1.684145684758561	-0.20954132027174027	-0.7611860613678323	-1.7498156980204946	-2.373823875155963	-0.6922458988831981	0.23528726339540532	-0.42025112999670716	-0.7616304735981555	-1.5206855497113583	0.5627887830830317	0.9765288805148482	0.17718350842564048	-0.4626323569061538	0.4353059221244537	0.08407962301007044	-0.347406982498431	0.17340184704393002
100	-3.4141950521099664	-1.5602016409583304	-1.6146284301046685	-2.0693564362731798	-3.1350481431009998	-3.077273361066081	-2.8090691495545106	-2.126300567980606	-2.3148908556666927	-2.704193585244101	-2.8621935772157947	-2.389737838433655	-1.376036640507775	-2.2907941283563154	-2.098608250087876	-2.5657665664743328	-1.4435898029119878	-0.5127284513879802	-0.5962774142469551	-1.2694495884316055	-1.6908253388630954	-0.28163686323584997	0.28337567973116995	-0.18643268895763218	-0.07982331494205071	-0.39560112257259905	1.0352662775604593	1.1887177198915375	1.3075007167229868	1.0997564764866874	1.5536453684681697	1.0585278245903527	0.8664398171483872	1.384612437567117
104	-3.517375937164401	-2.13777923044247	-2.0048630186961423	-1.8292720271655898	-3.175457231133742	-3.137962094967422	-2.75643681783925	-2.0702648110572635	-2.0340766855382784	-2.463514321783154	-2.63034748366968	-2.1912856046665103	-1.1618949145545954	-1.880719776173575	-1.6297273594717598	-1.9490301559831025	-1.0146266196383262	-0.718775687787164	-0.46941187859275724	-0.6135540589100619	-0.8148058036259491	0.14500433169948154	0.34361827286749363	0.011988899640272225	0.6423619373315916	0.743295488865089	1.3611818517650673	1.3077434268358996	2.230443471999287	2.467501395671403	2.3868453442392976	1.864941473067049	1.9760577628789757	2.3939771591779566
108	-3.10254096201547	-2.4388043818888754	-2.2138540688887054	-1.4346662723559043	-2.9311268255616523	-2.8776435779397267	-2.377228730875516	-1.7627428725560328	-1.5238100251825957	-1.9515740822156935	-2.0799925274786264	-1.686888690504199	-0.8196535685825818	-1.2924995389730805	-0.9372290945232199	-1.1395006151039946	-0.44072103389094847	-0.7611364106988597	-0.32473778642682	0.15495836695648502	0.16330060321586418	0.5616175518161524	0.41405019059547765	0.1731179203192593	1.327012297140949	1.78046440628662	1.5481029709830783	1.3236076798399745	2.858434431488591	3.4893898875829596	2.892364256232028	2.4096283851821423	2.824329845927114	3.0589342040078904
112	-2.316073888653208	-2.296406263275618	-2.134728903149146	-0.9534358358153096	-2.3257017076901794	-2.2490324917277444	-1.707759256819609	-1.2526576487385885	-0.9002793408552175	-1.1850714653612537	-1.2371125190018353	-0.9519478058622489	-0.43871289380889084	-0.6541218741114405	-0.09040080733125011	-0.21672944669840857	0.19460701893310298	-0.6308565123842912	-0.11148763419852033	0.9507644748525107	1.130477783209966	0.949285027968276	0.48254510638476383	0.30579352301639773	1.9064590882805257	2.615587943149083	1.6397433239545285	1.2540564505386458	3.1726322093971002	4.068036545973092	3.102778665338234	2.6578078202855298	3.287660113617181	3.3048961079126533
116	-1.3918836081649089	-1.688729281930216	-1.7206988291212293	-0.4474375236658611	-1.3882952893492004	-1.3065669503602932	-0.8662511088435048	-0.6461204870123488	-0.2835992269508356	-0.24276356337767388	-0.20763981289891661	-0.12914748457250114	-0.09192722267544925	-0.08926879592053394	0.8054984787631257	0.7188900094955546	0.7923763374350195	-0.3713838746707901	0.18930529010184594	1.6784276919904049	1.9695174644335742	1.2856817213023055	0.5273973928487474	0.4148346175210637	2.323378080224122	3.163425914406916	1.6761406617761472	1.1240218849413535	3.1840035834986393	4.144376744297197	3.0610539835893307	2.610507720078413	3.2866015351286424	3.1129968087755704
120	-0.5421982989927142	-0.7578269224107066	-1.0151398156285467	0.04392022628424225	-0.26962894133203924	-0.20862525648850014	-0.019416272591206894	-0.07412658613086441	0.23967128931569504	0.7380071859800337	0.837260184558332	0.6157441719721594	0.1842762525197478	0.32010921755079547	1.6236164528862362	1.5512703617984458	1.2567776409843512	-0.06449151022840995	0.5450687990732049	2.240223402089341	2.5692863399487225	1.5250507554651076	0.5121715651932498	0.48507994290904943	2.5226256783691414	3.3509204303062186	1.646977062835496	0.935325858615702	2.892367594092127	3.687874307858202	2.7629871298649484	2.277175897570996	2.7981927324219367	2.504702084893276
124	0.11435256869531919	0.24478155312725577	-0.14988332948989763	0.4988850342552679	0.7922682146096699	0.8203017094882329	0.666879771456244	0.34740248234776183	0.630182622272162	1.5836893280099307	1.6981371598285215	1.1394323081812543	0.38107985161889	0.548227487610457	2.2326042595762288	2.153498882578685	1.5032870731546382	0.18785060894745284	0.8701120593037276	2.5422525341698083	2.8312435078664455	1.5841532905636908	0.3816650500198173	0.4748212087087234	2.4453153548491215	3.120034925212879	1.4652057849130766	0.6461080296416222	2.270950311649214	2.7039508751311883	2.141795391397296	1.6634180503809617	1.8691244078175355	1.5378164014137126
128	0.5588748440937374	1.0589532825436851	0.6920769197156864	0.8952378011989093	1.5485159119610397	1.5573354920168974	1.0741578313410518	0.5487629161331226	0.8842194654074835	2.125989908572821	2.199305290391502	1.3523898090550264	0.49026322241027565	0.6136823877099393	2.5198182996073086	2.4041445194580726	1.4623156749045043	0.2840273075085317	1.0511078807995768	2.5074512895219554	2.6816091469771464	1.351470586225621	0.06826089305332768	0.3283807328993272	2.038680786707684	2.442301982435465	0.9839611028624167	0.17699411466734485	1.29106151731686	1.2569175926899305	1.1075828047445158	0.7848259786818045	0.6233777984139153	0.3151046923787993
132	0.8257961848390458	1.5136808118750396	1.33717250486371	1.1949839561809537	1.8278571321114838	1.8540807915606563	1.1578155726764672	0.5172469006830602	1.0113050912119588	2.2520606460932684	2.240788454120385	1.2291291921100649	0.4815417217971482	0.5542640075994888	2.4192666946365677	2.2190940324069697	1.0873795720303263	0.14529578351053615	0.9901738141809596	2.097896332212476	2.093260282953551	0.7253766637607936	-0.48619031783376676	0.003491611909619028	1.2828423944509537	1.342469927259393	0.05884506911083562	-0.552059172190169	-0.026266507738077212	-0.5076993691023987	-0.3772339215291128	-0.3023879818434316	-0.7462929468386308	-1.0083062623315908
136	0.9432831382777713	1.5777842958669415	1.6803076224818743	1.346144911228386	1.5997753102920103	1.6861364798890328	0.9477770900639105	0.28769260572277316	1.0171269152710516	1.9454311083313616	1.8319427920819424	0.8023499230154599	0.3051003806040547	0.4048881520539276	1.9371691893306144	1.5901639421369553	0.37188544775530863	-0.262926220230035	0.6528530700413102	1.3403247560993428	1.1112130852300401	-0.3315151027415723	-1.2988674607862267	-0.4970958816375622	0.22400130274961375	-0.0803331507204304	-1.3690023387677224	-1.5704649647162925	-1.562187071670786	-2.3614311158641312	-2.2288865986816844	-1.475381847471308	-2.0092148730094954	-2.2363164368434676
140	0.9048334933324279	1.345899101673953	1.715315337618708	1.3067154851346985	0.9855611895473723	1.1594431371025946	0.5273187743224872	-0.07890681157455647	0.9024389959439116	1.3003632989477332	1.0930349799216263	0.14842608533578566	-0.07917752096928161	0.18897420120211575	1.164317962567887	0.6109909399819018	-0.6315203293114787	-0.9169601774906537	0.09783287321662641	0.3418415180158699	-0.13316653635259143	-1.748149986621807	-2.3207166136323307	-1.1067861290644594	-1.0050582860366906	-1.6481014448517002	-3.208791963105244	-2.818233482874879	-3.0882208269350477	-4.023191441868785	-4.219947804287062	-2.544853204024082	-2.9454846307774774	-3.1698484340745385
144	0.6870498043833775	0.9733731126051828	1.5234156808537573	1.0760498019707354	0.21149021333704074	0.46936830759753645	0.0017769739452588695	-0.517045138961005	0.6763272268385805	0.4984242307476728	0.22071987334791776	-0.6292572005597158	-0.6631621105616996	-0.07545798252843146	0.2635619037649596	-0.5304081426580406	-1.8024265720636903	-1.7370303825391635	-0.532485424127863	-0.7192820292432526	-1.4351950847630164	-3.337285510220404	-3.4340572270476124	-1.7022840933736545	-2.196078533350088	-3.1264622132520716	-5.2109227048917806	-4.143259991675505	-4.3075814138375375	-5.218266950783883	-6.022501453453093	-3.2912602341525248	-3.3981213483846795	-3.6617774870927913
148	0.29322904274340195	0.5989940151350244	1.226163384202819	0.7125794273505376	-0.4764879333863696	-0.17137557224874528	-0.5294485674842242	-0.971012232236235	0.37124359513966537	-0.2490404390961555	-0.5730748162105959	-1.4163087570671695	-1.369461175322045	-0.36355569866897836	-0.5716539010873828	-1.5999342162745802	-2.967799894469306	-2.608271592230665	-1.0621752712135288	-1.6348172384948587	-2.5631890232221735	-4.83602522582732	-4.479646671429237	-2.1380386298558776	-3.114543906931454	-4.274904717142694	-7.025671464348067	-5.3411664827917065	-4.940287100716671	-5.748249039442144	-7.303332310357245	-3.5281889349550943	-3.3108644401882343	-3.6654670145950727
152	-0.2137142563430909	0.29560643359891087	0.9270600057084097	0.3207631699092976	-0.9008696056509379	-0.6065614804212467	-0.9902954076559944	-1.4004741871761177	0.044580519086816345	-0.7719437460483133	-1.127370831504248	-2.1041588730139256	-2.066373343018993	-0.6388701780401755	-1.176210877309894	-2.3921809136075405	-3.9430618186580073	-3.412866345371988	-1.3513958420012615	-2.229159826372645	-3.3256990825610586	-5.982827171479286	-5.304076658208835	-2.2957684935781315	-3.572705975095385	-4.911041724203595	-8.310093858718737	-6.222070201423351	-4.818745124094824	-5.546530709568134	-7.831614951387961	-3.167729846585991	-2.738145582915338	-3.25246762408201
156	-0.715891895870922	0.06437555684287277	0.669176755646154	0.00838751157490721	-1.0093404029158328	-0.7845633606175871	-1.3361562456728555	-1.7806723072870716	-0.23805862605072367	-0.9987679098662013	-1.3796584571337627	-2.6094503336827675	-2.6165828638771615	-0.8609234072883525	-1.4682960473182995	-2.800870888314223	-4.586951721054558	-4.060000409366183	-1.3536891903078492	-2.4197721420229867	-3.633689871196909	-6.600886805081189	-5.807634338974828	-2.1280934756909233	-3.497389784565936	-4.965903269627827	-8.840257622333816	-6.674698335961727	-3.952080478226912	-4.698194968759536	-7.553793888094031	-2.258265728017299	-1.8240551902494397	-2.5875976020332283
160	-1.0867732735852018	-0.1348801400832351	0.4303957809072211	-0.16435910719859667	-0.8784430004829503	-0.7621768097707874	-1.5552376469446794	-2.1001174396897784	-0.43016669045560524	-0.9748303269569724	-1.3754371369921377	-2.8924641536164195	-2.934475414496679	-1.0010703776834167	-1.4752706252044379	-2.851226084186234	-4.846654402893989	-4.498843658532869	-1.130537030226723	-2.246837848712656	-3.5282974154083115	-6.651457292929585	-5.9704689828813375	-1.6750402408270824	-2.9597330018657715	-4.506490696019665	-8.580984093935683	-6.698577863947092	-2.5284676487981175	-3.415026179274616	-6.604085905567497	-0.9756179427310459	-0.7587159852899317	-1.8698306036470516
164	-1.2519613472800803	-0.3426656118324538	0.15609993001150232	-0.21624547188521553	-0.666743276820053	-0.6647528989220937	-1.6649222331927156	-2.3570327699279705	-0.5261617885656732	-0.8325961211164332	-1.2358175484927145	-2.965626709126282	-3.019749633794322	-1.0556334230473672	-1.3157520260969908	-2.676754467881737	-4.770610797281537	-4.7117848277340135	-0.8138427117780999	-1.8545732451345471	-3.15796374477349	-6.233944400306946	-5.846413597604947	-1.0464265320107369	-2.149021143255884	-3.71265267388451	-7.683868865640379	-6.390555365640301	-0.8518717267463254	-1.9727605531476153	-5.247653947932588	0.43138733397287865	0.27276790073192053	-1.2639079062022498
168	-1.2248984544345893	-0.5727038965070951	-0.1925642485525183	-0.23472303092822483	-0.5395281301228078	-0.621011911254819	-1.7020862059535	-2.554163449514492	-0.5630859122364869	-0.7256008964338725	-1.0961793633441685	-2.883627169004331	-2.947475187489371	-1.0465104553503688	-1.141911265351204	-2.4488089022798762	-4.479583252087356	-4.69809101825931	-0.5335994945405471	-1.4276411497311239	-2.711396210500574	-5.533744798040356	-5.530478463514911	-0.37636771703110133	-1.2974903550768129	-2.8131425309681766	-6.417289240847463	-5.89517782630263	0.7622530441112627	-0.6310845597546261	-3.783346643432587	1.7208569006387744	1.1334043712610486	-0.8506424405555814
172	-1.0982952090190634	-0.8097135404170651	-0.6012509450037463	-0.32693418777892536	-0.5969325288960274	-0.701947031633058	-1.7077498392857582	-2.691597454904809	-0.5993677362568225	-0.7558271865835411	-1.0433351967219109	-2.7176396778157432	-2.8209228444403545	-1.0083447669320185	-1.0677856179934926	-2.2935738505630425	-4.110017766112461	-4.46513508623028	-0.35135719091397954	-1.1110341520868763	-2.337227100193429	-4.745197284162106	-5.11882637638895	0.22711765708802104	-0.5895609840766871	-2.0063874670870687	-5.06468437823463	-5.346306310507001	2.08740329215413	0.4348610628592957	-2.4496898589274325	2.729553931020526	1.7570003226742912	-0.6156172736837529
176	-0.9931384299953131	-1.0260056231343773	-0.9962335799813951	-0.5582547173710599	-0.8349414446731339	-0.8892998672920872	-1.7077685551441704	-2.759910814946568	-0.6801010353083616	-0.9275102591939063	-1.077934977670932	-2.5220401223403464	-2.7136804989011787	-0.967184839190936	-1.117171403925324	-2.2362718525692884	-3.755710592324383	-4.032748212169364	-0.23585219621716014	-0.9506930088836054	-2.0868611283066216	-4.004274358176312	-4.678861129391845	0.7127935272340302	-0.09697288995339773	-1.3976278269767	-3.8355159662684013	-4.825247752404823	3.0421562118017156	1.1695135802305505	-1.3684655393382306	3.408970824217883	2.1487500613321298	-0.47389337300816986
180	-0.9954650376936015	-1.1990987032179892	-1.2732858625689536	-0.9113540626404584	-1.152723309467583	-1.0868691178537586	-1.697538013940752	-2.739043705700546	-0.8088032582843536	-1.148099538765451	-1.119087335622147	-2.3103766383013813	-2.634178870226169	-0.925712761925953	-1.2157967059910773	-2.1998662893067116	-3.436069479850149	-3.446893444895453	-0.09474550908724856	-0.8825985170969093	-1.9074900102139578	-3.358928195102285	-4.2417697799399745	1.086777207491747	0.23125483037259673	-0.9788048838698502	-2.823531382107719	-4.3523592839027065	3.6823847200882485	1.6275159079468866	-0.5429962859749524	3.8142883681316886	2.3659000336995284	-0.31768259325882636
184	-1.1179345817951012	-1.3171038594370836	-1.3459241356246954	-1.2911353078669057	-1.400218125622809	-1.1684646576944415	-1.6401503044680272	-2.608453267187482	-0.9435216164609155	-1.276026126500939	-1.049600479337013	-2.0544211812602287	-2.5338461335104903	-0.8662996270242295	-1.232975002990553	-2.0585765786648986	-3.1061966340796046	-2.7903444696548867	0.15698219796124013	-0.7765155415003326	-1.68833934834508	-2.7855577398543496	-3.8146805666933203	1.3849910462697743	0.520073710559041	-0.6597829444439799	-2.021829123160753	-3.90897630658281	4.138436306995301	1.9255993317624744	0.09737239753457673	4.055041302933391	2.4864983495876736	-0.06521344913468735
188	-1.3017138209856443	-1.3727021182688794	-1.1879054277945893	-1.5742926557848147	-1.4448842965839515	-1.0395108435134879	-1.4828218184226776	-2.3640432298101732	-1.0197803948404631	-1.1920162409250796	-0.779903171477589	-1.7075020031734078	-2.3501284063132	-0.7688182572981173	-1.0523450348034113	-1.7166814760735107	-2.7003977230558083	-2.173710340733833	0.5325837121868495	-0.5118521439027048	-1.3345499005002144	-2.235122436602342	-3.3991053018581474	1.6359667736710946	0.8877809025284662	-0.33356243287747084	-1.3746616805655678	-3.470914116679289	4.532502162933974	2.1786646787950548	0.6356927140398666	4.234236706533701	2.5784869128930223	0.3095935873321361
192	-1.4538807832250558	-1.353715297142195	-0.8483996965922801	-1.6731387334542587	-1.2281205623137224	-0.6836910230541196	-1.186093327388703	-2.031404251691876	-0.9859698985955652	-0.8590691663987163	-0.299558132130575	-1.2402694193997486	-2.0543107934583835	-0.6301792844120631	-0.6361373050841238	-1.1703548401847865	-2.183036083431845	-1.7015945868446338	0.9505078768574005	-0.04649015131776044	-0.829301116756924	-1.6791843133492732	-3.003087989854455	1.8373634768827096	1.3763835395394919	0.05819408953398416	-0.8309843519211312	-3.033142797441538	4.916959750159112	2.447696441192597	1.1200129957531717	4.404338348712878	2.6778082779987056	0.7716631273814193
196	-1.498929139167533	-1.2432070939147317	-0.43325954566286917	-1.5798944194959523	-0.7890713194952131	-0.174759611046163	-0.7536839227721188	-1.6663563209423908	-0.8330721238084077	-0.3433994344147533	0.30758100670405397	-0.6702622754340627	-1.6750414329199748	-0.4742505240387623	-0.05083599301258735	-0.5212105499459717	-1.5795333345588145	-1.4295172655253374	1.2699022261028872	0.5563961849470108	-0.25237381394564207	-1.1324679822939914	-2.641172402389298	1.9582592199475333	1.9286177109662797	0.4913615571967787	-0.3725375821721497	-2.6139080458449744	5.260819898674494	2.7204928329446485	1.5479652842539948	4.557575691160464	2.7819867063855828	1.240800615992646
200	-1.4154176676300272	-1.0350844833943533	-0.06438359601931655	-1.3678971494470875	-0.25013777550486116	0.349414586138687	-0.24695065555212292	-1.3382992710656991	-0.6034350976013813	0.21052522904172472	0.8912978745845586	-0.06880781037124463	-1.2839381662377378	-0.3436734071637717	0.5561429844166442	0.0634361503906814	-0.9718363856574634	-1.3375304903593273	1.3676576579849846	1.1540740699240726	0.25303065712940853	-0.6442030055947657	-2.3262739122785785	1.9648917863828141	2.418989652248351	0.8721689559850884	-0.009186733490876238	-2.241196865145355	5.484107957345365	2.930260650865963	1.8824272108235	4.649697768869772	2.8603200840259446	1.621157403667591
204	-1.2413825957427633	-0.7555170636175577	0.162328257746937	-1.148830172499263	0.22906298877580517	0.7384455781412499	0.22837559821166845	-1.0999330254440665	-0.3714095940749457	0.6387677176560653	1.2938533988710905	0.46069091442143145	-0.951581356507095	-0.2756771736337397	1.017913458161522	0.4234304715433218	-0.46142619731752427	-1.3367392983065762	1.2099862068144633	1.5895677764814171	0.5482644424901245	-0.26667213372613163	-2.060054773851596	1.8523782444915906	2.721471064372232	1.0893726321372939	0.24774491724407208	-1.932397360691234	5.517836556808548	3.001479379705318	2.0842952675648085	4.641103255952018	2.8765687869878502	1.8342226697388448
208	-1.0545296642382034	-0.4743920552674241	0.20339162596372704	-1.0148876879817834	0.5077318536337192	0.8822115637440044	0.558123765966819	-0.9618046259438692	-0.20929048902599753	0.8215199092150767	1.4114189112314317	0.8213418105369374	-0.7053080779388118	-0.27927601266922447	1.217230555322174	0.47435781239908714	-0.12246914177014848	-1.3103502955732143	0.8779304601438207	1.7625397399271512	0.5656520113968782	-0.023368745983251175	-1.8297886802251984	1.6614496665968688	2.7757782866014526	1.0763475867752814	0.41002204910708206	-1.6820996957271666	5.354182706666315	2.897579901055286	2.140344375928547	4.530544746404492	2.812896482995165	1.8445219947021605
212	-0.941288290031465	-0.293086259817203	0.06917826068816899	-1.0001088355563277	0.5079575168182691	0.743386862785299	0.6638976914810155	-0.8874951578621344	-0.1589785065213397	0.7234576326224502	1.230917808285969	0.960004267652974	-0.51824247706223	-0.3303531996015768	1.1310799093299666	0.23904953836645151	0.030019083915855865	-1.1698863476780348	0.5330046997918352	1.6710257488023057	0.33979451570551683	0.1048154381251446	-1.6144717890985942	1.4694265090082554	2.6173648768146407	0.8500491955276297	0.5171872364337907	-1.464939113733025	5.060555445292174	2.646436923021148	2.072200293077523	4.364221085020219	2.6848390034600804	1.6732345777228155
216	-0.9692705845202952	-0.30829253714926375	-0.192668854703835	-1.0801928016093232	0.23348429740130777	0.36026319770454335	0.5346655236096636	-0.81584173234953	-0.2214636946093531	0.396900891255612	0.8280547836378173	0.8853965379295361	-0.33518919264089597	-0.3873292197938773	0.8324582555734158	-0.1699577565670527	0.04077246774869821	-0.8964367486255392	0.338690101245262	1.4058551752835646	-0.010442061323385895	0.16815699594480626	-1.3955590689710589	1.3575876916941858	2.357378953703952	0.5069194423274818	0.618270336020652	-1.2503404585741509	4.751444327755953	2.331433767154467	1.9254127692247986	4.216507901036469	2.539030307081386	1.3941639626589684
220	-1.1698747843769775	-0.5681506977041987	-0.5201194869261129	-1.2044948309051708	-0.24088664292075798	-0.1759221847384106	0.2297186696690014	-0.698846338415026	-0.36735376622912186	-0.0484687312213744	0.33065757071935387	0.6592388732478438	-0.11887805133846498	-0.4196372617617153	0.4527154851450739	-0.6040972455985193	-0.013975724542618435	-0.5465261326342838	0.38235372208381346	1.1045652600057354	-0.33806681547641937	0.21971443240006258	-1.1666157216181772	1.373649712909126	2.1269741004648677	0.1785515393279101	0.7426755409563454	-1.0202716563214616	4.535610187523295	2.053608173907545	1.7473289922467437	4.154252518655808	2.4342105327183448	1.1123934956121917
224	-1.5310273131816468	-1.0421864960107	-0.8535153844265017	-1.336347338163523	-0.7997773269488044	-0.7539949398077715	-0.14700514041025028	-0.5334473834874643	-0.5577985630257455	-0.49101260180482226	-0.1324627545111829	0.36861219909108744	0.11558388889456103	-0.42902448665065823	0.12540155617524332	-0.9396367049335536	-0.06563040597558029	-0.21922926549397703	0.6387881620491717	0.8902454949790612	-0.532333193865491	0.2875306002986827	-0.9371132826987136	1.5095285139118904	2.0171537348363757	-0.02859577715627722	0.8801482893656688	-0.7794582824101087	4.467679966137185	1.8854891014178814	1.5682154854281487	4.204528321141178	2.4147140918801178	0.930932936702202
228	-1.9979765364747593	-1.6219202239095007	-1.1442439527232444	-1.4730632267953991	-1.3237651553110736	-1.2720779148409853	-0.48929628606284814	-0.36755740549748284	-0.7605361919274869	-0.836597380910103	-0.4735061514343642	0.0937845853583476	0.30194574518263706	-0.44802820569409385	-0.06191192179188193	-1.1176418037807037	-0.08136378208122018	-0.005071393201362127	0.9902356838020803	0.8252574184562813	-0.5597404823476249	0.36311530975216727	-0.7306044679315546	1.7064943270513793	2.0450224824771954	-0.07797519097906921	0.9830558871244983	-0.554142414124454	4.528842437754005	1.840292329910288	1.3951657975258238	4.342698563101902	2.489131682787202	0.9149500704553235
232	-2.4770882067128723	-2.15606283597187	-1.3607343400932237	-1.6322913128649446	-1.719734306761909	-1.6553044277360414	-0.7268288713224347	-0.27495732834060477	-0.9530956125037906	-1.0382927629959333	-0.6625703556498636	-0.1134557572122929	0.36122488884324383	-0.5154978619911871	-0.08865031577616421	-1.1484984130472806	-0.06758320314510367	0.05483334497674389	1.2920734849733018	0.8990769363591994	-0.4636959123825183	0.41221207276221256	-0.5774701223098809	1.8864403915460948	2.1609649603644003	-0.009719493774372208	0.9914042924645962	-0.3802293827470596	4.6454005124108955	1.8720104647102733	1.220175382394512	4.5065326576894815	2.6256406240929406	1.0683281394688684
236	-2.8503551411189747	-2.505396836631024	-1.491967197466055	-1.8186637117245386	-1.937836522931835	-1.8619661284166633	-0.8422104695037194	-0.3096710733701485	-1.113958355952174	-1.0946933003443804	-0.7178702932353117	-0.23402811527770423	0.25604981119359377	-0.6412219985031404	0.007964721860744187	-1.085945484280651	-0.05050981032016786	-0.016908004837262867	1.4452698194253852	1.0497494909485754	-0.32754036701476064	0.40127900141492273	-0.5036458956400375	1.9917217442771111	2.2874569835130565	0.09159491188050427	0.8685991742138582	-0.28611433433775035	4.73182820079132	1.9045928668573198	1.035676476724768	4.627295482396792	2.766120665242169	1.3317749466650572
240	-3.0057983322548387	-2.5921399527908027	-1.548992272280882	-1.9947341630164537	-1.9733602950818312	-1.8827341747433184	-0.8611124732211026	-0.46558970095386304	-1.2115997045444593	-1.0342240307445483	-0.679353175832253	-0.27055019071936176	0.02649032876657916	-0.7824353555951888	0.16238744515904951	-0.9885711644962852	-0.046940378726224946	-0.15209843179925406	1.4341213666947434	1.203216430487256	-0.2236543739155745	0.32492363370876043	-0.5194144235848449	2.010852808643788	2.364460700741126	0.14833849631050938	0.6288974269247599	-0.2790715091335164	4.7333631395997	1.8727731657428937	0.846329031238011	4.660234916365141	2.85100268597818	1.603694554094676
244	-2.8764662669990955	-2.4221017299535066	-1.560606118076755	-2.0825033135288056	-1.8561283303128109	-1.7373903945926978	-0.8245232084437917	-0.6676782352756393	-1.2054069011772213	-0.8961790181421811	-0.5819402918428147	-0.23106315673664418	-0.21813277845145732	-0.8521804788054823	0.31405305783135984	-0.889367756982315	-0.04360416148024783	-0.2733808152925984	1.3178124394523845	1.3092391457881167	-0.17559590891373386	0.21883363966527924	-0.6112295373743353	1.978835220109207	2.3770728051251773	0.1321799751759212	0.3415078214129374	-0.3404057315338229	4.646728980730296	1.7532248452744605	0.6705644113776663	4.599459636519805	2.8428616451967317	1.777030940337647
248	-2.472114079909635	-2.0718588776731117	-1.5598536690430103	-2.0011587092419933	-1.6342743593916151	-1.4697478972520728	-0.7603186945792507	-0.802227554680045	-1.061465260686757	-0.716392753699705	-0.4416497934634937	-0.11847890883573432	-0.34779843600200505	-0.7589501123340183	0.43046027313270524	-0.7860380987348965	0.0021605426391054913	-0.32502889551116804	1.1858152121168832	1.3587739433315105	-0.15086108408032453	0.1508600708013659	-0.7395650725765949	1.9530181835456655	2.3545117318789157	0.07597101460587916	0.10912135960923397	-0.4302967477901768	4.511297691399375	1.571201916542435	0.5322556482228341	4.4714717752096425	2.7372987201245076	1.7764012768718294
252	-1.887626881601998	-1.651452298763223	-1.5627697666766391	-1.7182327465545184	-1.3575394119320396	-1.1384470434056047	-0.6687989814085213	-0.7717251162118292	-0.7742935399533609	-0.5205139504642404	-0.25750040942983	0.06980136764307772	-0.27371117403543194	-0.45614835504760065	0.5123503195224798	-0.6521726234182723	0.14121812546361842	-0.28377661037323937	1.106093523093918	1.3778771127245029	-0.08493024089351243	0.19410471569168777	-0.8456850626574836	1.9783825824379255	2.3447890222477015	0.05100810887452234	0.030460340825304313	-0.49997031562459815	4.37870835152417	1.3811558450160295	0.44779837018442026	4.312907208044061	2.5569400722796987	1.580641146483813
256	-1.2790213791026295	-1.2603424755700774	-1.5500392874683628	-1.282014605146403	-1.062727925478491	-0.8016800264145206	-0.5278470502877977	-0.544661043699326	-0.3814963986778512	-0.32196101465000193	-0.02299109654284322	0.3347390285623664	0.00910301783617799	0.02425795228615236	0.5847701415556713	-0.45857724431606545	0.40443131225519996	-0.15100957415124633	1.0979673834736263	1.407560344956994	0.07968821356442779	0.39514779944790435	-0.8684471227654201	2.0629491753945812	2.384167903602747	0.12461926756628319	0.1624297942590555	-0.507837234645416	4.281374443688859	1.2349491088205298	0.41630074276722473	4.147761334437577	2.335237973993007	1.2252618043482228
260	-0.8088228682124352	-0.9559612846080667	-1.4670309983407805	-0.8107770064864627	-0.7662222962107689	-0.4990386950291109	-0.31187865059312103	-0.17035128133202745	0.04139704991856141	-0.12200964956473509	0.26194479995396364	0.666838942274676	0.4230379153538222	0.5754944071544992	0.6815403682667638	-0.19196084093265808	0.782529232910473	0.06128488093042794	1.1408462495610463	1.4824706278565478	0.36128377823213326	0.7518312316032429	-0.7670734505360125	2.175729984512303	2.4796857771256255	0.32229259528805027	0.49689096086934176	-0.43505829462835954	4.217846382936167	1.1560355395693889	0.41821318759233705	3.977180947752773	2.1001088566209525	0.7861762026964924
264	-0.5808022007583469	-0.7487211208513601	-1.2467870680801927	-0.43959271796819904	-0.4656982708140473	-0.23854659437510659	-0.012387368796783142	0.2471756779867431	0.4076150645455169	0.08819366224195109	0.586237667510981	1.0431692573912752	0.850302753685864	1.059574482149966	0.8303379991548188	0.1381725516407032	1.2265244691399566	0.34055855784264116	1.2075124948532405	1.618133779255059	0.7303143125215206	1.2122603624254817	-0.5387909994827316	2.2670669498426124	2.6116514139994758	0.6152022465432297	0.9631057953360308	-0.29250520393907714	4.161440361960414	1.1334578962319217	0.42473357808643375	3.7868399524447636	1.8671033335275944	0.3548740139584604
268	-0.5954335912930003	-0.6169924720445387	-0.8482782223265346	-0.2510297292093505	-0.14852289817981768	0.004451125848976221	0.35319802075857504	0.6034424289726702	0.6558712108265368	0.32443606771572875	0.9325326061546452	1.4333091938070845	1.192518469660689	1.3695388997786357	1.0449367735229822	0.5065335618581801	1.6692326026734101	0.6745793206349552	1.2954597440437317	1.8117572023425619	1.127756354345682	1.6963208870975115	-0.22187942210445064	2.299667114173757	2.752642624581007	0.9392308569083027	1.4547334872710598	-0.11554775357875718	4.085349549469419	1.1375557155498839	0.41348129406485523	3.5665118604259654	1.6447151857812703	0.015747470741448544
272	-0.7503265123496873	-0.5282973037732942	-0.2914518110546212	-0.23028132261309933	0.19567187081048804	0.2729485922121009	0.7476029973228415	0.8451721050858416	0.778005538406666	0.6031411870987359	1.286109444232134	1.8100138856965726	1.4138196671076335	1.477826591575243	1.3241698708480767	0.8859778024239182	2.0555124230940214	1.0444973680828074	1.4332072698647758	2.0512001462646987	1.4973635635718154	2.1281096881542614	0.11863934218732282	2.2711141052126433	2.888051025728392	1.2315024106404502	1.8684797239812727	0.05041054996041595	3.9861361879797967	1.1447418899244408	0.3809917559541344	3.327366820517663	1.444366809059318	-0.17048029558531808
276	-0.8854593016203262	-0.4562851775093371	0.3329130700766048	-0.27229818632995395	0.5631298408595754	0.6025550946281392	1.1281048030981593	0.9896261071015015	0.8217776993030794	0.9322509146041479	1.6401780802324226	2.157228702820733	1.5462588032783837	1.4452689849603606	1.654771204585227	1.2589427200957062	2.3647487103839535	1.4193692171500798	1.6569335418829292	2.324063772055887	1.8128880216603855	2.4643459257849605	0.4173372079326072	2.2156543675749556	3.0246670169758767	1.4629867039936915	2.1397616809226943	0.1688212301045062	3.890549411487732	1.1551272839945947	0.34605339082132175	3.1051812093537747	1.285559293362246	-0.17717309251399227
280	-0.8544356801395102	-0.3853489150808595	0.888511893890146	-0.24000282525025993	0.9308059788091511	0.99704479919474	1.4601801596968833	1.102665779190829	0.8664998986301692	1.3028267589100806	1.9935561368200871	2.4708378252589265	1.6575196939581704	1.3861767018606528	2.0150222727445892	1.6197211701507095	2.614194386557753	1.7569345191466252	1.9709787319011984	2.6207306318873194	2.0854399151601855	2.7058560779919785	0.6335396154620813	2.183601373881468	3.1824850955721753	1.648649569163671	2.2611796798837216	0.22625447752572433	3.8406765364000255	1.1916229694798446	0.34062814626524074	2.945473901941445	1.1897212236884425	-0.01790052461575046
284	-0.589740096033785	-0.30446088237187413	1.2465774981496915	-0.041691694303393756	1.2624322144106266	1.4198110067760397	1.7241108373981373	1.2504752842802924	0.9822154020306425	1.687413569004766	2.3438856542537665	2.7526729037404767	1.8036501362085502	1.4072326386208462	2.379174464894651	1.969091172015217	2.8426232266182323	2.0129604288777245	2.3245468080959273	2.9320123121622	2.3495011270331676	2.888131372789346	0.7641649822968957	2.2121629659114075	3.377534380968395	1.8317723227983151	2.2776782455158946	0.23590443968817387	3.867666949997653	1.2823522058535584	0.39297240873302924	2.879380457284096	1.1667805880652096	0.25416737730705
288	-0.13105845418265902	-0.19945876249976432	1.340950604867904	0.3148684493698285	1.5231796464610428	1.8063840820482053	1.9132202815389068	1.4565228187026993	1.1927926510259637	2.0469088502702846	2.6806509427101566	3.001571886113776	1.9951797673396694	1.5521639546306623	2.721765749735258	2.3052430094691276	3.083657972179722	2.1548762267066772	2.623605483106868	3.2445306696037575	2.6367666654772037	3.0572967452107553	0.8377021529982256	2.3041481913566573	3.607200375032709	2.0529990144394783	2.262145275126645	0.229139565842987	3.9695951838406507	1.437580939478062	0.5117047416165476	2.904244177161507	1.2027262418898608	0.5556298480310684
292	0.39461234112291654	-0.05137696104191269	1.1967601745907757	0.7226610165470384	1.695969458112803	2.0929927773084747	2.0285823293967544	1.6867589907974954	1.462464924934645	2.343911641878823	2.9837760849959865	3.2087488093425356	2.1947569791694646	1.7816129877885418	3.0215892715460253	2.6174414091783387	3.3448159610223147	2.1728913729166868	2.775914423609776	3.538611403114205	2.953850261859872	3.245350591095218	0.894026992447999	2.4271390376800466	3.8473505876679654	2.3229460657598806	2.283149236636725	0.23977281092665242	4.107571114659898	1.6363483626059832	0.6791354400654381	2.981610290628896	1.2591005531946728	0.7947400192222647
296	0.8317031839353075	0.1551445718662932	0.9191060043017949	1.032690164819771	1.7919214918671296	2.248049015091434	2.0774214215280864	1.8734626722719145	1.7148110823251812	2.5582835609695436	3.2318158068123735	3.3625619326571976	2.345717901029536	2.0000629374552092	3.2667670167461025	2.888982050277433	3.605842581228154	2.086218590237565	2.7429799964315746	3.793313493688185	3.278675547905001	3.4588112743789132	0.9638807749254438	2.5329666073744055	4.0643834965133205	2.616448395798888	2.3804416596393767	0.290475457173343	4.224299897018994	1.8335014535388836	0.8595203735585268	3.0557947081662076	1.288814779842369	0.9024730898006371
300	1.068325993701662	0.42001089347654647	0.6473215802061852	1.1369045944120015	1.8505210829743677	2.2921035231894353	2.0791151471097478	1.9633840272923826	1.8742011738188171	2.6990673473877806	3.416774025873597	3.4624531181654947	2.4132924018965243	2.11282801094675	3.46120809634857	3.1090824525537637	3.837748994674629	1.9436515520614406	2.5707795555058657	3.9983963865419825	3.577571859863984	3.686228504410819	1.05973112315604	2.5875871116157745	4.2364139449925595	2.891562454552534	2.558820002771168	0.3887367238720497	4.275650013619084	1.9842315862149673	1.019047853758023	3.0839216631275423	1.260992762242935	0.8606478550162515
304	1.0860962840315522	0.7216621023077696	0.49936431520269675	1.0300878260354476	1.9280024718244615	2.2949495257609853	2.0729882664794648	1.9584687898780344	1.9076042127130592	2.8053953576784103	3.5564334302756295	3.5324976355057394	2.4131371914019213	2.0815823025600615	3.6274082569091792	3.2856161511437034	4.0299854176817105	1.8179376079437182	2.378223413185016	4.164729107832238	3.831019630296477	3.9176759620936825	1.1813889712070378	2.5933461123794324	4.36896275370942	3.1198110501676677	2.8001301217908248	0.5325831757450479	4.256242264492059	2.0710611291094523	1.1466634244578584	3.059525243663991	1.1800912588842645	0.7121214848658844
308	0.965124962277344	1.0199028227805227	0.534384666524191	0.815859196510405	2.0770745224963694	2.349271768360651	2.11807345809232	1.9249103020706106	1.846118564713083	2.9339170381858333	3.6949722673587138	3.6234996227332568	2.40906142580247	1.9493027876276168	3.802078714308145	3.4492077740369487	4.208216656550567	1.7921894743493632	2.2987236918586342	4.325462330387851	4.051100243830793	4.162154187184442	1.3295425143052761	2.588087075374888	4.495047557925998	3.3085701382073323	3.0845253389683034	0.7202760559016621	4.203865994330107	2.1165881103482675	1.263033267647024	3.0153059883282465	1.0862972708932273	0.5433200584045549
312	0.8453014471646777	1.2702105013248872	0.7474046926701745	0.6544347984957212	2.3276259840372497	2.5329370434706715	2.279039377180549	1.9630482147245658	1.7743987992310113	3.1374180237712856	3.888543357568236	3.798194398827229	2.4833211836105877	1.8206775142478357	4.024291028352826	3.6432294753598353	4.42825316264786	1.9373630236349346	2.4074723659767705	4.524460781118338	4.277440537143616	4.44843577215501	1.5142986736212214	2.621984952028806	4.65824555174614	3.499155035721147	3.4045574579112765	0.9542766785370331	4.178359974802218	2.1713356916919766	1.4079574310994851	3.002015106251207	1.0342031691189295	0.44365408904597303
316	0.8596165754549514	1.4424626790821309	1.092737075907791	0.6801707727425728	2.67624711314669	2.876633636841202	2.6001515322841255	2.154841894431373	1.7911027624685618	3.44244145477913	4.180489052708219	4.103246201645915	2.694977038255041	1.808408255779667	4.318541515891164	3.90264390913786	4.746785628732071	2.2845094146270655	2.677399628555157	4.794831740671313	4.552439201305268	4.806394088054231	1.7509344772001039	2.725632660659943	4.886706339896139	3.7406875992745436	3.762413969077478	1.2353616921706234	4.226462353525986	2.2832848968078916	1.6123149354281974	3.0549924296495563	1.061136004629849	0.4617836761736621
320	1.0728306743238336	1.534064765871732	1.5155799350620782	0.9334592795646286	3.0871355455657175	3.3503887568761646	3.078840009545402	2.5164978440645447	1.9595673034784715	3.834943046424267	4.577202308542552	4.54122494504696	3.0474915427513802	1.9740234563579278	4.679386127101702	4.231775273129271	5.184044824863205	2.8035509515551373	2.9889628811712456	5.137285696410704	4.889775740675743	5.2394552098551435	2.04466580828376	2.887376301151238	5.171954141910333	4.054936398758851	4.153264512066506	1.5510556658685068	4.352060307005268	2.4663205084520943	1.8708161068412796	3.167992822278076	1.163385984344532	0.5825703129365
324	1.4537998401176553	1.5713808496855988	1.9704509923776896	1.3420867886037442	3.502769461371201	3.8733861348587015	3.652801742868016	2.9824190064471665	2.27345847509503	4.260253895493893	5.036817537942438	5.057091223346574	3.4836270721220455	2.294838422703404	5.065209375944486	4.59299610885668	5.699109539901903	3.4018621358813386	3.1915318885333432	5.509764180577708	5.254881368721225	5.70508478631626	2.3756799637895822	3.053797714152695	5.464005456480591	4.412248600310338	4.546099174465806	1.8677493286660392	4.507837760988188	2.6847925118372733	2.1310326999266667	3.289657346049272	1.2942827907309684	0.7370340805518876
328	1.8916203927918667	1.5990604121843792	2.4195907054847487	1.7612568095562446	3.8614599607249938	4.343260754110005	4.212720383498425	3.4308078202412413	2.6542806558352066	4.639446723668603	5.478763566489717	5.550197587305457	3.9086668392679176	2.6730377606615066	5.406979070363582	4.915412890421806	6.19486425743076	3.949864377539758	3.1873745837800453	5.836546406315162	5.571553216218825	6.1187014425290585	2.697038882121906	3.1549310604549747	5.687490448897303	4.735170352424727	4.877632128798444	2.134867662761833	4.614647853644544	2.86557578317039	2.3092491568436566	3.34661554445283	1.3868402207646173	0.841849503775871
332	2.251289838828979	1.6624252754200892	2.8178338933373133	2.0496351667154276	4.115591515640625	4.672583091382793	4.639402854650159	3.737411728005959	2.9840657635688634	4.897571551355524	5.812350258457551	5.910379871704922	4.230026234437398	2.9815418644968665	5.632303700531997	5.123003469884263	6.5547661615819095	4.329340446985726	2.9886808319928804	6.036856636064554	5.754748329892044	6.384373648736963	2.9506502076992502	3.141738645250856	5.7736015174054796	4.931483256286994	5.069204317645825	2.3036081732763556	4.599742400953906	2.933193914637244	2.3296401441884145	3.28160595065334	1.3891882861349707	0.8468760826663784
336	2.43798374514168	1.7891975596077714	3.10462259462435	2.1382489150421145	4.244035710110035	4.817071425673757	4.849325644647499	3.830235948428949	3.157705537452975	4.991395460878162	5.971503719512025	6.061920150710748	4.3938608058621345	3.1229045312237003	5.694169983792548	5.167896257704269	6.69296406009774	4.481831539282608	2.713580363098209	6.059386714895611	5.751672730229399	6.437188609083354	3.092524520695544	3.0136902256217546	5.691222653325136	4.938563811231276	5.060478197672739	2.3503265321519335	4.432995308174218	2.8484570908155393	2.165430063502541	3.0850164812400127	1.2920435634417	0.7616602163158234
340	2.437583917185536	1.978183383715589	3.2187008776462664	2.0560502954071165	4.256337155086301	4.786469924286175	4.8289561149748055	3.718030443341147	3.1293547074464287	4.92601441093337	5.941128715774018	5.995810493590061	4.403057087272021	3.0703780573572934	5.592739091104301	5.053305136320001	6.594102366011404	4.433329094184117	2.52327584583271	5.907640442237962	5.570067868474772	6.276931746847583	3.114132873302121	2.821344845324299	5.463458047424356	4.75618504277084	4.843920695472913	2.291477197583717	4.143259991675505	2.630790942225689	1.8598874760400144	2.8031501699246792	1.133532402037703	0.6465041621097993
344	2.3173005522395886	2.2012383882259767	3.129454127993663	1.9031357717148194	4.189369667920173	4.637330520365841	4.6415543439025395	3.481400242598859	2.931963674772186	4.75417803517703	5.764228806247503	5.774785027229151	4.30896662577862	2.873198263543601	5.37976072860491	4.834708201599687	6.323060019741375	4.281445015588096	2.5315437252979196	5.643208489475413	5.27876566507816	5.974672779257443	3.0468974036537593	2.6421379976322212	5.161033140503579	4.4506773836300635	4.48008631528799	2.1800613348279057	3.806609382555373	2.3519029557929727	1.5134723148281417	2.518321030934331	0.9788203214728081	0.5741491303253151
348	2.1890804712339675	2.4171616970069945	2.865835897839533	1.7897149279231157	4.097473134186124	4.452341068470833	4.402427662224782	3.2342109598519806	2.6608555249744903	4.557839382108284	5.526359067315595	5.508329854409454	4.184318055078923	2.626701109930107	5.141578184498011	4.597609031513491	5.99828003322616	4.1463312998037365	2.7393181254843992	5.363436208535041	4.978968130892449	5.645737633756137	2.9453887865089206	2.5418960983949512	4.874706256003097	4.1272830858930885	4.080734719463981	2.082453245627321	3.5122389704720485	2.1034417099297986	1.240024325101051	2.310676807291712	0.8862257577455578	0.5857616052143619
352	2.1510863249828476	2.589164250512549	2.5234904225533596	1.7765219166725503	4.037967194852721	4.313669193820946	4.2325663459727325	3.075421087129717	2.4286303458885614	4.418442238142601	5.324115262894571	5.308639036127004	4.091572751205416	2.4248397289089962	4.966514098025943	4.422494877139938	5.742452130124505	4.110146988982007	3.035598508800084	5.162701116878763	4.761414992708807	5.402266011903802	2.860111229351179	2.5443255837098624	4.679718959437287	3.8853928944719422	3.7659106159497533	2.047695154742176	3.3243434345237097	1.9561829517566696	1.1143624754427308	2.2229483071469947	0.8795803763116827	0.6676983220408779
356	2.2387218418819503	2.6990284851594852	2.237664217067726	1.8501319838542565	4.055234898819133	4.280006397885429	4.213155735822765	3.053146354596234	2.3157434405034074	4.388573635465327	5.2323717938879195	5.249221311667644	4.061418046233943	2.3215520323313936	4.911286818502292	4.355061043234264	5.63561008937863	4.177332867566041	3.2603361524282324	5.095442282209707	4.671960342055752	5.309607015555713	2.8161256242223636	2.623899453214158	4.6081819417956345	3.779994239800304	3.616271486688884	2.0861756748934353	3.258606902478375	1.9317303847178813	1.1394685478051862	2.2455043736031075	0.9411420202335555	0.7619497756794111
360	2.41092538224918	2.7523329188475363	2.1296510642642614	1.9417660187333763	4.166932572334731	4.372358311104411	4.359283436259492	3.156222812313286	2.339400047117875	4.475689876700458	5.28232191659506	5.343206392149349	4.0898737804150285	2.3178894461284827	4.980990397275282	4.394841183056925	5.690929875310738	4.27924345843423	3.295706263804386	5.15747831949815	4.7011117816489	5.366328225892242	2.8096578050248264	2.72445081976632	4.641392696106317	3.8066911601277984	3.644014349320256	2.1698524897151303	3.282839528378497	1.999572152811368	1.2504047123810564	2.3274993837720666	1.0265560124228437	0.8029814938299054
364	2.576680892160888	2.772114508305649	2.2541253509830748	1.9758421132747228	4.357222546066942	4.57150744237651	4.623064983139894	3.331855288676497	2.455225699901615	4.643618571955189	5.456657395891233	5.548634991941971	4.150891770373277	2.377088063914201	5.130876528183477	4.504824150155954	5.861801609498469	4.321445931014447	3.1303419987799956	5.293120370852464	4.799151408476569	5.515701756856663	2.822516434219046	2.790683024036356	4.723678576941046	3.9143838783617597	3.796446075391091	2.2532370033595854	3.338595143472103	2.0985956139032154	1.352534290713597	2.405686849242387	1.090729949104692	0.7570549826581695
368	2.6463236741963607	2.7826638151485215	2.574172728715072	1.9177203129987979	4.579084384801228	4.825245845056195	4.920760142300396	3.5161492735780207	2.5877897674074988	4.828994261947366	5.699789986524941	5.7934145781159545	4.215259541359446	2.454155915739887	5.287579523088134	4.6331400754301315	6.070971950462064	4.2425951850587404	2.8603155540729532	5.42277620853781	4.904756533637188	5.67860172745368	2.8416571545381517	2.794637196160772	4.789243686028439	4.034867753332225	3.987337817615435	2.300907844456269	3.3704528723497997	2.169183010346704	1.3720023597409832	2.433908456379386	1.1086667748116643	0.6398318393765537
372	2.578294747518752	2.79150079976061	2.9781823083072285	1.7908571913327072	4.766132342703001	5.0618414751046	5.166980253525674	3.6606011298264742	2.670212023669129	4.964479910714184	5.936195358547704	6.004710659125451	4.264700878820068	2.519531720475952	5.379468427427669	4.733723628490392	6.244554503887335	4.052359093925271	2.6291634970088507	5.477561936854079	4.970262991754271	5.789439663575209	2.869962208177626	2.743707888351734	4.789655196494929	4.112386693108433	4.138546456378567	2.3057680071789837	3.348731747755592	2.1788244192426496	1.2916023698621864	2.399175637863562	1.0810348960285838	0.5030039536174272
376	2.3975808559919782	2.781505816112749	3.330265275176483	1.6577242570985231	4.852903830673621	5.2085552084072795	5.302203165018986	3.744074573600709	2.6739773682793735	5.00014351536047	6.09064815890848	6.130570396203926	4.294995297078542	2.5664284164482476	5.362449155620053	4.7766661523382705	6.335846408106309	3.8285462759631224	2.541971915502914	5.424590097083035	4.972185599171292	5.818111404988415	2.9213681147250847	2.667238467158082	4.709258544476232	4.119198311896167	4.21049164662661	2.2881860675261083	3.275210849122245	2.1288804954185503	1.1531295747253465	2.3178260267866015	1.02337693909713	0.39969837564643723
380	2.178158039315743	2.71807717590729	3.527393808995798	1.5791206319994318	4.797122943210694	5.211859213068127	5.304643140751351	3.7686359787205825	2.6143708163058426	4.916580187782141	6.106571182092155	6.14870403644745	4.308924664108804	2.6013002329953365	5.232216344974738	4.747785079413141	6.332454665408573	3.674123277924658	2.60845994290768	5.274296747242762	4.907636153228307	5.770525917742834	3.0041601582019677	2.595618241432534	4.565180290140288	4.054762830033704	4.206890095579795	2.277569049806942	3.1739411273930633	2.0435435720347623	1.0268825266660988	2.2189922276739504	0.9504546499097504	0.35419377595167867
384	1.9995551058830052	2.569250815580526	3.535209885254751	1.5763637979762408	4.595443713983557	5.053634153958329	5.186444269437225	3.745487442096898	2.531796210572551	4.726607787596492	5.96004436895502	6.064631446785445	4.305980671501491	2.628109925310461	5.019989954671935	4.643598544794595	6.250330909207224	3.6607501414380366	2.747575514532155	5.069436537341284	4.784851538975319	5.673511967639871	3.106394998336916	2.5450327332136924	4.394539345136544	3.9345815082393543	4.155798901555956	2.2900216521619767	3.0750527304259356	1.950607533298456	0.9683894490588053	2.1274285262754877	0.8678597785972864	0.3548843255619805
388	1.9041064929571807	2.3298098982163062	3.3867394838656866	1.6206079680534389	4.285748470930014	4.757984149364198	4.980277048888412	3.6830661203856003	2.4631943640508074	4.467777240917212	5.667422280307833	5.904057964677427	4.27840136401497	2.6396899156681872	4.776671874384155	4.469071853798465	6.121703132432369	3.791105022395543	2.8493118214194606	4.863880622027743	4.617189395691351	5.555810914317653	3.1952924647720176	2.516480916345471	4.2365322006074955	3.7785899543729413	4.082569588844114	2.317104572168062	3.0006048603593816	1.8658721399882223	0.9876480077603347	2.0549905248256857	0.7752565125919209	0.3713514497441141
392	1.8774253082558674	2.0374031015455047	3.152666322377807	1.6553335148026183	3.9357230563932104	4.386968601594868	4.727094638333788	3.586700907234734	2.4225711761345723	4.1912112130205035	5.285743223196529	5.706838116542547	4.218127716858796	2.6239893370182523	4.555135715428099	4.242404450195941	5.985739692834238	4.002497186092175	2.851417534304769	4.703322398708749	4.425515640529528	5.437400804142976	3.233721724928899	2.5071885522484485	4.119502534002332	3.6067895798219545	3.993366231372798	2.3329586923825505	2.958412878196619	1.788972611678957	1.0471674177434245	2.0025253245339534	0.6760309321501501	0.38045042657165107
396	1.8641937924048744	1.7679057076641527	2.902612678828834	1.6361027914701287	3.621324530041605	4.024351109834607	4.46979426209132	3.466028920005832	2.4005334316681175	3.9498548407966183	4.9025583143434215	5.52266214883738	4.128833283490493	2.5792744094578066	4.396873463020055	4.0018815893224895	5.882968410897665	4.206353176941014	2.779777519837205	4.614233958992269	4.2432446372665735	5.330424772155985	3.2041852393314745	2.521515363049069	4.055678357375142	3.440350762264267	3.8780779740649955	2.3143031538706915	2.942746631821988	1.7093430714365818	1.0865765782579395	1.9662451694436671	0.5831502065240557	0.3810965111170627
400	1.8075563861986879	1.6081633527207837	2.6802759102861766	1.5632802208532066	3.40279149150033	3.7509274388025236	4.2500982177241236	3.343967190882856	2.380964511582026	3.787876358005501	4.6134290578712545	5.40310858316022	4.035059441869339	2.526213877975561	4.325503338383353	3.8050367736115893	5.848527416721925	4.338302124514369	2.727141611843267	4.6023959997326065	4.114634980303684	5.24495218860103	3.123347751361131	2.571206801598537	4.04256915025492	3.30231284261461	3.7274868394201772	2.2587883415413703	2.938221208783487	1.6157528121208726	1.0568445894261453	1.9415173481560013	0.5142424689660974	0.3868111362227976
404	1.6876249270746058	1.6177890259905485	2.5039133962355993	1.4853720627475988	3.3084003841794405	3.6206853298326473	4.10601662552808	3.258763543484449	2.3603706300269653	3.7328007126977765	4.492654789072176	5.388633237585195	3.979949225867732	2.5047061380091105	4.346801746837881	3.7150237466476885	5.902992233631534	4.388963688259752	2.7864065099938085	4.658472526232872	4.082506169502233	5.192490564587976	3.0362739486329735	2.6641223363370923	4.068446625928111	3.2138881602206735	3.551192036245894	2.1894230787312714	2.9242799208243	1.5030763111312446	0.9446540451041441	1.9213362883696121	0.4777976858473572	0.40246984260988367
408	1.5394140443082385	1.7981746151347282	2.384164565742648	1.472167488195976	3.3321173106942683	3.6471841243214085	4.067203511459814	3.2535030759684336	2.3565368592846916	3.791684379541297	4.568441379457005	5.494690404370648	4.009346475015312	2.554983847843109	4.452682483875245	3.7781257534006025	6.044092639922018	4.4002222903736605	2.9832205697080822	4.766016948111007	4.170232762298323	5.184247957492087	2.993286602092336	2.789883606542647	4.1184816256491965	3.1878228107076247	3.3836700830860824	2.142449611976699	2.880120031714602	1.374501940117973	0.7754118422958133	1.8926595401662571	0.4609161901757913	0.40482833879304647
412	1.436014290998741	2.0863108582274443	2.3410429895423155	1.5721529682520698	3.442375651251464	3.8035545253090572	4.146237839720965	3.356688967813017	2.3986942707535714	3.950274695913356	4.811778533231066	5.702795967962664	4.148522366540148	2.6920046738368866	4.625434863810181	4.001625527769181	6.243981345624623	4.433080185188164	3.2531833566546657	4.907631384856736	4.367211807668919	5.224205480737151	3.0217358989718024	2.9149658606366344	4.179368008552114	3.2225849547086036	3.2720544255614885	2.1453602259830222	2.790601484882509	1.2397876946618902	0.5957715496280236	1.8364305449850407	0.4297167647956542	0.3455818584776941
416	1.4480072223344287	2.3807656704875577	2.4019446312342567	1.7787611439618185	3.5957686810308096	4.034929742162635	4.330167282615963	3.5634369760190556	2.5056371625581515	4.175066460558824	5.145624147775149	5.963501438343265	4.38445423926601	2.8903787063102833	4.839918601214218	4.344376076220225	6.457040293603546	4.525784481066168	3.4781567962569504	5.066787706934154	4.628085124728782	5.3033552035902956	3.1106212060594003	2.9936814232583315	4.241061676761831	3.302169314630353	3.252573243512285	2.200073713470006	2.6523473195821534	1.112504717879062	0.4490090895283636	1.7343356565556716	0.34596338780793817	0.18000894739479478
420	1.6032942493013753	2.5885875159711587	2.5815172130257524	2.028432602529457	3.7508826161097657	4.278843868896665	4.5795473936806745	3.8298113249406414	2.6685633591988043	4.420788753792195	5.473905072697052	6.214055522488509	4.6672015072289	3.092437021077235	5.0665387979381995	4.7286310076536395	6.638076288629873	4.672347533827236	3.5590410142686797	5.228340612562648	4.889964568189915	5.401964650820579	3.2186455645360548	2.9907584114859262	4.297571171400652	3.4040558252221134	3.3316173469351544	2.282915348011217	2.4782764849081147	1.0087858413022428	0.3582593193545764	1.5801001747291974	0.19134402226775726	-0.09650189405157175
424	1.8650307608246972	2.6661882333197915	2.8580963539442785	2.2301859799345074	3.874650945417642	4.482573021061741	4.834990489196631	4.085571278747424	2.8481464314077543	4.639481055943907	5.715929970615051	6.401341422131623	4.9293742055415875	3.2350623525958024	5.273759828603982	5.066951738916161	6.760247690298959	4.8310184356788275	3.479330530918904	5.3773417337074525	5.0972008576447205	5.49714849991498	3.299880496276757	2.9028549121045897	4.345824230666032	3.5087084681616263	3.480262985979416	2.359695190194076	2.296295637055194	0.9450306272488842	0.32261776842680145	1.3880704606296752	-0.015415097547891209	-0.4281679977097207
428	2.141426557856357	2.633543723133046	3.1640586773142543	2.3100421370357465	3.9413244624764805	4.6107430341658775	5.030215250666626	4.261494625776405	2.9906711502861953	4.788895118066673	5.830279335560721	6.499037249369096	5.115082727869349	3.2819678700555026	5.4306239944677035	5.291171060554651	6.822924596726408	4.952382075203957	3.314547053551739	5.497334466406209	5.2199244367416116	5.570866093875589	3.3308112537212473	2.76248788136157	4.382258880995186	3.603619804820802	3.6446974185476573	2.4056055485071184	2.139205688797633	0.9322819090193529	0.3240006557867438	1.190556165550348	-0.22185303214804297	-0.712863801110043
432	2.3245313108883248	2.553623669852769	3.4021990213327586	2.2468194904821113	3.930074205012819	4.643596637445968	5.107684599378506	4.3178038488092865	3.054438344873123	4.839168059529102	5.818692669482798	6.509693606153715	5.203709589217853	3.2423469938432796	5.509983525669928	5.370562539846395	6.844253522758984	5.008965479602113	3.18161677510928	5.569600568060913	5.257017599184582	5.613590226305563	3.3223974620859957	2.6201298170695004	4.398713577608915	3.67947172189614	3.7675239944704604	2.4173600612643065	2.0288712927138963	0.9682517027250772	0.33753967199935675	1.023566481867037	-0.3665209701344227	-0.8487943985489862
436	2.336244577231432	2.487073176780436	3.4851922900898953	2.0792972989037213	3.826556672925543	4.5712418440800615	5.033181177783161	4.260784138412476	3.0307302398457003	4.777145850518212	5.711215958480956	6.452711565892307	5.215614305679496	3.1650984207350907	5.4930505613877285	5.31309221833622	6.843023759731082	5.008533465137872	3.161876432065247	5.575395093192768	5.224468694847815	5.621943459621876	3.310121766316208	2.516095870341194	4.381185043717624	3.723055353301605	3.8081419371779686	2.409865850086328	1.9643115947720353	1.0325912211096937	0.3388327351598494	0.9094711519167578	-0.41135281220529996	-0.7873775939135519
440	2.1581404154649153	2.4495987830304453	3.3771119032472936	1.880758399983292	3.6286408809600226	4.3898048290046985	4.804234969407338	4.137459744497766	2.9450576231033847	4.607368457605794	5.542264447524461	6.346395476530603	5.194907652136805	3.109861366049722	5.373935685895007	5.151545988427923	6.821339590016542	4.9845909946477835	3.2499992765388033	5.5009970526091205	5.138067709348182	5.59218452949071	3.3275568401247275	2.4596304831393954	4.313439835148429	3.713881721656675	3.75168918616083	2.3998863636460697	1.9214651536112912	1.0906472178579527	0.3066936425572007	0.8468808510379483	-0.36223375705816496	-0.5605325684700452
444	1.8350675059717583	2.3987991749281115	3.1119258325209502	1.7168397860096345	3.3528258715855874	4.10318802751276	4.4499373323624	4.011282910709887	2.8393998074369176	4.350589264375926	5.332147107967066	6.194990619277365	5.179433332717865	3.111505262148477	5.1634802687932995	4.924859988176276	6.75940368853107	4.970545279351215	3.359085551364095	5.344948755121024	5.003351675752761	5.5160779813735346	3.380322209406791	2.427885526249329	4.185936917226935	3.6312525180689073	3.6061563400774594	2.388788694072648	1.8674728823242688	1.1078305216475768	0.22648329975643933	0.8146305063661072	-0.26523870162754737	-0.2672718458580251
448	1.4521416389041903	2.260672563567253	2.777880184789505	1.6116667945225462	3.0360345763801595	3.72969841015434	4.024052132937169	3.9308569332060332	2.7470302512431264	4.040696610739384	5.084563719309927	5.990352615491048	5.176138864800158	3.159985772737745	4.890696513225909	4.665964591643644	6.62753818746019	4.97663687403188	3.37892555337394	5.124570356782162	4.82043503497923	5.384140477891948	3.437661877535948	2.386183255846804	4.00665663661268	3.4708158882249474	3.393556109443569	2.3571314752194694	1.7832615330495774	1.0694053146065297	0.09639742946128603	0.788763878738238	-0.17956308975183935	-0.024986145954825095
452	1.1005413504471082	1.9825959155571706	2.4730977949645245	1.5405769309248702	2.7279725005893383	3.3073539650384056	3.592571011055973	3.9071440598070404	2.674839966696385	3.71930121436455	4.799118506712737	5.72599838718509	5.156826483104532	3.2072641768542187	4.598894584488761	4.399986732818103	6.4086346464479265	4.9838743084008135	3.251797906295004	4.876570689286964	4.598649490190064	5.194730268714401	3.447256556390508	2.316697591654563	3.806712140962706	3.259706488962415	3.1418712059805016	2.2761840762844376	1.6810198979851418	0.9940765474970644	-0.06579088403065225	0.761732099517241	-0.14256858789688487	0.08813055582445448
456	0.8475924112854805	1.5823452432736391	2.258201355001104	1.453338738586837	2.477377646867171	2.893154613819754	3.2194490351455984	3.9119229217944866	2.6049890452418825	3.4299507054515352	4.489759910692034	5.414098249117581	5.077822672421429	3.1971259036406794	4.337924469486026	4.150492180835712	6.117407306484963	4.957898127436124	3.0156581325686904	4.650996196448282	4.369743812972584	4.963830458506351	3.365557423677467	2.2358109894570486	3.636818876621138	3.058953039075592	2.883000128142877	2.130426878318699	1.6058293540465618	0.9322473383254705	-0.2198110366278384	0.7515797000029258	-0.14778138659836157	0.06685544533539477
460	0.7242407184435322	1.1613877982381269	2.132804388383497	1.3108088937089584	2.3167648256936997	2.552875989190594	2.9530882760829873	3.893427600567379	2.5126223500710334	3.2110598006239326	4.195040692228365	5.0929822793167485	4.910267817497785	3.099151603503519	4.152390946394883	3.9448304076733174	5.803293213497507	4.872202860928851	2.7855653692488618	4.497174728483372	4.186515320698375	4.727091777310846	3.184892646377864	2.1873803083506864	3.551719179722957	2.945056907847649	2.6536598138567937	1.9353201340450608	1.6158758361073784	0.9445856785767593	-0.31217044513088227	0.7929518202788729	-0.15073840282052534	-0.029408764019864312
464	0.7287588697153891	0.868831215095383	2.0486516900791165	1.1138728828917819	2.253881210358691	2.3431270063369807	2.815942041916919	3.803273429805006	2.3890485703232125	3.08825539762893	3.9708936114191595	4.817254531142045	4.66461132779208	2.9287197515931203	4.068553437451278	3.8110935591797936	5.532372460702512	4.726249682891585	2.6833558014832346	4.445620525580086	4.102883328569438	4.52916573334645	2.9414122030381256	2.214684242379041	3.586756935600681	2.9753084107619943	2.492066377069954	1.7374974445344442	1.7492320493403275	1.0691986056989706	-0.2981880299669047	0.913557348329018	-0.09935559307285882	-0.11943797737007132
468	0.8381376245318551	0.8305951335917306	1.9514099310243964	0.9083214975312326	2.2742302360336333	2.293236726693044	2.8009023595665847	3.6199118999639945	2.2533490600914803	3.068563453556333	3.8688182733132277	4.635532844283953	4.392939556474812	2.7398345401254294	4.0856990711055	3.7675895595795477	5.35803841191781	4.547830093345714	2.762736075101788	4.494676578617852	4.145658005738054	4.405052173936906	2.698730223517782	2.3298487604446017	3.738523235418924	3.154718152664375	2.427937263080863	1.5948117931155161	1.9962199875976634	1.2955001559927874	-0.1667919750770902	1.1108452053634152	0.029990138410309897	-0.1493341471954849
472	1.0209519837352103	1.081185814988774	1.8240427924833578	0.7619596700504189	2.351423019194453	2.3952641426646974	2.8762209342818195	3.3572003756638984	2.144927257844467	3.138092986767018	3.911349525113195	4.569197166350849	4.165637959453479	2.5961949759739245	4.175513733812089	3.8116102122394024	5.297607408499827	4.378188122185883	2.974766723751643	4.608169544029553	4.294889916066846	4.363391388367041	2.516351455057346	2.4991118844831957	3.9592230220016034	3.423888913093182	2.4685983595510796	1.545644756229458	2.2928173484134633	1.5604575833023497	0.04524778563281156	1.3424863781413094	0.2115889782331842	-0.12051413922877395
476	1.2397372691325375	1.5351759156568292	1.7038911538020312	0.7260161619929741	2.457478278631279	2.6049251490628444	2.9961543007545295	3.056439153583892	2.1005890316380507	3.2633068479163376	4.076844681937181	4.602407920661531	4.033469666787903	2.5373001034572145	4.289401997226942	3.914353837620869	5.32542322721622	4.246897686726345	3.193888179344655	4.72547196148852	4.484825599791406	4.379174698263715	2.419228547664008	2.6547050409049358	4.168589104618147	3.6760108378106398	2.5864393645788772	1.5834588964538108	2.540540688776181	1.7709963276972431	0.2589708560127264	1.538209792068237	0.37837058210210966	-0.0806706694711995
480	1.446181532069568	2.017844433458289	1.6613755184189554	0.8040870407784081	2.566466325002229	2.853203766294888	3.113974801784576	2.769833319346565	2.130588287696343	3.396464577682686	4.302512158021479	4.689153659425673	3.9978852171096793	2.5595824653852097	4.371890057016238	4.0266513722799715	5.38503788542142	4.152967442517695	3.2886311924874096	4.781031119673441	4.627465713261841	4.400277126646716	2.3842706620100804	2.7274205615801117	4.280325401943461	3.797645320840944	2.7168307235788944	1.6513293939860065	2.644814007757301	1.842975611802012	0.3793708374458825	1.6282362896818232	0.45448851470640866	-0.0868445111108664
484	1.5825962980367991	2.3427359998682413	1.75148331676781	0.9464365220016518	2.6516284875679768	3.0654513758511777	3.1940803447189254	2.5439376766826434	2.2092196885598296	3.486113062640061	4.506301868505494	4.77421282516551	4.007792462720652	2.6222662859514356	4.377266395961404	4.095474709661141	5.415181623138284	4.063769330255106	3.1949827590385467	4.727318274960421	4.649615752878769	4.367657173573556	2.3529946744639227	2.6808857850099783	4.233805168906617	3.7162036801926828	2.7749621798072486	1.6637822347596198	2.5542547638300572	1.7385666326497258	0.3334476045296009	1.5743125637361193	0.3949485709232456	-0.16648532408165623
488	1.5949909646772586	2.39519070974252	1.9693056295265774	1.0725942823032513	2.6812636784569004	3.1812193313389208	3.218956939199575	2.4085571705089435	2.2854103984352157	3.490458479651795	4.6177377584218995	4.8158178207880065	3.985322703789956	2.672082417417459	4.2837796103087635	4.0836911098373765	5.375054345865327	3.9322104354761755	2.9501917287727952	4.551798332166261	4.524487007161974	4.23976515653195	2.262675994882385	2.5279483731341457	4.017220486988841	3.430476179998548	2.6867668560858284	1.545998330981373	2.281352991066309	1.482235904766015	0.10185228262458446	1.3872981036446257	0.2100389892520359	-0.2998786859093677
492	1.4557789527377805	2.180412763812614	2.2395241203986016	1.111801383072488	2.622603886658591	3.170340053183405	3.189583055072687	2.3723442494577944	2.3090238512869745	3.3912293825359914	4.604309547243644	4.7989568589165135	3.8672983548752926	2.6724979809997835	4.1011958018708174	3.984587420893863	5.256884084780622	3.7248713876140362	2.668282502113332	4.281761158623186	4.2825360190033095	4.010117520698181	2.0792195744471305	2.320192569596789	3.6725385096333714	3.010118000060095	2.4213550029656457	1.271371480592891	1.8954719257182386	1.147910234414122	-0.2706922881921475	1.1224805088313534	-0.038989562442807234	-0.4341667581563825
496	1.187137004716085	1.8149845554304218	2.448424571531335	1.0387734148501886	2.457529300207078	3.0424289626555194	3.122059098944341	2.4233448444218038	2.2582399788108214	3.2045760073816356	4.484029281739217	4.735953795873677	3.6421155837610852	2.62082433038867	3.870748271706182	3.826482286329051	5.084623800791709	3.4473097237335133	2.474964374015598	3.9772574801164713	3.9990117448930897	3.713233461541735	1.8180895997875115	2.11930179060875	3.2823095238784923	2.567665093614925	2.0126345106809156	0.881135521094591	1.494220610660744	0.8267436602700032	-0.6888343674434471	0.8569698312103826	-0.2683188610455062	-0.5169336782755564
500	0.8674235918079213	1.4671902619512183	2.5043423112583203	0.8853768087921653	2.202378029031205	2.845944874253889	3.0418548507184924	2.5313074524866264	2.152360672284928	2.9819974824003794	4.3190164456995355	4.656267631218908	3.3608062182451266	2.5454080040562506	3.6550042536961955	3.6648375895478336	4.902146327039774	3.151113025338882	2.4407184062370706	3.713096132440519	3.764084568057025	3.415700665433192	1.5418317279035136	1.966862196724824	2.9424600526906315	2.216607565051797	1.5566863974369323	0.47414365291094984	1.1668615311726103	0.5920147880866051	-1.039180752991555	0.6596299393212278	-0.4089963425800544	-0.5275536166223093
504	0.6107194408256353	1.2776321140457123	2.391594165485853	0.7226430159443616	1.918683881683804	2.6553652219488013	2.977003805273705	2.6510369710747193	2.0417878576226913	2.7977116037305247	4.19265459909474	4.592586028901661	3.1141445558124676	2.4862973627259985	3.519159546550157	3.5647396951319776	4.757629859356547	2.916621439245736	2.5520386631429033	3.5553555398822327	3.6498167422652013	3.1951811232958582	1.3343080248523265	1.8707386208032672	2.7310969760605754	2.034426445592937	1.1822988957118816	0.1698643411877643	0.9666151976022558	0.4779463398310517	-1.2284795014836536	0.5680197462999578	-0.4337860930934856	-0.48655843611897015
508	0.5231465088033885	1.3006421294752886	2.184876198020705	0.6244832261531288	1.7021387772500591	2.548228972677058	2.9522256776659757	2.7304019859042494	1.9826006839287407	2.72405361441454	4.1791133775102765	4.5708289031021	2.98848866661861	2.473477118922917	3.5088326842410247	3.5793435483208143	4.690423953611919	2.8160929608771093	2.727182143001612	3.5400547891884417	3.6874775793435783	3.1150503079921874	1.2639551130807927	1.813050027084476	2.684987061397329	2.0448656030525427	1.0048432324788839	0.06069456770593377	0.9019105411646673	0.47996666906293517	-1.2123757570174756	0.5812891707049324	-0.361185698789403	-0.43842449673587325
512	0.6533886773779095	1.4927847347717302	2.011526579546628	0.632752595734454	1.6472752052679098	2.5768749648837868	2.982398740867994	2.7239756515393707	2.0081734606586092	2.801776163656786	4.314449299409797	4.604644286927858	3.0218412799834993	2.513645404191375	3.6308183578374593	3.729744901777147	4.721342551708906	2.8752949165229267	2.8646793293152317	3.6599249747378493	3.860764255312932	3.201758853458084	1.351639386579199	1.7711784794912169	2.790170185674003	2.2207856122214245	1.0809549065954973	0.17355421141675242	0.9454745030374059	0.57028299426101	-1.0062783931121624	0.6687775237364564	-0.23815980493497443	-0.42067655814771737
516	0.9638527607424701	1.7477942661026855	1.9793976495358876	0.73988205007671	1.800933237297258	2.744457476362537	3.065823308833637	2.610120766725508	2.11258005562511	3.017681829462995	4.5789060477045105	4.692295062615984	3.182829371999529	2.590671055928667	3.8451793096735694	3.9925730127621293	4.845554339572792	3.052302829665502	2.893968098009595	3.864312162179585	4.114191998584832	3.4321718129288374	1.5580985506773855	1.7360807613409996	2.988429061973985	2.500348084812716	1.3829534018886274	0.45786091569696336	1.0520807478091445	0.7155266386086605	-0.677247999388746	0.7867634872599816	-0.11405366630368646	-0.43951421865122803
520	1.340396996928628	1.9546390722515952	2.1106483883021063	0.8965038038507422	2.1286311095854398	2.9963295384097264	3.1798553386513246	2.404477351793658	2.253170484576184	3.3014120972250383	4.897276865992498	4.814198481802837	3.383326760333043	2.675592892567287	4.074094762052766	4.2999024282612215	5.02837942761218	3.2480394758235365	2.801673643668031	4.073443879333463	4.370204914503403	3.735554924116604	1.7970994665549842	1.7158591703962656	3.196888915573651	2.8057734895439106	1.8045227482058588	0.8047000149437306	1.1747504443072947	0.8850679971283637	-0.3218965224245178	0.8942741133046138	-0.020627342112437417	-0.46834084273349236
