time	FP1	FPZ	FP2	F7	F3	FZ	F4	F8	FT7	FC3	FCZ	FC4	FT8	T7	C3	CZ	C4	T8	TP7	CP3	CPZ	CP4	TP8	P7	P3	PZ	P4	P8	PO3	POZ	PO4	O1	OZ	O2
-200	1.2276120154857826	1.0596628162333	0.14652334116658602	0.337857603173786	0.7015685421396899	0.697867332127062	0.6445550306259203	0.6772989017552556	0.11914360493143009	0.404517351559716	0.4191769946959218	0.28815665768350035	0.22329769972213906	-0.19905754873563294	0.11365200550472039	0.009827346516175827	-0.006988348887353226	0.5563778267164663	-0.008727137908657336	-0.1684633191146948	-0.2833502285479151	-0.06965186429319731	0.4044873704234697	-0.07072758656764583	-0.5203094469285324	-0.6830297095220063	-0.23556157887113027	0.10123085950088638	-0.7127385717516861	-0.418141453402531	-0.3020717195990518	-0.8870350696102748	-0.7621579150984413	-0.3444721094017454
-196	1.2432237832152266	0.8514137246570276	-0.1328776475412557	0.28045204210999614	0.6012626275140928	0.6095629319059783	0.44923370963163256	0.4821348178134883	0.10607569637935181	0.33389019881826315	0.35889965205178176	0.3256655327204066	0.19647139261232532	-0.06184029563549424	0.07515848409035247	0.08645533748494925	0.19658021579224924	0.41143607989384096	0.11241399468411942	-0.08082025477746627	-0.12401820687930509	0.1924327756076369	0.40238520401451633	0.12604472009306833	-0.24072118042727925	-0.3206371060859159	0.14671923183114577	0.31448608557455976	-0.3197348407779064	-0.0361198148709549	0.14225313031520756	-0.4416059542473721	-0.41348418489011957	-0.06771589798519986
-192	1.030095217011381	0.7307512145666211	-0.1388463970493489	0.1672216053555465	0.6012182816584919	0.6702602488761454	0.3971426178918883	0.17218901173510248	0.0813143474790844	0.35339200407450677	0.43758731969979414	0.47227853417366966	0.1934828753354773	0.07442728411241648	0.12485508589216104	0.2704291932907732	0.45877641323607954	0.17833179190433926	0.3052494816225839	0.07707714269966695	0.11738561809228261	0.46169611695070817	0.3148574225105729	0.38226175211715724	0.08297552892478045	0.06887084228293547	0.49990689628271723	0.4155115176677464	0.09253403521063366	0.3105877928044795	0.5362154231838449	0.02385729359027405	-0.06188787131777578	0.1864824886382163
-188	0.6318371279976601	0.6840536577120174	0.07328633945558714	-0.006743776594957377	0.6517519338365096	0.8100774267725002	0.4836239504524746	-0.1544716205273169	0.044116292037445576	0.42560687553715554	0.598035393635522	0.6771691424439072	0.2174581581824315	0.16653160708820747	0.24205604134481512	0.4807480859539676	0.7133735996355198	-0.06090361982108475	0.4951186763660649	0.2827638678564176	0.3780974736204384	0.6868987066092533	0.18933251452327834	0.637831507502942	0.40617313878507355	0.4337243724839765	0.756582317826294	0.4026561965313034	0.4750030922817963	0.5909461364131253	0.8321272709818137	0.4482326496251573	0.25753113562413416	0.41436201229383285
-184	0.19322298418375158	0.657113013992652	0.3461600235305557	-0.1992862964605422	0.6751729828954193	0.9178047157003439	0.6354732497383577	-0.40374788539993084	0.009529876498659235	0.48664456483045315	0.7424440365166223	0.8540886618985041	0.24455696282630912	0.19171149980303095	0.3709350814990869	0.6195315703009149	0.8830428101179433	-0.24991412397706736	0.5795515165001826	0.4807726728698754	0.5761085138080696	0.8171049931877101	0.06200204773984507	0.8158025124933668	0.6649947745699815	0.7164299469979509	0.8679176547072172	0.2976683966750648	0.7653825859772933	0.779458878456555	1.0036573384694267	0.7671528439226528	0.5069242106990518	0.6022796019606829
-180	-0.10829625251369143	0.5900446161631736	0.4999486791385993	-0.34299573215670887	0.6080272182372177	0.900138793103192	0.7502057533396772	-0.5168582187954612	-0.004191621661779262	0.4780989575236138	0.7815734128292681	0.9198883748671414	0.2388942831683648	0.15577942093619307	0.44320919997849273	0.6178302749293864	0.9099696255597558	-0.3691090336063583	0.49100476379405406	0.6009216293421937	0.644156871599826	0.8227987864701486	-0.04845061885998901	0.858006475189699	0.7947723249396513	0.8708861448234712	0.8274505117506099	0.14008621836103036	0.9087046361868815	0.8626252391016827	1.0532237264744717	0.9349579787490772	0.6609699709416849	0.7324595432862154
-176	-0.15580266674759677	0.4532023358823702	0.4203455735561153	-0.3867953707942943	0.43298175821659485	0.7277207356199572	0.7452712040204706	-0.4853449153567294	0.007405505962599195	0.37412190342860197	0.6765516979302378	0.8307029583938571	0.17343935326656024	0.08413290956236509	0.40826159612576324	0.4652130294021559	0.7798450569490798	-0.42741450559469496	0.24087293385249425	0.5883349761413975	0.5573877082103461	0.7096874695979819	-0.136032729997508	0.753967700485178	0.7558187227240043	0.8784677364104696	0.6780748350189827	-0.02340228477172355	0.8819505550051919	0.8454709031693463	1.0104961369751098	0.944249806404298	0.7211557608516811	0.7944909314123771
-172	0.03593202671277385	0.26313036613787527	0.11552450776735347	-0.33244722997653886	0.184861823449704	0.44543242342067935	0.5951302632565042	-0.3451688876974105	0.027043927392629535	0.19085060011839117	0.4539924848538402	0.6009601339426214	0.0462594701671912	0.004846792190205911	0.25667405063675036	0.2104171509198586	0.530041156861085	-0.4429489064954158	-0.08549662657847999	0.4310227323617081	0.3429520419521988	0.5191661106353376	-0.19744312713364515	0.5456616864732888	0.5543386326145592	0.7561109642966003	0.4976437079263097	-0.1503426130790548	0.7086707335699702	0.7536028604554289	0.9220660901631568	0.8311262109753385	0.7184684258441226	0.7943178991290311
-168	0.31689864317039734	0.07199886423052808	-0.28811922596667594	-0.24231892762993326	-0.06943484378211803	0.1451177295358804	0.3402399412147987	-0.15728969832286002	0.02297919237772454	-0.024000929607949202	0.18923611891175873	0.2967623166697993	-0.11697373509676337	-0.06656827760817256	0.026215119221184822	-0.06444415433825545	0.23707032143819814	-0.42768368016982106	-0.3766345074204424	0.17038004057305897	0.06784436834610827	0.3141140035804888	-0.22592312040509333	0.3049882642675153	0.2461430126174555	0.5518038854972405	0.3678261628400965	-0.2124203587175735	0.45314243321452213	0.6269134267237754	0.8347555377865489	0.6609503014089586	0.7001574021781953	0.7533529381805167
-164	0.47463187455507244	-0.061387847954017465	-0.6085791572464443	-0.2099821711245472	-0.2637165778177612	-0.08106891790426078	0.06688662601511416	0.014663859233490372	-0.0318164191336815	-0.2138811642492018	-0.031117742802614107	0.00845636145870698	-0.2752203636373345	-0.13163337078238851	-0.21302536076167744	-0.28080892491968773	-0.0122551256481345	-0.38457795880495865	-0.5562584386132826	-0.1127179187670618	-0.1885204459437475	0.15487165709971695	-0.21378348713782275	0.09745947992037371	-0.08115543404593382	0.32776918924547566	0.33878737602528985	-0.20218074270701095	0.1948223556129716	0.5057057129489848	0.777482746068661	0.5003071414713735	0.7065645438475047	0.698594628000775
-160	0.3495364776369449	-0.09997184549363569	-0.6959956270765507	-0.30804824751326854	-0.3587005427364123	-0.1794100250244426	-0.13008396294652533	0.12175422876135622	-0.14025226199979418	-0.3350556782369362	-0.14634591304069886	-0.1839989866141139	-0.39079311391393123	-0.20126466402260965	-0.38666716120370614	-0.39278149505629567	-0.15377239844122215	-0.3161683372621307	-0.6183570607785812	-0.3301419905433484	-0.36356612948178774	0.0754383576991887	-0.1620388324937996	-0.046728737534323064	-0.34000608239161295	0.13841773534636775	0.405176727940879	-0.1355323043023985	-0.004234596144892531	0.4154932488441689	0.7495284061581597	0.3889115740970569	0.7502408604753613	0.6509749276891794
-156	-0.06617467088681143	-0.04020975892524594	-0.503622769037923	-0.5418152795463546	-0.3489172449839368	-0.146877109633596	-0.18391467584429197	0.14011491799741724	-0.27369701793233353	-0.3671749224929248	-0.14014114404105218	-0.23768359362674377	-0.4433731723558558	-0.2812289588503594	-0.4444285023912621	-0.3961208452714059	-0.1684031035224625	-0.23399622679282991	-0.6133736356507823	-0.42212933195348246	-0.4296933103679943	0.07152625155271665	-0.08800298698379602	-0.1376926448445058	-0.4747311162883729	0.013365093584887746	0.5072638379641244	-0.04727978619917059	-0.12212414263647896	0.3583605280411495	0.7226960044734332	0.3261122993341926	0.8095164874619352	0.6174907072689583
-152	-0.6052391513802432	0.09234266704848483	-0.106528922646499	-0.836251137529477	-0.25296279724150306	-0.01857876400429209	-0.07957717756207217	0.07309185695075666	-0.38352093003718063	-0.3128622464387212	-0.0375541671162406	-0.15806834359791744	-0.4338371444716068	-0.36218923238863016	-0.3779087355132336	-0.3188554338511106	-0.08687528945923459	-0.1608008291237792	-0.5966511949733979	-0.38046699666285677	-0.39700317282578834	0.10436110917207185	-0.024886745896687348	-0.20608589001122307	-0.4794462907130374	-0.048667766030938114	0.5570453391316206	0.018874473822147103	-0.17896583631153665	0.3144854299234689	0.6557352526321474	0.27809533406617204	0.8397675135391232	0.5896199330702212
-148	-0.9986796949921565	0.2572753720940487	0.3382723024887638	-1.0654345723909078	-0.09806913857733895	0.15603221913520843	0.14218899571759117	-0.05178901912607551	-0.4252606321565295	-0.19087134253472063	0.11284423591018312	0.006503496768297094	-0.3776428093912396	-0.4209399212699925	-0.22073171977103698	-0.20279321023285415	0.024819223147553054	-0.12317965148581905	-0.5786224589044141	-0.24809628662413588	-0.30243053955969373	0.11867668449718033	-0.011122627155713041	-0.2737246744874395	-0.3939239670821435	-0.07290156912279167	0.4780942189543661	0.023516943618885275	-0.21769308988922056	0.25416678126060377	0.5155707584715633	0.20172312804790327	0.7974531630409456	0.5493366704422818
-144	-1.0113395426965521	0.41519239440042466	0.6646334512142653	-1.1131302090197555	0.08880177117815609	0.3313523224571017	0.3994953324245225	-0.19032262217630377	-0.3820900311359929	-0.029868921189594288	0.25871181422718653	0.18290734244896995	-0.2964131228592643	-0.433077632287474	-0.033474288796310585	-0.08815340675508755	0.0918892545168232	-0.13900536263656352	-0.515721617827109	-0.09753567700794608	-0.19366511653641794	0.06570485962729736	-0.0740238873281757	-0.33594643984853306	-0.2820562415154308	-0.09451287960985814	0.23992724656087555	-0.055755916842119016	-0.27705100108769914	0.15253397783868938	0.2941443912709066	0.07034450751664158	0.6626721603828829	0.4768792378783321
-140	-0.5712522253872556	0.535794793206727	0.7681889514601675	-0.933350203064965	0.2792368524177059	0.4697376477779547	0.5958699568962993	-0.29489791318825465	-0.2756291024878498	0.13428024913740777	0.3561210325309803	0.295648127047826	-0.21206670945985281	-0.39073470136219884	0.11902446269740548	-0.0070502767161346415	0.05723492414209964	-0.20892730302513682	-0.34708383591759706	0.0006426579186299765	-0.11530226439928894	-0.07933723906513462	-0.21697439198549462	-0.36647802498797044	-0.2041283840747743	-0.1448522802510434	-0.1297078874412645	-0.21682275776956889	-0.3716927757415586	-0.00010283941784520518	0.011970308579084689	-0.11231621326461226	0.4481016982209164	0.35677131920383803
-136	0.17925304129166175	0.5992539509902336	0.6426517947184026	-0.577445803614874	0.43809708842294864	0.5374904261370161	0.6510666592372572	-0.32994750058793737	-0.15491938551890033	0.26119166546680567	0.3744008829677688	0.2886706285341009	-0.1450022306357585	-0.31116437833425853	0.18911428701814542	0.017361942634855264	-0.10004407142175993	-0.3163216106057837	-0.05640583098594781	0.0046701202982474075	-0.09973187719437583	-0.31045171540080085	-0.41615193977191867	-0.34231838497519146	-0.19593973408343235	-0.24279642043802335	-0.5587368593414308	-0.43308177481027543	-0.48995548363007724	-0.19649323771458035	-0.29135015533321346	-0.3171448401550205	0.19081023287281895	0.18159006490159843
-132	0.9437801218046538	0.5962608441557494	0.36807835009150447	-0.17364831224945398	0.5243028985137563	0.5039927350671097	0.527195333103469	-0.28549262809199033	-0.07062631827642812	0.3130082778180522	0.2981956593614167	0.1421406712519615	-0.11424916953805614	-0.23166017175836837	0.1597363348742619	-0.02860070944061993	-0.35948365835981655	-0.43639889249294056	0.28610709237342846	-0.08677741118217992	-0.16285406011949555	-0.5961562380044327	-0.6293459518755623	-0.26982811025205333	-0.2616218917917082	-0.3933450569712241	-0.9634262895101788	-0.6621668918103976	-0.6078337415607653	-0.4194025386711824	-0.5764051065197231	-0.5088061677484385	-0.06809405965302257	-0.04703712451503174
-128	1.4141750299988871	0.529588280771225	0.06507947279473172	0.1316110786452988	0.5032750355411812	0.3516318491164111	0.24290759800140996	-0.18210950447834331	-0.0489759779230032	0.2665714614813602	0.1315325495260055	-0.11950860887395183	-0.13429944183297698	-0.19102176975659274	0.04604133206902521	-0.14486268126153046	-0.666481075988348	-0.5470302091138766	0.5384538756127332	-0.24108341275382594	-0.30199450178194026	-0.8916034079929058	-0.8118242004878775	-0.1921653891718496	-0.3804313232830488	-0.5901885017752981	-1.2824094263123984	-0.8601958133914163	-0.7076019626872011	-0.6508139951486922	-0.8214908221484998	-0.666356025443925	-0.30333655996031456	-0.3187441817819182
-124	1.418925997012649	0.41559660329794845	-0.15705926676674015	0.2427104258369908	0.3685670783751064	0.0938718316569173	-0.12838476863871973	-0.061501353823834724	-0.07836937884571545	0.12753216890084396	-0.09581015234837743	-0.4301143277753023	-0.20588727243417174	-0.20581938274394396	-0.11187271745570009	-0.31021165769457404	-0.947065112583866	-0.6325668676618028	0.5581193552231167	-0.4086255718881652	-0.4939664291784986	-1.1498111457404996	-0.9304755902639952	-0.16858334796780822	-0.5196084963077435	-0.816750345552192	-1.4938052854969979	-0.9945823525113514	-0.7869591693082851	-0.8760844446951429	-1.0269798014461267	-0.7913074473429611	-0.5120866881793039	-0.6133018120540092
-120	1.0003801558986603	0.28313457894366223	-0.23620799124208736	0.15663638671428762	0.15609456559348608	-0.2135167861554486	-0.4786953317954083	0.03228642038300031	-0.11731594026271609	-0.06410103275089162	-0.3275862923934441	-0.6976698619394196	-0.3071680657260926	-0.25722968513394373	-0.2626285546347782	-0.4802334296499539	-1.1268342704933347	-0.6817581636382232	0.28984323070780665	-0.5414856062569342	-0.6965485197600914	-1.3290125098052716	-0.9708846186920931	-0.23664596617079114	-0.645751951494633	-1.045586225730815	-1.609098788013527	-1.0510224077391848	-0.8531834461605856	-1.0821393700934834	-1.2060784071035653	-0.8988576508716243	-0.70532584012291	-0.9014156438003467
-116	0.378841130969101	0.16391566354374856	-0.16689385431591533	-0.04509955260691972	-0.06381661428790274	-0.4836800384230666	-0.7020657640851509	0.07321915757051431	-0.11915957152560898	-0.2455581867455571	-0.49497666830024606	-0.833691654484639	-0.39441165228446445	-0.2971577040799186	-0.3605517139868502	-0.5979183301134787	-1.1508427829296675	-0.6831943375504602	-0.18535454524449577	-0.6071559175420909	-0.8570670463857658	-1.3970291579260876	-0.9356139874678189	-0.3815942098996806	-0.7308780532503829	-1.2388963668061694	-1.6507834154412424	-1.0328507397323905	-0.9074664689040883	-1.252375361141645	-1.3681129182606295	-0.9982514952251712	-0.8901654459413301	-1.1493577928134826
-112	-0.17230300561794762	0.07719461600364207	0.012036400816747983	-0.24496003923558504	-0.21611687486443729	-0.632743058991314	-0.7351324539697747	0.06444490684689384	-0.058869857192419	-0.3572347155134743	-0.5438141809084953	-0.7871704081688358	-0.416362761399957	-0.2717621915631645	-0.38075938724706426	-0.6159485562985781	-1.0011359427925042	-0.6242367609476048	-0.675299821579181	-0.5943078383699698	-0.9283481812880431	-1.335931297744041	-0.8373526313621451	-0.5338671789995576	-0.7543057780294904	-1.3543539013047061	-1.6298557478762818	-0.9542721485840416	-0.9325813031493038	-1.3645801509737117	-1.5054101905961772	-1.0766226026055807	-1.0556434366276641	-1.326851960646908
-108	-0.46568095566478374	0.01834501135187952	0.23627614915321593	-0.3516161432925524	-0.2588634782454346	-0.6209209545671215	-0.5841230735336234	0.033413570289889255	0.052711821959448554	-0.3707444062409318	-0.4624420690781888	-0.5687589631025959	-0.33994236502650893	-0.15110389850136524	-0.32711648858451065	-0.5202123509624385	-0.7059614044485453	-0.49837311976490695	-0.9677553748492856	-0.5114881383379806	-0.886300263551339	-1.1476778955093743	-0.6918935162241756	-0.6002851113422444	-0.7036156040546876	-1.3568798269346203	-1.537631030968929	-0.8318926671005701	-0.8944488741226541	-1.3955967391064619	-1.5922170837257048	-1.0978124113976016	-1.1709594696998615	-1.414972778562547
-104	-0.4803789543898056	-0.040949713335361224	0.4329386044538864	-0.34302022966564966	-0.20758132584137842	-0.4774778473243	-0.3256280413989376	0.014334627390969286	0.17425763563029323	-0.30363061947457154	-0.2942418448648683	-0.25304201181420954	-0.17395476952979294	0.05033696430133622	-0.22937299253249926	-0.34133151087413693	-0.3367023757539884	-0.31591707388271445	-0.9399011111371096	-0.3809340586581375	-0.7411515097979312	-0.8596636631242051	-0.5152303563461106	-0.5134321438224219	-0.5758405909304807	-1.2326297728888855	-1.3569834198069783	-0.6795499307641597	-0.7580512146884301	-1.3310013975871153	-1.596877570888926	-1.017571804338532	-1.1974495619105074	-1.4100257122679691
-100	-0.34479951771467	-0.13661427761395203	0.5344308601237753	-0.26735782555789656	-0.12847606805312392	-0.29092800543765757	-0.076704583868439	0.028143323886865013	0.2557404332856682	-0.21049015170836297	-0.12320474504120614	0.04672565299396373	0.0268054659732916	0.27548497845714676	-0.1301735338262354	-0.1451067771824306	0.01006965243509207	-0.10787712010326969	-0.6212319119981295	-0.23091497959010668	-0.5351080284913589	-0.524722932444428	-0.32376420416151686	-0.2707384519894095	-0.37948727511915725	-0.9983614657945041	-1.084307667855648	-0.5075862990915452	-0.5094976412307319	-1.174296852961699	-1.4993127546603389	-0.8076597431772248	-1.1074529858285227	-1.3199942078642344
-96	-0.24020954905898023	-0.2903752021610839	0.49247249836562	-0.20447812922827208	-0.10289780769594989	-0.16731677907185133	0.05303246887049851	0.06954386067713698	0.2641089849956492	-0.1545253094109628	-0.037004426028284534	0.22218906823327703	0.18197479798149102	0.4489008474937248	-0.06743972731491096	-0.004900366055514117	0.241857826099115	0.08275391885606506	-0.17469797984362087	-0.08882867522462365	-0.3260139516705615	-0.21125280803749974	-0.13437136973787808	0.059646718053427965	-0.1357373889833916	-0.699705062530137	-0.7468066196660083	-0.32492223299961176	-0.17092414157151742	-0.9492269134397666	-1.3035715785493134	-0.47529205559893783	-0.8990634061048695	-1.1561444968597634
-92	-0.2903141968073103	-0.494834451618171	0.29454392120382733	-0.21185338443674026	-0.18229012145271792	-0.17775373115960577	0.007030190416557335	0.10918631377071396	0.1985078747029021	-0.17476728514415846	-0.08518141486596177	0.2137593919602331	0.22399637046527102	0.5118276463937641	-0.059454761295413466	0.03125251449204645	0.3015660933986988	0.21998387519608947	0.19475591133537598	0.02457887114339342	-0.1637197430768665	0.016114173416342106	0.03618360301657442	0.3711985340283289	0.12435363946751231	-0.3960932185186223	-0.40199687975478504	-0.14217229151593502	0.2027896190530155	-0.6915421468441119	-1.0375467512638081	-0.0657262949476206	-0.5986329301978867	-0.9255243516442937
-88	-0.5019046055519655	-0.7148621064257376	-0.024765990611967582	-0.2892832450715557	-0.359623341844495	-0.3243009439863641	-0.1963735366870124	0.10859353067875814	0.08755011834451659	-0.2670624845437801	-0.25474396283682904	0.03480830779824113	0.13371741737937595	0.44967111831621237	-0.09899838243762178	-0.03780214851491222	0.1891458774797966	0.29143583700986175	0.3501868239144472	0.09942571793726002	-0.06972945463933777	0.11936642199419913	0.17361263886964598	0.5714870676870777	0.36657217052415547	-0.13783279026518008	-0.11635157436558805	0.027486976166707023	0.54439264398458	-0.43347871194115495	-0.7395369391843318	0.35338663965649053	-0.25018781360402376	-0.6288859232283472
-84	-0.7827264646795369	-0.9053266025574097	-0.38833728334609596	-0.38202860854970694	-0.5744070396226071	-0.543771802006167	-0.4768576907993002	0.040097627687545344	-0.028158668357565635	-0.3895049681366201	-0.4774763572081844	-0.23646795689961886	-0.04700800764613247	0.29769399686993114	-0.1593633439093604	-0.16747651951944606	-0.03725093966258227	0.3131586305341185	0.28826948927577534	0.1379663642737845	-0.030547033918266093	0.10311868760776863	0.2701379649971359	0.6254875644150584	0.5616950974588093	0.053355969353909884	0.06619007123686639	0.17154088573061244	0.8006120899967762	-0.19048584949560907	-0.4401727903696886	0.7172043901455624	0.10097062562245404	-0.2676925056374654
-80	-1.0159815524199396	-1.0342828009241485	-0.7002554518186033	-0.4183099259305633	-0.7495013456495001	-0.7473414521422275	-0.7337381821227089	-0.09913173292880884	-0.11784917831469163	-0.4892022001313077	-0.6668726785035337	-0.49466070407908946	-0.23514921903845404	0.12136900394314548	-0.20932547695239234	-0.29165631459032926	-0.28353843021331826	0.31682589570163266	0.12476289985866805	0.1518478389720898	-0.009056459158145362	0.014093032071175678	0.32503914751004354	0.5653293714555235	0.6912503225040283	0.189099177240733	0.14717513285672051	0.2816233627838424	0.9495669579373517	0.04044263054650515	-0.15183557531645825	0.9840453242252717	0.41959860814967603	0.14054001832288204
-76	-1.136375185958443	-1.097775337308645	-0.8846685268000876	-0.3597729793048258	-0.8378422835177387	-0.8726694561860037	-0.8953521825119445	-0.28723612355191336	-0.17550539926087094	-0.5348142371980027	-0.7647958378556057	-0.6559572799333752	-0.3509698203285623	-0.01851788158509804	-0.23004311265085592	-0.3573808661020946	-0.4573655116931635	0.3233780852736367	0.01337797843267502	0.15492741724476353	0.031895331957874584	-0.07852295766317208	0.34110540065475237	0.46266904356492045	0.7479664068411196	0.30123886389970805	0.17276483730566253	0.3549681892969677	1.0001116965792698	0.2693059139604946	0.1275795098898373	1.1410777540007695	0.6823702437338763	0.5510753379259903
-72	-1.1612710923439513	-1.1164717646067168	-0.9197627878809167	-0.2322665000058152	-0.8497995712759406	-0.9169268584943084	-0.9500161981438896	-0.4876418101396724	-0.22065438274463617	-0.5348979817237006	-0.7710610608660632	-0.6941693407652437	-0.3613456478532539	-0.09702949201404966	-0.224778979449196	-0.35124182612430804	-0.5054833280198894	0.32164195098732484	0.050914354493817655	0.15494620760898153	0.10653330358787894	-0.11405196012073407	0.3203376821536427	0.38220316075149097	0.7324730735405454	0.41799220337239024	0.20779135770787543	0.39342313905568277	0.975994048038629	0.49542724961128803	0.40025508302723384	1.1954164474823519	0.8724355079558509	0.8945948458973405
-68	-1.1610771388303418	-1.1175754042065915	-0.8468248226720009	-0.11610566795360742	-0.8445789196625345	-0.9319736337973529	-0.944150326252419	-0.6629717929314123	-0.28358149456905973	-0.531053064912882	-0.7397154550949835	-0.6465198977359803	-0.29663604423016143	-0.13388569619231322	-0.2162693435453878	-0.3040730349492999	-0.43401056418514294	0.2700598829126773	0.22284258845810562	0.14848095141116288	0.19627927194153813	-0.06801035983080805	0.2621158354817148	0.3443153491863819	0.6493110640344752	0.5424890504491945	0.29853981657948087	0.4003319134141553	0.8963690973538899	0.694862423572942	0.6524692161299258	1.1588536471672544	0.9730097626915494	1.0952274771695087
-64	-1.1941544979463534	-1.1145782442562728	-0.7476326804358647	-0.10025984768588266	-0.8902811981611916	-0.9851797198217729	-0.948955295074211	-0.7851045707907812	-0.3840911676723071	-0.5699319229041694	-0.7437701802548817	-0.5868801459753928	-0.23043933452599996	-0.17557702914254894	-0.233051761396426	-0.2712272100753337	-0.30112492962150755	0.12380363015865543	0.4193599511525979	0.12257373302030403	0.25908610159310863	0.038039375000519335	0.16631001192065323	0.3189089588219838	0.5059065209967262	0.6474674327715824	0.445684104032608	0.37859147691508954	0.766175566169383	0.8239162543475763	0.8497284033302585	1.0383594009886241	0.9682221388213432	1.1004757853380207
-60	-1.2571059433669451	-1.0992249222659225	-0.6978009325529498	-0.22651529254944175	-1.01680779200373	-1.1103131743054933	-1.014421222032949	-0.8388004877847287	-0.5167042599983952	-0.6711201054795043	-0.8286766388951888	-0.5815505370716125	-0.2335948938194093	-0.26222997837617146	-0.2921423904672453	-0.29943445249297834	-0.1853876854269072	-0.12821361390167932	0.5089602457547938	0.06308842434452029	0.2536068850313198	0.15043482146428955	0.04048881669550887	0.2527380579289449	0.3156973115579824	0.6907559615815093	0.6037441476837614	0.33202555691814	0.582580803353954	0.8401198961981455	0.9489582753064422	0.8391399958405121	0.8530404546181305	0.9090337134298556
-56	-1.282830592731318	-1.0493959161966604	-0.7245726567094483	-0.4557791340764717	-1.1902893751610069	-1.2788407770294161	-1.1359231443336077	-0.8194295147234367	-0.6486822350336825	-0.8099629262501757	-0.9812977289219975	-0.6511163099062297	-0.32872226751302785	-0.3971189250456499	-0.3871332993269952	-0.39810705084424153	-0.14501415156468347	-0.4384475935356654	0.4212668825480824	-0.03416558346467022	0.16543170767978296	0.21407112425162136	-0.0938161758199988	0.11151864351488643	0.10211256120650025	0.6431485398267065	0.7073547822259417	0.26875638893937526	0.3516787281694086	0.7297655921631037	0.921321747361081	0.5766960367901373	0.6459118111515171	0.5818263873669366
-52	-1.1866658896049698	-0.9486281251798648	-0.7916060070078872	-0.6780497414635955	-1.3248689141202374	-1.4089376890849863	-1.2516105143418184	-0.7308469396258888	-0.7319642286893825	-0.9254376268863644	-1.1318380804095955	-0.7581410984925244	-0.47326049089154265	-0.5374643193026705	-0.48768883820428144	-0.5299411402674045	-0.1881588692682917	-0.7085318547479943	0.18775461566728444	-0.15548576375328732	0.02101648034809682	0.20333698340576714	-0.20247666486641244	-0.0911881101809393	-0.10090502326046376	0.5120924102251879	0.7087755185352209	0.20314484783381878	0.10195175532588285	0.5250555859660796	0.7723191957048056	0.2869369976428633	0.39359232683945056	0.22755636217362146
-48	-0.9280493832045384	-0.8019680360573481	-0.8196026066114275	-0.7623458485429436	-1.3248146738936288	-1.4063589537399344	-1.271674510606164	-0.5840640649354447	-0.722202478015939	-0.9478378868014279	-1.1870456904005198	-0.8265438655012206	-0.5799757823606225	-0.6124315842424857	-0.5498905168001365	-0.6250892861796749	-0.26921397379616063	-0.8294321873704541	-0.0814536435335728	-0.268823801792446	-0.11864384978857258	0.13699960674029088	-0.24823138055117824	-0.29599800631177414	-0.2541889243860819	0.3464647820785228	0.6060846432642475	0.15438871046664365	-0.11691784829184694	0.29845461173998955	0.5462800250566275	0.02369766862667827	0.16057562787522517	-0.03549340358355977
-44	-0.544203399237896	-0.6357541068238303	-0.7326277475933469	-0.6210861190373771	-1.13387930106942	-1.2136921851986613	-1.1237283916712204	-0.39717265863277923	-0.5968283995818677	-0.8313602188101359	-1.076402780676204	-0.7816475610071815	-0.5646896944094091	-0.5600845203563998	-0.5328652845280576	-0.6125598534377185	-0.3131813101013983	-0.7329343538852975	-0.2655929916351978	-0.33286490952374787	-0.18294413341586468	0.06840049458161977	-0.20488133974799838	-0.42956972013736455	-0.32421794451872393	0.21726094131452886	0.44560268408805037	0.140650942566529	-0.2520219081237767	0.13381324674677164	0.3107631198666437	-0.1588164116902823	0.005252651391327745	-0.12579016355703654
-40	-0.13315114345311707	-0.48133492348262213	-0.5015048968051109	-0.2546297007330831	-0.7635329942499378	-0.8395822026989843	-0.7903172353818075	-0.19368541191791272	-0.3651172211488616	-0.5740428552439489	-0.7862399200615964	-0.589021860066055	-0.3932866146171694	-0.36340027955811893	-0.41413542523729124	-0.4531342375758862	-0.2553316348305083	-0.42749535929512866	-0.29932939930682695	-0.31243231813704175	-0.12339621006090248	0.056035246558573046	-0.07042229157787708	-0.44638171679329786	-0.29483121559091935	0.18299245788149432	0.29717618151975234	0.17059625642143583	-0.27266412904562853	0.08805963374793142	0.1281514611584967	-0.23021139146379316	-0.04597568500355146	-0.03200189761188334
-36	0.20390574582593912	-0.3525366774241394	-0.16172707040008905	0.2484252893613042	-0.286140530579063	-0.3533549299855501	-0.31944793382100445	0.004769840731350015	-0.06448078884295803	-0.21607686524673284	-0.3650250425659492	-0.2722774737159468	-0.10021327410668887	-0.0632854176950056	-0.1977571691050126	-0.15790341754624035	-0.07576908897105114	0.0043887891695855805	-0.2020763153696281	-0.19372726927960057	0.06337512268516608	0.1311665770080086	0.1301965412190606	-0.35593494683046134	-0.17472201541656585	0.2587116950178973	0.2180755877949397	0.23913486241523207	-0.18839004588246938	0.1637396957316547	0.03085612311619425	-0.20144464024705455	-0.012617209894392203	0.18240132881842683
-32	0.42130577457870017	-0.23316636622687853	0.2038983399488445	0.7537712435764943	0.2000982756331061	0.14880177341085643	0.19566003928852999	0.18759088170849983	0.2527381473359118	0.17947222247110867	0.10036434952907126	0.0979754400759886	0.23141281248317502	0.2577672296214934	0.08668621607590382	0.21548266654446718	0.1889922912117594	0.44623550660003297	-0.05461906255402708	0.0075308782789709604	0.33247294938069455	0.28039440441864383	0.354478239118151	-0.21890334729716807	0.0033991809382895315	0.40631893174582606	0.22623261752230814	0.32978516733830143	-0.047935478268237706	0.3077515355923258	0.013322035748404258	-0.12361472068809738	0.047168601185203406	0.40597718851586917
-28	0.5492635951479717	-0.08591657110218476	0.5062111007307594	1.1440534562790232	0.6129875167629022	0.5846869930764196	0.6547631008783152	0.35905209093040996	0.5352185355024934	0.5507198558254474	0.521971820467121	0.4362612653685016	0.5142909871468221	0.5130891190926055	0.3917753090503827	0.5857122525686125	0.4629403937095753	0.800112364656241	0.05929062127998735	0.24812677439986153	0.608578740013932	0.4523225713277066	0.5585539922917215	-0.11346610606871589	0.19146160733044104	0.551676689185611	0.29634049459978884	0.42199492347985335	0.08144869634806894	0.4373432386800552	0.0426701194460727	-0.06631807966177895	0.06254943444433844	0.5256440626224613
-24	0.659874795201347	0.12165608226340074	0.6909070593556335	1.3673214877893	0.9117689705716924	0.910783825005332	0.986174759759141	0.5335879312394899	0.7451301794312882	0.8529677965563327	0.8411813357096258	0.6771263463090665	0.6998440605614022	0.6502197368417819	0.6633777601659525	0.8779974557643792	0.6660278422706203	1.0230450604358583	0.10526667508727743	0.4693892288277998	0.8157370069889239	0.5835853800344621	0.7120619398259042	-0.09283321327374779	0.3392219236869277	0.6196646674723624	0.3788433065386298	0.4994066345003804	0.14299432897227937	0.4790592479531656	0.07977031896239858	-0.08657513537006473	-0.018571341363391145	0.4704779970688406
-20	0.8053753951719754	0.3898147334747357	0.7564722876523164	1.4484389983800914	1.0965073080988947	1.1219497890756132	1.1648650139962544	0.7234142404411633	0.8647097923381494	1.0621994706992466	1.0397496197198552	0.797068713083115	0.7950679043723462	0.6709427220571006	0.8529282190723018	1.0484926674120145	0.7509155850525152	1.127885696424518	0.1111694944078349	0.6156274064733391	0.9056452489875745	0.6307000501921508	0.8043928126053338	-0.15847484727425928	0.40782311455758014	0.5691235051091218	0.42932483445492314	0.5542470202757707	0.1132425588490502	0.4008328606499053	0.0977032852686313	-0.20337946661622355	-0.2074705655105042	0.23617957472776244
-16	0.9726215576411074	0.6745071394103144	0.7421786170341076	1.4605871402103823	1.1863425940125243	1.2313817708397292	1.2069259851501315	0.922054944094612	0.8951787926007306	1.168860909371908	1.129657027253481	0.814025757641743	0.844913659346748	0.6219667776617099	0.9283657050535629	1.09247028551845	0.7208959442057611	1.153054830500987	0.1384903934081655	0.6519148929349142	0.8714768864563486	0.5888231977855201	0.8397297837990756	-0.2628449194947666	0.3793513169247678	0.40886196390874757	0.4283428479347278	0.584464608147324	0.007135586795076607	0.2207407647758588	0.08593618103026635	-0.39115404983945734	-0.47242405891352135	-0.11914697259385139
-12	1.082882163174799	0.8995738602814372	0.699812470099751	1.4749759398414124	1.1945784061789257	1.2479127613985785	1.1469846934923866	1.0954545708655297	0.8505400397761158	1.1700609892867857	1.1319605083496551	0.7669768314070755	0.8941131807641266	0.5632508978928086	0.8810206033397542	1.0342173550243503	0.6203380211426899	1.125859019297982	0.2331149423197284	0.5739603624157881	0.7417691331255345	0.48752584930355464	0.8257383683337596	-0.33989217791573473	0.2593157582888484	0.1871414477868669	0.38138070606263424	0.5863114580610267	-0.13644523884179582	-0.01029092070842344	0.04062061001535511	-0.5953132495155027	-0.7565151433918017	-0.5043145405434396
-8	1.0409071419184708	0.9884034966309554	0.6649699194331729	1.5186563691897481	1.116218921704218	1.1661667794348622	1.0141247485305847	1.1884685724770054	0.7507154326558647	1.066476819206819	1.0588674518554253	0.6897267085781265	0.9533065533411181	0.5333329425697846	0.7263385635157502	0.9059032774941557	0.5049144612915892	1.043644425618225	0.386039911725996	0.40646570818321487	0.55949812986258	0.3681216528658245	0.7638021688250639	-0.3455039254048471	0.07237494718636948	-0.03730027368188024	0.3030767135120723	0.5492435679873777	-0.27802303363224207	-0.23830777346525575	-0.04738274949746982	-0.7596591691864761	-1.0033926938472921	-0.8319187143302712
-4	0.8030856827487097	0.8978772140721892	0.6434800012554656	1.5618139465954342	0.9330973005578216	0.9740541552746669	0.8197922685906239	1.1443361015038345	0.6153139456472567	0.864806471071731	0.9085534788081128	0.5934119209566129	0.9899359916489062	0.5294995890600231	0.497889636690032	0.7278453689318678	0.40845283762804224	0.8840736128420864	0.530908464045022	0.19129782866817296	0.3585749557501876	0.25657823617051584	0.6473821981297688	-0.28386190461969757	-0.14626122974184802	-0.22520349862937572	0.19918312082069647	0.45801818255180615	-0.3953510512860753	-0.43007549534932915	-0.1943582142452775	-0.8499543049333869	-1.1768294543118112	-1.0463886234567554
0	0.4183996905253684	0.6360431297456164	0.6170991047537726	1.539978381083547	0.6313908680233534	0.6696868521948539	0.5610368237635719	0.9317867136318092	0.46048414590922765	0.5818014726254833	0.6727733595074652	0.46460652234077526	0.9496496295794464	0.5136958347702424	0.23573380649177395	0.5001736270674138	0.3249158851049592	0.6358717663923198	0.577177403900128	-0.029261419475706405	0.1497606482300984	0.14918149970060054	0.47068709016218474	-0.20583122916706317	-0.3606795957518929	-0.3711785366700573	0.06136252715592275	0.3038665346579969	-0.48676773782857047	-0.5784851298031983	-0.4099159528396497	-0.8620289542368551	-1.2653069464208855	-1.132822272301642
4	0.012751222555928149	0.2551737421268969	0.5581431970809667	1.3961267436064664	0.21775412504531647	0.27307462623316026	0.23373767674560822	0.5666192755698511	0.2979623369800325	0.24326066611384556	0.3493026486160814	0.27813380886427747	0.793521640681487	0.4397009898051602	-0.028239425200451803	0.208999141523071	0.21549697165917714	0.32516264833370634	0.459639756711149	-0.2282399976451468	-0.07786266486059798	0.019814440930526974	0.24148675738400266	-0.18066611840410665	-0.5434480891812091	-0.4964056896551281	-0.12041866003866544	0.09804581080954888	-0.5608857259894477	-0.6903754455302239	-0.6758687479121257	-0.8130249956584908	-1.2735702959331037	-1.1075956793477548
8	-0.27609798242479155	-0.17365077094104478	0.441842972116723	1.1173362703723564	-0.2770123474756599	-0.17616508856641822	-0.15411043128205115	0.1139437702401593	0.13553875650517913	-0.12341695247723196	-0.04982545586761674	0.015833770816284825	0.5278723822617633	0.2843480401012583	-0.2818011038341139	-0.1577835377047385	0.03564170366467682	0.015621471179324359	0.1742835189472216	-0.4021193672994892	-0.34268844041134516	-0.15671879013548154	-0.010846245075200225	-0.2569923394390473	-0.6814961416204521	-0.6269412024881705	-0.3367090514741864	-0.12142796038726009	-0.6217382534542181	-0.7687388639114769	-0.93443631889932	-0.724023519118519	-1.2102727859458198	-1.0008698676588985
12	-0.3757699718524805	-0.5880702719146184	0.25142612989842844	0.7457853536850051	-0.8064883927010562	-0.6329693182223102	-0.57661217305515	-0.3304324439766056	-0.02309754671285301	-0.49805346005578355	-0.4980958389581119	-0.3189521125846922	0.20876192993862502	0.06345023198797403	-0.5340656624661585	-0.5942097291249172	-0.23344474971959914	-0.21858364288456122	-0.2151437098316465	-0.567551253793206	-0.6526889188500131	-0.38006576799756425	-0.2383429253044233	-0.4339680958758477	-0.7765931467476342	-0.7729101757562615	-0.545436023288739	-0.29661166593050986	-0.6603385193365287	-0.8042071441373273	-1.0995147200480888	-0.6062633379888329	-1.0816404792179728	-0.8422623255445431
16	-0.32296961464402224	-0.9491838192817028	-0.02087926859352515	0.36092018989992136	-1.3220605816840905	-1.0626064512127456	-0.99386590468296	-0.6722356064036593	-0.17793026521582359	-0.8713036157544239	-0.9606685614173185	-0.6973584276712546	-0.08251371958880728	-0.17556217268487617	-0.8055819252656007	-1.0691227885910077	-0.5670147523869373	-0.3315458289358765	-0.6044633373258055	-0.7485392670806095	-0.9941723917656213	-0.614976881381903	-0.389084606380403	-0.6586484296381895	-0.8404705503224739	-0.9215636230089689	-0.6802394968978253	-0.3700183322624335	-0.6584321243828457	-0.7821847776691857	-1.0915448638060037	-0.45971789840025223	-0.8951386190702535	-0.6553667767190762
20	-0.24556316373338327	-1.2399330107854858	-0.37090060021217136	0.0438606030131659	-1.7836517050532918	-1.4482600652369275	-1.3638102973837363	-0.8528991320057249	-0.3313562861659693	-1.24021994754471	-1.4027447665084587	-1.0731153461065621	-0.2795453958606067	-0.3791461279356466	-1.1114462585998128	-1.5329686364570798	-0.9029207802864148	-0.32883495009369124	-0.8950217939667886	-0.9603285169197334	-1.3331631388383713	-0.8041726926527341	-0.42687407028188096	-0.8509576299163578	-0.8869680739897163	-1.0462505790998042	-0.6794730407725936	-0.30910870354811254	-0.6011128410421505	-0.6984913927562847	-0.8788139797910957	-0.28243985700823665	-0.6670670492496555	-0.45819309238145794
24	-0.28965893314662644	-1.4542517625332012	-0.7778468112380299	-0.15611851175946415	-2.164438480634561	-1.7876591637300028	-1.655449386231769	-0.8698493816348656	-0.48609238740264804	-1.599166270033233	-1.7961910917709005	-1.3986126149151927	-0.36282795576043064	-0.5155606852866218	-1.4469063245482066	-1.935797924876374	-1.1698586911229287	-0.25849357182089244	-1.0327459547671398	-1.1986743181482598	-1.6286362368472562	-0.8979520179011935	-0.34750404866220264	-0.9425287818953985	-0.9253952479840362	-1.1242481441723495	-0.5217271434009357	-0.12373881755820643	-0.4895051109352915	-0.5705792889494404	-0.502046762629396	-0.08267337062943508	-0.42640355121721196	-0.2659145586929491
28	-0.5356493578738422	-1.5898950059804078	-1.2011454075051191	-0.23791696071161142	-2.452414029605369	-2.0840167946651214	-1.8585863066478527	-0.7759315351922978	-0.6430019124009293	-1.934005017166057	-2.123363727930648	-1.641667242673731	-0.3665925255102949	-0.5885594472330549	-1.7848794415232756	-2.247297519732003	-1.3221051659582699	-0.1792650069240702	-1.0242367957004888	-1.4406518899784262	-1.850100751020473	-0.8830014444945736	-0.18331669224709263	-0.91041469344117	-0.9586646532650293	-1.150609251932027	-0.24552644727229433	0.1342398669906744	-0.3443919709570472	-0.43334808836245947	-0.06416042877926034	0.116239256863373	-0.209006964632678	-0.09041668451846206
32	-0.9522977447308417	-1.6527738529438463	-1.5863296945575247	-0.24300922392049543	-2.652819626786161	-2.3408372343090704	-1.9878313491224437	-0.6588528735692529	-0.8004450777825373	-2.2256865445210625	-2.380200856875092	-1.7974455311216764	-0.3592681577671752	-0.6314204319270874	-2.0876297898037044	-2.4690034327159505	-1.3625401224067797	-0.12915031579312083	-0.9279994345123428	-1.6563080507422354	-1.99059843514451	-0.7936333993901586	0.0057283541974339535	-0.7894328812695078	-0.9867957805514879	-1.1396195859746658	0.060472059842258716	0.38962477347231617	-0.19803966531821232	-0.320596574927571	0.3125199667669627	0.2822574071910398	-0.044357243813341746	0.06257782860692164
36	-1.4170246088491145	-1.6682500797114133	-1.8816297006784188	-0.23201553464962205	-2.790757410632848	-2.5646307403663604	-2.0792639203027314	-0.6071962102818573	-0.9546319222189975	-2.462081426126371	-2.5782792503111494	-1.890469069476292	-0.40828189150725797	-0.685102818666705	-2.3266735018161437	-2.6322016649546716	-1.3418837751841517	-0.11505325854578782	-0.8272036293125736	-1.8249704791722996	-2.0690197892403384	-0.6983808857451501	0.15062405130981246	-0.6568359716044354	-1.0130690310649884	-1.1150267096024307	0.2937915019724049	0.5716987237801407	-0.07998859117101499	-0.24561724004721922	0.5397267924033425	0.3877881159528444	0.05595121146023251	0.19399003635542944
40	-1.789174433005657	-1.6870810942970482	-2.0587663598533843	-0.25994792514974013	-2.9109420702872963	-2.7722687651259386	-2.1806044523497277	-0.6776442510662123	-1.102075097162596	-2.650908463460908	-2.7446792056405416	-1.9667301128323353	-0.5472264276039818	-0.7752734403109943	-2.499948972112308	-2.7829136778187893	-1.3352264132167069	-0.1310365345745982	-0.7958810309343192	-1.9477611730990383	-2.1221835559670748	-0.6691315157208837	0.19426102887221658	-0.5970460161393932	-1.0488566133720942	-1.0986386509813921	0.38146415256510907	0.6378393157113879	-0.006968410202403623	-0.19752268443305823	0.596733330173691	0.4202356327891047	0.09834280585255362	0.3051429383203169
44	-1.9904185483270322	-1.7735289290473553	-2.1264200156884345	-0.35914477615280166	-3.0674030703347754	-2.992999784542401	-2.3360400140910795	-0.8754911400625466	-1.241797086441485	-2.8225171494747814	-2.9164862559117264	-2.0774834103584965	-0.7625334839642228	-0.9013119317186994	-2.634818785690862	-2.9610836431129717	-1.40808534266685	-0.18660503578756507	-0.8713029601033331	-2.048882717681683	-2.1915376131039843	-0.7503747325071888	0.10743813934618786	-0.6639896018430271	-1.113531229068792	-1.1072231503188492	0.3055223516856767	0.5820491895285445	0.015697767918411952	-0.16061212081889675	0.5229678736834478	0.3819471290005047	0.09353321022022265	0.3854719688696876
48	-2.0452744909146694	-1.9759753892601042	-2.1233744567666806	-0.5333952890280622	-3.3012497341730804	-3.257313243271436	-2.5689213211050395	-1.154450771278102	-1.3745621408090443	-3.016466371549804	-3.1279351632300423	-2.2596430721452916	-1.0030049060293627	-1.0415091488291823	-2.7731959749777233	-3.1837239185060593	-1.589345927994123	-0.31833523431514676	-1.0441741916996512	-2.163974994917958	-2.310923332101881	-0.9451252794245486	-0.10498077395875349	-0.8588954188596347	-1.2282584874613844	-1.159888979844389	0.09657788252288792	0.4261968125073305	-0.01786568942625749	-0.14641074799288958	0.3745694151004457	0.2794372730352571	0.037190940137186726	0.4025982012120834
52	-2.0568549581095525	-2.293987983633896	-2.094219917732012	-0.7612762431951497	-3.614952078275467	-3.5753898530335553	-2.868390791326735	-1.4342781269101068	-1.4993319473559081	-3.25680731904786	-3.39362906552859	-2.5196402009291696	-1.2050034969424	-1.1694253653565059	-2.9457666799558426	-3.439503422636279	-1.8626574230850228	-0.5712574705959825	-1.2672108379794942	-2.3209073484951306	-2.499175065406498	-1.22295176674114	-0.4074664403641447	-1.1330015630726735	-1.4060831034446104	-1.2877485719593187	-0.19778379747999877	0.20264013060429625	-0.12692633239171527	-0.2151905143788382	0.17334683195694123	0.11043808581364271	-0.10025546674450272	0.30481398028663204
56	-2.131411070210745	-2.6614677838840777	-2.061440462629836	-1.0032528613510021	-3.956643809819395	-3.91719960177384	-3.1862428107879075	-1.6311591822449392	-1.609179492702349	-3.529346218735131	-3.695164194314406	-2.826354258077154	-1.319516297823632	-1.2702097860691517	-3.149512759839993	-3.6953854467552536	-2.1774949972489357	-0.9543352102980548	-1.4749892912818083	-2.5229167874534895	-2.7575383116719183	-1.5420246085335199	-0.7432776074717016	-1.4116908276202105	-1.6433203178877582	-1.5335444173241564	-0.5469740019339954	-0.059415057151512705	-0.3459795406666315	-0.4659335899510264	-0.11743231088076564	-0.14032871985768677	-0.36454957631577634	0.03998147686162285
60	-2.2999477328406512	-2.9625427648133895	-2.0123090693212635	-1.2104501693682235	-4.230002392579548	-4.211617935991443	-3.4503919991163565	-1.689472790267267	-1.68937539627795	-3.7778170013414454	-3.9817347426021152	-3.1192684094830025	-1.3290926184476475	-1.34669887679553	-3.343945733210791	-3.9121563335828378	-2.473400109722062	-1.402306791579755	-1.6120809275934	-2.744745724423943	-3.0716111582452936	-1.8706008148648945	-1.0481953594446256	-1.6289260346294225	-1.9183702420437878	-1.9357485722306247	-0.9508072709873513	-0.3368031076034045	-0.7109158021144119	-0.9915767287014959	-0.5715392217511245	-0.49210587019653224	-0.7914718369528365	-0.41513922705741924
64	-2.4877831873072083	-3.080816261142585	-1.9122956942914853	-1.3361332382800302	-4.3321952710446805	-4.373171318457095	-3.594207993015951	-1.6022874076443714	-1.722023840371241	-3.9264275928546675	-4.188945282850444	-3.331384173565382	-1.250880238235874	-1.414282795196369	-3.470683089076723	-4.061609734771056	-2.7045867374800467	-1.7801014140008542	-1.6577985244857256	-2.94461821766321	-3.4156501206945498	-2.194508547010668	-1.2651991812234038	-1.754892940858933	-2.198943132570761	-2.501703256012908	-1.4224228823035028	-0.6052947029090336	-1.2335969178525692	-1.8185119582993237	-1.2408971755169382	-0.9490816569208158	-1.3767133916428462	-1.0297287676562272
68	-2.5561807091071773	-2.958832733313357	-1.738572473904899	-1.3513396944260248	-4.205240715853735	-4.3469333538932124	-3.5900392441708857	-1.4139246904914626	-1.6981432395022733	-3.919709195731127	-4.268888939569992	-3.4179325017465265	-1.1268707485358453	-1.4908919296770218	-3.4864287288379945	-4.136812199638561	-2.8531112598864303	-1.9364749144300237	-1.6325135189801063	-3.084930650551753	-3.7565750980900225	-2.506730550159151	-1.3561407293412715	-1.8025330259589902	-2.4527914462151337	-3.1834518829079914	-1.9508691976883594	-0.8296273925816007	-1.876784200698282	-2.8620178627234405	-2.092340702496278	-1.4814931116846992	-2.0586693234919347	-1.711757297962469
72	-2.3931863247530734	-2.636833661097762	-1.512883540148537	-1.2599791256564439	-3.8758170506850838	-4.1482214822940815	-3.4704077156185558	-1.2014239996140958	-1.6290171105264093	-3.758980026291348	-4.217180718264996	-3.3786764059594083	-1.0071923707328405	-1.5872497518519546	-3.3913872156349583	-4.151808728226187	-2.9269885942946345	-1.7812616780131225	-1.587484236523909	-3.150440208110356	-4.057636250741782	-2.788106911295668	-1.3080202308055375	-1.8127911045082254	-2.656139128654611	-3.873084058519743	-2.469524377309972	-0.9606749987189379	-2.5452227528207563	-3.92644309006227	-2.9802958890056277	-2.019652123120473	-2.7256810596313783	-2.3267114103701254
76	-2.0012769648569293	-2.247724765824674	-1.308992024931502	-1.1064952583986898	-3.458864680140497	-3.871453752279962	-3.322315922932149	-1.0443344089844029	-1.550307985206332	-3.513124218654018	-4.080912102886384	-3.2612991250667926	-0.9355091428979236	-1.7043449835662052	-3.235462895807682	-4.131646622716788	-2.946931354711813	-1.3450229133979668	-1.5802272518315377	-3.153288594867691	-4.282123554862506	-2.995041601248672	-1.133597847937501	-1.8273359490988836	-2.795157902336215	-4.425765980036952	-2.8562610077269888	-0.9468622779782074	-3.1019365709189732	-4.758016574290874	-3.678915729771079	-2.466868155926908	-3.246788970379306	-2.737762205841111
80	-1.5290815791625114	-1.9648319433196106	-1.2251751391949381	-0.9689417456958996	-3.1189508359364413	-3.6577234175839837	-3.2541625417565636	-0.9946612094561901	-1.5151442251098703	-3.2944867527753603	-3.941108216825781	-3.1441221157801165	-0.9388405060906542	-1.8383403970081118	-3.0967929285064226	-4.098647584103814	-2.9324033186309393	-0.781537828856427	-1.6436239439474774	-3.121771089301513	-4.397819507939542	-3.067148916130095	-0.8669884779021595	-1.8637824011476734	-2.8603863643907674	-4.70362089876903	-2.9739918633715194	-0.7568495850527921	-3.4060921583010786	-5.12970350877726	-3.9643275637672803	-2.7264079978772235	-3.5108730704358244	-2.848796360452744
84	-1.2164952724260811	-1.9258168887153555	-1.3353804316184177	-0.9343665814651089	-3.003420583771462	-3.6316831020216775	-3.3459808741968637	-1.0598610612813224	-1.574140187103864	-3.2081580081050136	-3.8750409982120675	-3.1019918840291854	-1.023966786660338	-1.9851968238300228	-3.04151677317418	-4.06013297009583	-2.8914682792140267	-0.30327889246663997	-1.7684806540662046	-3.078255645609499	-4.379916656880006	-2.9516029283389345	-0.5546539411846249	-1.906677837326299	-2.8381528782713645	-4.620137202995919	-2.7325816085488928	-0.40060630339568604	-3.356794348824714	-4.918238627414184	-3.706411829173704	-2.7293288638824222	-3.4546372803251204	-2.630473845516285
88	-1.2776409355331169	-2.1706745569737973	-1.6439361530760226	-1.0637185546721568	-3.176998607243742	-3.8380930326834037	-3.606330385639764	-1.206380721861103	-1.748753662462568	-3.2986276066467415	-3.9160973926854363	-3.170751802068474	-1.177508828051246	-2.1390893405313256	-3.0849442404107275	-4.0026492971452585	-2.8189978528375486	-0.08135753104411514	-1.9097403239671265	-3.0183148307889116	-4.21202515492352	-2.632311337500781	-0.24544654724617465	-1.9183195780958566	-2.7055749824879274	-4.164802540754415	-2.1398954337452327	0.06282737835280496	-2.9242174551567337	-4.138817299883743	-2.9249293730321333	-2.450697892677329	-3.068835965991558	-2.1193377918141034
92	-1.7840305521745279	-2.625686162041434	-2.071503872409726	-1.3623653615887394	-3.590344896788522	-4.212263096664863	-3.9601416487845627	-1.3815038169313496	-2.0136234709445318	-3.5225179106469025	-4.032913197825685	-3.328560582340211	-1.370062943814178	-2.2867846431216874	-3.1762692848121117	-3.895118703544677	-2.7023713520486283	-0.16585412579623968	-2.0098619410315433	-2.904596321401951	-3.8863649270164853	-2.1466884558838437	0.01686928975793385	-1.861208195755613	-2.434573167376243	-3.398254147532904	-1.3123917546516173	0.5371872173098093	-2.1560740416450592	-2.9255258963155395	-1.781843061716794	-1.9095514964529547	-2.385957711871544	-1.3943449223600497
96	-2.608131640525086	-3.1405324856622263	-2.4838302072756844	-1.7693501666219926	-4.097007741120893	-4.601333129709655	-4.2752456557099485	-1.5405713280882756	-2.297213787000996	-3.761720647851201	-4.1387114420348885	-3.5022718817978724	-1.5627263744953521	-2.4019565521631816	-3.2155649580832613	-3.6984636690222623	-2.5286614831024377	-0.4718060481557281	-2.0276262708969712	-2.679859631448116	-3.4041998300435274	-1.5772589405292174	0.1972443456438211	-1.7190906958092493	-2.0044105002341497	-2.4233901439517185	-0.43505051622223595	0.9178765989017617	-1.1590840787233743	-1.4735090695371935	-0.5141165839566496	-1.1572275132525978	-1.4632171355498114	-0.5470345602529342
100	-3.4639432342811176	-3.558868876055003	-2.749225609513951	-2.173956150288266	-4.510581005152405	-4.828338134019335	-4.417794693283397	-1.6667913156388634	-2.5045509275145075	-3.8722164533125825	-4.127675999710456	-3.5973973183405406	-1.7173453526053428	-2.447367661972846	-3.09673451595469	-3.3791432295361106	-2.290812963424017	-0.8399603941691293	-1.9557518909667422	-2.295041078495129	-2.778879397051997	-1.021570799155706	0.27034941247394273	-1.5052509269857395	-1.418149586911765	-1.3509187664256839	0.31011858504199225	1.125679609317661	-0.06684822572281457	0.02310243801900254	0.6560955031042602	-0.2640944414623608	-0.3751354506081261	0.33853080783250195
104	-4.032410134625051	-3.784370174390086	-2.7939147878679185	-2.4548857150086745	-4.675212848303644	-4.768310534836173	-4.3108844648240705	-1.7727079346722918	-2.554761403309369	-3.745879163821373	-3.9220406910102747	-3.5392479807187986	-1.8089452936277375	-2.388073676755728	-2.7567272116678625	-2.9230980799306776	-1.9928073832743092	-1.1315493555110325	-1.8164900495443577	-1.7398577884615904	-2.042409176438261	-0.5572895989652935	0.2209463113928478	-1.25428461711827	-0.7157368641902526	-0.2786602072832823	0.8095828274314026	1.1298866243445762	0.9897326802060907	1.4065741265070302	1.587733383938441	0.6867694241350619	0.7803258876172688	1.187785503249604
108	-4.107711304784055	-3.808500518720032	-2.626541846319669	-2.5243508752031647	-4.518029201544733	-4.398907173494657	-3.967077722070273	-1.8818647813968195	-2.4147880016394523	-3.3551788245368	-3.5065567404906672	-3.3053202545638043	-1.8337728930905055	-2.2088823262712527	-2.206820482404388	-2.34552335146948	-1.6533366399983946	-1.3013737168834145	-1.6414885479491457	-1.0602012845928415	-1.2521201340533612	-0.2212287032979194	0.04442165035714925	-1.0049428914446967	0.023689053892884827	0.7080939394239351	1.044749734148149	0.9507782435254191	1.898015136695094	2.5545945103044194	2.234476083836029	1.5985313613586887	1.8720774603308319	1.9246076296852055
112	-3.68961619399272	-3.6888036634771932	-2.322635883189253	-2.3576588571151107	-4.064443577995102	-3.803110589915891	-3.480187168871453	-2.0049979636115727	-2.113713735965876	-2.7621955801843296	-2.9355268404278627	-2.935179464558989	-1.8113863422437058	-1.9275300454111643	-1.533323760929755	-1.6950707392811488	-1.3085640635830953	-1.410883184685543	-1.4505829774472492	-0.3549580565073815	-0.49314278239674936	-0.014545824342004191	-0.2532629662318341	-0.7863280753309966	0.6913748962112943	1.5214865169258278	1.06667208402261	0.6400524361663106	2.5630469257493877	3.3570845042347477	2.605606310941618	2.3585016667901066	2.737889282943451	2.460375779615785
116	-2.976829044455665	-3.4956974894957455	-1.980467195279037	-1.9953976819204182	-3.415618649442188	-3.1264045159560747	-2.981674425226512	-2.1259219592779486	-1.729894395275381	-2.0903580135974753	-2.31124925029869	-2.515147202817344	-1.7779550507479114	-1.594328280238319	-0.8679823853512797	-1.050344464511221	-1.013031241720296	-1.5737134178483498	-1.2452075449976328	0.24835650560140707	0.1290924545843512	0.06974872184071278	-0.6568551643000047	-0.6149300917358724	1.1696027487789096	2.0598900266138527	0.9362627244199163	0.24958294567037023	2.901935093228738	3.7007434274698756	2.706095450244792	2.8468184399255114	3.2117509760830028	2.6993255547082957
120	-2.2652754726437663	-3.2627661145803004	-1.6737151103677814	-1.5208822450386204	-2.7046713760754137	-2.512868398044045	-2.583647721443225	-2.2056586686713593	-1.3566795553286808	-1.4751844368883102	-1.745773072603455	-2.1453149264531075	-1.7718534424869492	-1.275705453512857	-0.34202876600695903	-0.507263599545546	-0.8344881513507616	-1.8721380186497707	-1.021008727356893	0.6305469854647541	0.508442042974425	0.015984261368091838	-1.145977494207515	-0.502765475434283	1.3582147325556397	2.2169532719906218	0.6668570024819973	-0.19617135773244473	2.845767490831485	3.483519545343142	2.497107737912328	2.960351221239821	3.1729442993163564	2.5635135109075113
124	-1.8047728492947048	-2.9714941903431575	-1.4279769622989407	-1.027348396568487	-2.054863686141924	-2.054562563477279	-2.339850658231239	-2.2052230779284407	-1.0645352575128073	-1.019365188886006	-1.3263907399068005	-1.906698818161207	-1.8194816066580817	-1.0304822895735752	-0.04543879989238293	-0.160571604561713	-0.84248447205506	-2.3035077990548074	-0.791913507369507	0.714919863326379	0.5639281258650367	-0.22832886817028253	-1.7036093430422448	-0.46897366524547496	1.1988149851095746	1.9120384406452844	0.20227840491722887	-0.7128273230675326	2.354643577352826	2.657258980717824	1.9014980744991057	2.645435326572871	2.596069329383055	2.0251548239122443
128	-1.6871441560110614	-2.579407685443188	-1.2293497292951772	-0.5905368909231307	-1.5549532135805293	-1.775787349032193	-2.2410855236691956	-2.114930862809117	-0.8779482819325636	-0.7705838660811961	-1.0984214516563788	-1.841341610074265	-1.9276046704262348	-0.8902369715148799	-0.007008353696205459	-0.08233130702451334	-1.0907262536167253	-2.7888569761436273	-0.6062197073889675	0.4866568731895682	0.26356205277657113	-0.7374120932080986	-2.3233654440394615	-0.5431172237988964	0.6906443816867716	1.1301578254776194	-0.5553718791291319	-1.3470905985200048	1.4427458011440992	1.2765020099836242	0.8530070760171405	1.9259042691243755	1.5769786794901912	1.1305736274785227
132	-1.822890038656312	-2.0747458882401637	-1.0513328287283912	-0.2574701302703606	-1.253419992143341	-1.6514793592718828	-2.242319339812931	-1.9707323263003191	-0.7764661292499386	-0.7246226054016439	-1.0665787431491276	-1.9503730486265016	-2.085820431211471	-0.8529160001201537	-0.19738638351196222	-0.3012799911044992	-1.5980110128111131	-3.2326242842120654	-0.5387652502762537	-0.005705195464690748	-0.3615778675487125	-1.566626544811738	-3.009236328156803	-0.7530035953583701	-0.10366952393106967	-0.04899887355711974	-1.6819034772370614	-2.1489670222385646	0.2020332212115643	-0.4767487931135705	-0.6379137023078798	0.9132840014287682	0.3194846800844157	0.0031549110928990255
136	-2.010941023517833	-1.520395751929192	-0.8819771982813394	-0.05073234053558465	-1.1636481255715925	-1.6419725376635	-2.3027858675991104	-1.8452371312283702	-0.7194269281343357	-0.8450038411740655	-1.2082604139339939	-2.20685672202832	-2.278521055190891	-0.8936918355312732	-0.5491564259969361	-0.7905150631973176	-2.335762018028549	-3.591963997355113	-0.6547967775025283	-0.6657553894400399	-1.2199784486486713	-2.706677668413488	-3.7653183842007603	-1.1007610531671956	-1.0654994222442598	-1.4521679841571147	-3.1651654163556495	-3.1366367260895425	-1.1924157112533558	-2.315116638060532	-2.4402151046178577	-0.2092114532672249	-0.9163590050449669	-1.180567738413396
140	-2.058699841069983	-1.05340671273347	-0.7361634355078516	0.022434305343015118	-1.2707359758719003	-1.7208995775643259	-2.414050572976153	-1.8160786582871566	-0.6768119318086702	-1.0846887799533798	-1.4876710138907814	-2.5728561813245974	-2.4977240499377493	-0.9834659074748731	-0.9822975372309357	-1.4690947495562732	-3.2277426638172857	-3.905193557416335	-0.9673368310347296	-1.374872204170383	-2.1794869844723	-4.057718266732786	-4.579185951115669	-1.5422745904130768	-2.0410268255201203	-2.8491792606898145	-4.873076426600473	-4.270208824820566	-2.5061421331074136	-3.913481702460717	-4.308814991562694	-1.226601955177969	-1.885730977065769	-2.233192915046544
144	-1.8892668437942077	-0.833119747919463	-0.6483523233256837	-0.034602902742283136	-1.5359762868248525	-1.8813954544250429	-2.599909060589791	-1.9272652815797406	-0.6481924636687997	-1.3989304268803326	-1.8629941893271535	-3.010575286893657	-2.7469775607372777	-1.1027108403021655	-1.424334164838045	-2.21873640453922	-4.163695324875864	-4.258326519705302	-1.413012024172966	-2.0190331884906882	-3.097235433388118	-5.439510808562698	-5.406861291585804	-1.984231943842835	-2.871414892576424	-4.012201775911424	-6.573258383367497	-5.4461378913706735	-3.4948985488391933	-4.996241556904746	-5.942181095379515	-1.9421207855781837	-2.421054595556736	-3.000190965707106
148	-1.578055139372117	-0.9635753607263857	-0.6548593623793844	-0.20643845148417936	-1.9022586297645194	-2.12337922513825	-2.891676895470214	-2.1642997210218744	-0.6616067869648573	-1.748461122866749	-2.2877924384530055	-3.485094776891289	-3.033442489594712	-1.2447102038428826	-1.8214734746721566	-2.9130327628021595	-5.023927199077278	-4.711328017737609	-1.8630493832280761	-2.5109188493276537	-3.85096334438797	-6.637714846064867	-6.1693601452515	-2.3060038031531196	-3.426453581742103	-4.7753324388101435	-7.996954420880187	-6.5165433719140085	-3.965843905926538	-5.4096269470964	-7.068259221351139	-2.2212939206307856	-2.4635703501491015	-3.391646853466944
152	-1.3053593602601927	-1.4330712520657418	-0.7784638981238315	-0.46124377730264976	-2.304844850443033	-2.436327451276843	-3.29680203559117	-2.4590742525957556	-0.7531549911557174	-2.0987033791006975	-2.7126533916650026	-3.9612903494957736	-3.3520178710230524	-1.4070073330641641	-2.1421101039209156	-3.4505126389170773	-5.70690439690737	-5.234369264738589	-2.170898908856165	-2.8036250997330505	-4.362789619874907	-7.468491535404126	-6.76870439727834	-2.400354617734243	-3.633421411877518	-5.072550283976489	-8.920504547485216	-7.329576950641326	-3.829358329641492	-5.152126299247991	-7.523766498643476	-2.0184812494814612	-2.059303755329322	-3.394229403509252
156	-1.2550036875510249	-2.10563277666621	-1.0235958073521925	-0.7522425036511547	-2.68715595520594	-2.791648380860701	-3.780594577780966	-2.7238547733200713	-0.9415494775842114	-2.420623057929652	-3.0909242551966547	-4.400238979674156	-3.6726043131610373	-1.5804971416623994	-2.3750691353914664	-3.7794389629309784	-6.1499981724915465	-5.701281056314878	-2.2327372971430317	-2.8935563491245264	-4.608874786184755	-7.833708743344345	-7.119481545593152	-2.2146573010796704	-3.4914400489394777	-4.940984713477361	-9.229957557263004	-7.776269893086533	-3.1215910832747458	-4.354843128653515	-7.2945127303013875	-1.3802381719073844	-1.3279813494532606	-3.06410502613839
160	-1.5169500074234263	-2.774301998763383	-1.3779404128570945	-1.0299530003293063	-3.015486232773592	-3.149306766188169	-4.271475304309556	-2.895118706069434	-1.2121400802526288	-2.6946203640616058	-3.3877942476569687	-4.759435641670104	-3.9404463668518663	-1.744389648801711	-2.5250124867585013	-3.904630412733919	-6.336551173424354	-5.95013187813532	-2.030574793457276	-2.8128833699733473	-4.6137475850921295	-7.7432694239620865	-7.181830388056587	-1.772995348268673	-3.0656890791739415	-4.491775978191827	-8.943793274233057	-7.824888686451331	-1.9891911694849163	-3.225424043141377	-6.503947718411874	-0.42752665173355675	-0.42245834959181194	-2.507735722886105
164	-2.0458712526166543	-3.2519941247851096	-1.8140132381416145	-1.2609562842004247	-3.2845179951711345	-3.472757807546827	-4.686701762764383	-2.963943950799232	-1.5199387035142082	-2.914556734355929	-3.588020554066729	-4.9983477466272115	-4.094766606482997	-1.8716864538620925	-2.6068267756449575	-3.8740804097592925	-6.2892856439111195	-5.876698002283125	-1.6350916582787118	-2.615354054523575	-4.433984268437834	-7.297975998572673	-6.979702455064713	-1.1687028378543627	-2.4643468794592747	-3.864597072380892	-8.190794924083415	-7.529294471804568	-0.643149255082442	-1.9824724147335078	-5.360433564957417	0.6757057888137212	0.5066333400332822	-1.8549179983990576
168	-2.6910188130147907	-3.4533598335815197	-2.2846167029873903	-1.440998192963697	-3.5068852812918396	-3.73861764917601	-4.962161051619697	-2.975547544596229	-1.8083269550443988	-3.0849523466423965	-3.69506024381418	-5.086553083928928	-4.096438874392594	-1.9421684692938836	-2.6372778349095065	-3.751321306294205	-6.054825290651756	-5.502177224572693	-1.1681128710818653	-2.35780357719226	-4.137203682944457	-6.643323881542649	-6.5932874513100925	-0.5297564850783565	-1.804522390577991	-3.184468738145292	-7.1575417337905165	-7.006937962961038	0.7020862680829019	-0.8036776164744797	-4.087582577875647	1.760203237857855	1.3351942267086094	-1.2292635409790496
172	-3.2731861985536264	-3.4228682431586255	-2.71708726196936	-1.5895806510846562	-3.6901581194216497	-3.9319417377382067	-5.067370401940006	-2.9955274983116538	-2.0292341657903723	-3.209505311492115	-3.719262113717676	-5.008470045795991	-3.947370996045809	-1.9503601740232626	-2.625407927560325	-3.5854279904441246	-5.685047612141996	-4.967277514314299	-0.7464657407033984	-2.082673305975276	-3.7822034263486812	-5.914703831044592	-6.125879272253369	0.027853282098184797	-1.17883979976572	-2.534438126840905	-6.028119548836858	-6.394174082824768	1.8834053230417946	0.20054487833411933	-2.864246361176676	2.6880271366917774	1.980366105801753	-0.7204711419035194
176	-3.662082186036114	-3.2964243805628266	-3.0210935993213246	-1.7309316353011435	-3.8183708094513373	-4.034485329932312	-5.002788054233188	-3.065174810300118	-2.1567628329183446	-3.279834023777931	-3.6647248175602036	-4.765409934410147	-3.6925589945071406	-1.9054626178316865	-2.567972415162611	-3.39436792470336	-5.224253164452851	-4.4541296846467375	-0.4361152041868483	-1.8095856859295874	-3.4081735524913803	-5.199141012416644	-5.6617255067931636	0.43691968807535064	-0.636342404666278	-1.9514849136673347	-4.939815985605556	-5.798639759682351	2.818789951837097	0.9867698525310761	-1.7940813257697574	3.379674664547586	2.4080831943748864	-0.36465492752515083
180	-3.8196487330320954	-3.220147124743445	-3.1138536851466982	-1.8724291277341187	-3.8529364965436326	-4.019581784590301	-4.787372100187217	-3.173060170745507	-2.18851279659856	-3.274002543766409	-3.525518885294477	-4.377200115596581	-3.400060883520774	-1.8234609319425295	-2.453522199158235	-3.169304601296981	-4.70658444169978	-4.085236539063211	-0.24365183649535765	-1.5386258324877187	-3.0359420699717017	-4.527548778547065	-5.236587988030107	0.6901123506288497	-0.18338993145417548	-1.4416794740517596	-3.966837157724567	-5.2689356670866205	3.504929772110986	1.5605839451489545	-0.9092747546127187	3.824132909656516	2.633111947087383	-0.13995081150960373
184	-3.7914802932381013	-3.272112838113221	-2.9577457830139773	-1.9948265502156224	-3.7555253410888887	-3.8633274934503814	-4.448694217894103	-3.2596251882271465	-2.1384961551080184	-3.169817916496491	-3.29671620490291	-3.88391064616941	-3.128578893391991	-1.7177451805614867	-2.275343412376648	-2.896794073420551	-4.162013997060284	-3.8608961007868423	-0.14045810664000627	-1.2640479771171182	-2.679136984736684	-3.8951284787063956	-4.835574137876798	0.8248410800135764	0.1981467599634421	-1.004183289853597	-3.1307845036616913	-4.793836104687498	3.9884478945169293	1.9518550585104553	-0.1983367795705063	4.068329323987489	2.7088234356199847	0.01752647753105202
188	-3.6620895770120474	-3.4308385762378677	-2.5915641719237263	-2.0647549577081374	-3.522490015673218	-3.570527544543634	-4.025336255400968	-3.2554862417043933	-2.030479426025876	-2.9682259484690845	-2.995607845372608	-3.3475580130936384	-2.9033625052582153	-1.597308989306721	-2.047410721378026	-2.5858597690145446	-3.625873794937956	-3.674358835480216	-0.0992486101863377	-0.9913967822793734	-2.3584904611169173	-3.2949197209139154	-4.41912888364868	0.8933780170773231	0.5258198367194601	-0.6510694010509099	-2.426345819069378	-4.3291745076550905	4.326393116518314	2.192080969044385	0.35913062004970325	4.1891598595710935	2.7059531143534277	0.17986544921286032
192	-3.507672301019467	-3.60505818410489	-2.133311027862809	-2.063516373192832	-3.2088029303598553	-3.1988184371294484	-3.5769739060691066	-3.1282081525024243	-1.8955067348306995	-2.712037556476738	-2.6779234341721208	-2.848511927088594	-2.7121701172063837	-1.4728776179320373	-1.8130340530397167	-2.2827670516553904	-3.143344394377051	-3.397585621838791	-0.11854625463357989	-0.7479000072670074	-2.1099700874462752	-2.743391983735222	-3.9607882399694536	0.9346358752495242	0.7978169301870914	-0.4137401868387835	-1.845713372338923	-3.8357031248525235	4.554227817481173	2.29992246047133	0.7681760172522839	4.257977951743536	2.6853468350322847	0.3887913813311708
196	-3.37253283602863	-3.7008867170355537	-1.746929760337046	-2.0135836550419226	-2.922082655204848	-2.8599054741179337	-3.1886281886657963	-2.9101991579966917	-1.7736588671726377	-2.484951489850368	-2.434154742770976	-2.472071164565505	-2.5260233815313398	-1.3671613897138377	-1.6385060507414047	-2.063145155466108	-2.7643711497131385	-2.9833288117427212	-0.2188980871872799	-0.5795974120765437	-1.9810442874482952	-2.2846944274439815	-3.474658718873204	0.959958491285902	0.9892149542628789	-0.33390802060700603	-1.3918797934676528	-3.3084955131922618	4.674227702737284	2.2773363532743263	1.0135500405471112	4.312199104865917	2.6757318905985525	0.631226478413478
200	-3.275684586837724	-3.684720030064652	-1.580594297233138	-1.9812172601269966	-2.7827916075065975	-2.6866643360970737	-2.955634109664206	-2.688395731814138	-1.7124570564903654	-2.384258502662577	-2.3603825509558902	-2.2854404391761065	-2.329884284812798	-1.3179899420840775	-1.5900696475891587	-2.002630228708493	-2.5296997960118035	-2.513891690582965	-0.4149143685355718	-0.5334967361332138	-2.013636107129192	-1.971888537196753	-3.015443555848041	0.9588183736435169	1.0661917897962225	-0.4424475420271534	-1.0763469907288352	-2.78247498763435	4.668170917169079	2.1177744811948815	1.074360844760644	4.348220337379953	2.6690103940334913	0.8439462163598412
204	-3.2309033789124553	-3.6031529812441	-1.7036182837389384	-2.046640390950894	-2.866847984705264	-2.7747304369489467	-2.946443073463046	-2.5570020611101083	-1.7541707709846577	-2.476205581135267	-2.51303290686321	-2.310365432628192	-2.140041584333853	-1.364708777796812	-1.7028326945227823	-2.1391768401496347	-2.4523265299870594	-2.159991735726965	-0.6843711120492897	-0.6322808249722479	-2.219880098460283	-1.8355252696424775	-2.6492695741523016	0.9174461937629251	1.0100079749356317	-0.735923586417881	-0.9047393775985652	-2.3120527209082335	4.52475928117862	1.8231351329550096	0.9487448310740404	4.338290203585444	2.636468642254079	0.9476848220740312
208	-3.258312932371085	-3.5471529871075322	-2.076576704504462	-2.2554762306488536	-3.161708346967405	-3.1275749127579293	-3.1601896206223623	-2.561342709750272	-1.9163496445910035	-2.7565238406204022	-2.8710915969839785	-2.5043404039096924	-1.996688003267258	-1.5248920879011163	-1.956464762516456	-2.4465484557371213	-2.5036156114310533	-2.072858566772761	-0.9557945704170508	-0.8535796382334073	-2.5630307132860497	-1.8578799916090476	-2.4131483970751106	0.8387795665544654	0.8386061766432515	-1.1622211903792723	-0.8606751539434897	-1.9386289070774785	4.266368378358094	1.4223905765861162	0.6738671643409768	4.262059677807449	2.558140986659601	0.8956322051323923
212	-3.3756692324287925	-3.586026659494737	-2.5716767246167596	-2.579449647113004	-3.5622801690761756	-3.6382923034362653	-3.5062568099189146	-2.6663901738557807	-2.1744937841827827	-3.1400403897162033	-3.3296480094767475	-2.7642619540041857	-1.935345525623671	-1.772852058702995	-2.2726845683892205	-2.834168903824636	-2.613096945840919	-2.2752902450336427	-1.1289620370971547	-1.1265999050306696	-2.9553356096039245	-1.9680442760370251	-2.287755960410495	0.751518188009673	0.6130304917116767	-1.6242424208640869	-0.8986228085718022	-1.665424819556193	3.959170808332912	0.9813790892619105	0.3292388311656696	4.134221066527427	2.4481198725880122	0.710423646563744
216	-3.5787413029915243	-3.717336406859135	-3.031857244466268	-2.915058605463671	-3.914418449055642	-4.126123894764423	-3.827404966227845	-2.770958178199926	-2.4601321158285585	-3.4904715926736123	-3.735637416944765	-2.9586093351053027	-1.9553683946832254	-2.0361216016860695	-2.5400624211077107	-3.177094451512299	-2.688062661059974	-2.6239221029791153	-1.1201328010888676	-1.3515140976161972	-3.279687157933575	-2.0648159928642333	-2.2029571477583803	0.7026267630003604	0.42273932588657376	-2.0046129176072958	-0.9537022089721383	-1.456278320450448	3.6983635332192923	0.5938007816581458	0.017444638491336886	4.009863843330657	2.3580124318670257	0.4861330973749268
220	-3.827118863933645	-3.864372720498524	-3.3407101546819726	-3.127295724602506	-4.085963238890478	-4.41472576934095	-3.9633946318696114	-2.762754433332333	-2.6818282536507874	-3.6788453962904217	-3.9518651862505267	-2.977920524708036	-2.0088417479341434	-2.218443388106244	-2.6571090154319474	-3.3632857714615225	-2.6466185979779646	-2.8747286723989904	-0.9062939263350273	-1.435296055031011	-3.428590527461195	-2.057354206612931	-2.0749616570537057	0.7381598334749181	0.354718594847601	-2.203052753608359	-0.9648535823303668	-1.2586548296621678	3.5741200356844662	0.35360130578410714	-0.17062833862140517	3.9625179667564683	2.354329103247785	0.34998115808816904
224	-4.053521622914035	-3.9261150260982545	-3.4668331058711113	-3.1198902051357296	-4.030071725207127	-4.415400017080946	-3.828194846978414	-2.5840372974004935	-2.7628636290412856	-3.643320074419665	-3.9189958473442563	-2.782548182137949	-2.0213019796836904	-2.2404890003857894	-2.575086110289304	-3.3368537341747415	-2.4508895812144424	-2.8195772099833025	-0.5416213856373897	-1.3293657269293186	-3.3447487269831777	-1.9042252254092735	-1.8555804444194188	0.881829795995182	0.4589737940167549	-2.1715185587416856	-0.9006981826929967	-1.0376846764114702	3.6339492706103163	0.3185095480983523	-0.19118547391305504	4.044972409526196	2.480268710550057	0.39983150262020695
228	-4.196774472131214	-3.8482000730631594	-3.4594309242644337	-2.893632166232489	-3.8057522677656666	-4.170145501098592	-3.4591348083899374	-2.2694754543226154	-2.6765017441885277	-3.417904129935685	-3.682201853038539	-2.4222352443574664	-1.9345245312486075	-2.077436441898532	-2.318362945425383	-3.1161138932708745	-2.1236336177615094	-2.4125368534212592	-0.13714690471832017	-1.0498063537795475	-3.0432286185678072	-1.6300646025510475	-1.5638847311589925	1.1220123739524694	0.7279629092910681	-1.9304519842999663	-0.7727550248663029	-0.7997658232523919	3.861164560106233	0.4830631601535212	-0.06606572104701769	4.255306709990026	2.724137060917015	0.649383722096273
232	-4.236293305191839	-3.667307844439668	-3.403024903288681	-2.5552744800903002	-3.5426392465793772	-3.828770389426912	-3.0069448871988436	-1.932500476726435	-2.4595994887241903	-3.1127495687096665	-3.3661241446385604	-2.0154781290666803	-1.7441391900849972	-1.7727811291758913	-1.9708212564300995	-2.7781870295000344	-1.7389997199975704	-1.806714649407295	0.18938127112258152	-0.6689886433877178	-2.6027877265065955	-1.3103756871518244	-1.2792087761053303	1.41538703084269	1.1011968823286928	-1.557088132741704	-0.6267451032073547	-0.589997826517143	4.181991089752767	0.777355609361676	0.126899599708601	4.529771793372996	3.015093080537646	1.0125713322823704
236	-4.205410469881627	-3.4980535418884786	-3.358541480167959	-2.2677860202753672	-3.369092694359459	-3.56925534300876	-2.6647310189680016	-1.7050250725613754	-2.19495796603114	-2.8555722164537034	-3.1092421930013585	-1.6945179658068974	-1.5068911275965275	-1.4179660046063203	-1.6347184139940707	-2.4182307659129867	-1.3883029187437124	-1.2732822862902762	0.3689190736039388	-0.2821897261170682	-2.1290619319567887	-1.0305874321666937	-1.0964963408442838	1.7046184496757444	1.4928436241606198	-1.1499947280459444	-0.5140932785406013	-0.46369850518455946	4.498336303797822	1.095130202389481	0.2892292432635255	4.768425929428167	3.2507142938557236	1.3379118408756374
240	-4.166838635414802	-3.464330902889758	-3.325446835705006	-2.165945286050679	-3.3404242908063515	-3.50089930604145	-2.568175070954336	-1.6631127553911929	-1.9686322162516052	-2.7229165962136754	-2.9897270127153366	-1.5399208029968394	-1.3073658910168453	-1.1064641447741956	-1.3804503644422492	-2.1021192020748614	-1.1348578901248716	-1.043333289373283	0.41290742054640667	0.03676931923285189	-1.7054039196826114	-0.8387526848597395	-1.0665748092425822	1.9426032255717778	1.8308725310830576	-0.7849999646394645	-0.4566431928072766	-0.44761189705371124	4.731144416308182	1.3401738371391525	0.34791237028020555	4.882010924411168	3.3440370475263563	1.4781312905185655
244	-4.16386269471797	-3.6147174743942236	-3.245603791625584	-2.2802369537003524	-3.404880276666565	-3.601583471741837	-2.719125025559796	-1.7802092984076252	-1.8243679954244312	-2.6969208649255485	-2.9810385628776537	-1.5376595219890599	-1.202715393844539	-0.8869925118940125	-1.2117427556915592	-1.8354393197449286	-0.9794574951238483	-1.163979646604996	0.40414568679815743	0.2698229544502933	-1.3547779287465678	-0.7157991510438856	-1.1554764480028075	2.11190318528075	2.0890853352254446	-0.4828024494379319	-0.4237973083286658	-0.5134461509139087	4.853435504103675	1.4691437445741549	0.2915794245987631	4.835567938993757	3.2653961099197297	1.3610436881988268
248	-4.177947033824256	-3.8750955960665436	-3.044345132770921	-2.5120646890159226	-3.4261929902358026	-3.723624220029905	-2.9745387955905973	-1.9354492377053183	-1.740507479088002	-2.671298020294195	-2.9616527482598505	-1.5814539154179184	-1.1796294420977107	-0.7420694809297994	-1.0642231675935514	-1.5639415939899646	-0.8553353526454786	-1.4559702836470265	0.45204791312527504	0.4615009415418839	-1.0326145861303866	-0.5805808887128546	-1.2490212885793124	2.2295432034468723	2.295989746018979	-0.20469433017548774	-0.33824390087559997	-0.581525026283713	4.896720873867437	1.508439298636015	0.17780061021260327	4.664705264712009	3.0563785952649534	1.0266867850131507
252	-4.1199712649276625	-4.069410790659563	-2.684170239347389	-2.678538315686071	-3.251195899384293	-3.6670088675422297	-3.1117546479815874	-1.9737093398807546	-1.6436840254292593	-2.5052258905102396	-2.7753276754880885	-1.5218191108428347	-1.1515984506142218	-0.603387473490326	-0.8399370887530809	-1.2054769962393002	-0.6580782516077077	-1.606850262399697	0.637914298354326	0.6927907449397143	-0.6561655385616946	-0.329889475466395	-1.2057918279722089	2.3343062341882304	2.5142803128659197	0.119998745317283	-0.11193612189641983	-0.5563688860197726	4.927326189952275	1.5344780644775609	0.10571721169483592	4.454590309340399	2.8073625493696106	0.6093311294430321
256	-3.870079269174912	-4.003355969811931	-2.1963839475491462	-2.603375666721176	-2.7869856287209838	-3.2817029870147896	-2.938636533947233	-1.7867671206185465	-1.4514580928396321	-2.096919292877785	-2.311277145272374	-1.2388942210389629	-1.0047217582131382	-0.3958059241315302	-0.46041324618444635	-0.6975711566479208	-0.2986013583750561	-1.3519483770569343	0.9730766987074632	1.0349119875528088	-0.15591733118269394	0.1053792608103933	-0.9320449209523243	2.4613552031362613	2.8014867235024874	0.5487037883256547	0.30366751474959436	-0.37662237787526126	5.0056609981041085	1.6276080567274767	0.166024416265933	4.292900074610688	2.6113212042682536	0.27396643092603806
260	-3.3480069552769534	-3.5678486733956123	-1.6728846984588672	-2.2051837388629885	-2.048319811417845	-2.5459229881858096	-2.3909916817379844	-1.3690401281124147	-1.119680044208297	-1.438859339895977	-1.5633350571262616	-0.7024462205317916	-0.6662703735695991	-0.08340068140430931	0.0886327547577416	-0.03673832854293723	0.24746330019938056	-0.6376830323331814	1.3905988896546637	1.5070544443227998	0.4780127692074862	0.7171275597586408	-0.4374420631808433	2.618482344692068	3.173591367338404	1.0866827937346613	0.8804349281016699	-0.05115263523657657	5.151837812768006	1.825644846121586	0.39381664891949636	4.224078644578147	2.5198659833230086	0.1410521414294992
264	-2.5715763503952114	-2.8043754029995887	-1.2236430614094995	-1.5388075074445353	-1.15362000174132	-1.5815118511324937	-1.567801829194452	-0.8214758017780542	-0.6707339269869795	-0.6278241856936438	-0.6397778375685236	0.009831701380523734	-0.15675902327060334	0.3064827017198732	0.7425518613187487	0.7086755019415403	0.91831463343511	0.32710018671420577	1.7757538512219138	2.0586855359552727	1.1779817313016998	1.4123169148073504	0.15927261073908014	2.7770757605056478	3.5893983750318785	1.6739669995959663	1.5112144908897505	0.33870074067432754	5.334709154011623	2.1007027572999952	0.7470592241499285	4.229083527378011	2.5232922967146263	0.23508493542922607
268	-1.6684499936894852	-1.8953226756880979	-0.9233050919109747	-0.7695913295389023	-0.274602144263285	-0.6003788098435947	-0.6870177966892139	-0.3036130361044072	-0.18781727504994636	0.17473939017047402	0.27981027890131976	0.743963835745268	0.4069032956817286	0.6926583034193577	1.3812602723534124	1.4190344774658663	1.5842491348322478	1.167515274914856	2.0196766802340584	2.5870342189322337	1.8200670434775874	2.0463504739594383	0.680884836385179	2.8835046218549825	3.9660255808833544	2.2060973588557986	2.0474014230534645	0.6737891418611628	5.489875302759271	2.3720152318194647	1.1223040790832637	4.241188515445593	2.5637054378632036	0.48096394417447674
272	-0.8330519774385245	-1.082234737524883	-0.7749125937924352	-0.0948197019686454	0.4350503076059798	0.1906270379975643	0.017643978774704295	0.045445691679417685	0.22339564505441895	0.8127200582965899	1.0206897232988608	1.3385753597796017	0.865668056209784	0.9809511875181484	1.8809680891230824	1.9707946727585968	2.102465147432264	1.5414575299445585	2.0692818112581097	2.9833509846705217	2.2776160182669063	2.4856903490251385	0.9764986609600235	2.8876979278136337	4.219582070187644	2.580895655791604	2.363948100797352	0.8544501640681541	5.557328210151224	2.549543612718905	1.4029984438759824	4.1889366997816175	2.572915309132065	0.748915789620705
276	-0.24486727950738754	-0.5539172873817056	-0.7114478927769784	0.34484046610552727	0.8968034363992716	0.6771532280037924	0.4039280106359873	0.1717309202388378	0.4837358581727578	1.2002660005783232	1.483814116546393	1.695110435974469	1.1009221049169722	1.1117144795006249	2.1683185045810642	2.2881004752564267	2.38118481034856	1.3306246962330859	1.950958723864586	3.184147588320053	2.4799964365334106	2.6685705117561596	0.9962348316789322	2.773692124039581	4.308661449998141	2.7470319201731757	2.4194664894053504	0.8501487948887979	5.516565308947988	2.5831034118285103	1.5160633287299863	4.040424813559894	2.511759513235443	0.9204211807854433
280	0.009060250572337048	-0.36444160250203833	-0.6343294366080058	0.5185301886818344	1.1246985168671353	0.8744706489419236	0.47793096183273853	0.12472188441258554	0.5749051556377374	1.3504819835898725	1.6783472257201613	1.8149696542692657	1.0984113188667926	1.0886133881740618	2.250750536004413	2.3746316372999194	2.421496385182696	0.7153717261372804	1.7564754441737243	3.2016067424050014	2.4469039378376642	2.6332580976760034	0.8156672099500681	2.5752010280441406	4.2573575866022795	2.729129545950797	2.2790915908492404	0.7147273403242406	5.39954899378322	2.4896368917550427	1.4673167430071123	3.8237690829057254	2.3897061287627146	0.941492972381107
284	-0.03399610883355017	-0.4226874996480724	-0.46499809505363854	0.5002235757596094	1.2015980451764006	0.9021937228312802	0.3767999699139212	0.02633216970471212	0.543836473045585	1.3583258356132204	1.7052948431829478	1.7895265772461009	0.9573193168312005	0.9759256219065996	2.2103908006174198	2.312315935018897	2.317765706886241	0.08645790048466813	1.5973845679961054	3.1190912644791777	2.282372707326552	2.501039975527522	0.5970274194902703	2.3662142693859907	4.1464590921618125	2.6175711088850426	2.0875892586453593	0.5600971565410603	5.275427328142008	2.3449633062285846	1.3383984531943551	3.6131155399652846	2.2563662472023926	0.8388680198470887
288	-0.23763540327156454	-0.5519409761798778	-0.184848278294213	0.4156221140858479	1.2315875260729745	0.9151118374608355	0.29085561559676065	0.008396402911504616	0.4761231529612652	1.3493869270588237	1.7037947134870282	1.7502206519760761	0.8379697778525914	0.8661487676686839	2.164515489835417	2.2262358609259256	2.2147691193929866	-0.1601905073651425	1.5525572260758973	3.0526206416306425	2.1299884265528384	2.420962327566857	0.5074489699903294	2.22937034997746	4.0759448902219235	2.527267211255372	2.0038645216893856	0.5012543188791079	5.214867578691635	2.2440636101332343	1.245569941236952	3.4884626777311745	2.171074384929941	0.6931226832056304
292	-0.4330626417193508	-0.5854828938960959	0.1569657023758402	0.3750798990793357	1.293849345755256	1.0279397938524555	0.3686594953765973	0.15136572680404128	0.45492523793757533	1.4213470184680232	1.7877678826017984	1.8056037380407761	0.8767549969471731	0.8372817614396861	2.211945051330659	2.2312927189759026	2.2424049320826125	0.1671537007641576	1.6335421759370428	3.096865169335708	2.1107497161979687	2.5031216081364023	0.6360442026292197	2.2179324570925196	4.1172003642083395	2.545537465344376	2.1282181686074786	0.600384174261611	5.252644525617742	2.2512576523208816	1.2802951303582637	3.491509905582978	2.16835569787931	0.5879006370960158
296	-0.49451234811861805	-0.4464089263135691	0.4727253007874556	0.4270196546263773	1.4179658853970312	1.2712749210685987	0.653763769406534	0.45250362043575476	0.5248453007798429	1.6065238673657312	2.0027625510195604	1.997333640777835	1.1154979439228352	0.9197801328325025	2.3922586380641313	2.385630363163264	2.460665935025819	0.9554427241998301	1.7869571402256106	3.2838508999884923	2.274207109431519	2.773686401993697	0.9534330343970122	2.3313496053962566	4.280976761499923	2.696431630002467	2.4589431223775806	0.8392035343916823	5.369704709800953	2.368841403702478	1.4636428319217225	3.603210916958675	2.23945450217368	0.565644083979143
300	-0.3817795505421418	-0.1714934851369745	0.682817457382497	0.551636634864423	1.5872462947825663	1.5953345258488765	1.0807622643840695	0.8355957844618261	0.6791456920643136	1.8702633333670282	2.319847101076543	2.2937776984476597	1.4841134510716993	1.0900762053624462	2.675639622608673	2.6719644002211016	2.8401372361002166	1.8522537899936138	1.9268128823270376	3.5734128861806362	2.5854721004059042	3.171806565859756	1.3355190720218153	2.5160853799237404	4.516252029460597	2.9383177683077792	2.8991422580001935	1.133596894263187	5.503028378897937	2.5399162705190905	1.7375812486647868	3.753705253660623	2.338225835618764	0.6124530419145506
304	-0.13572940196101188	0.12574420837603073	0.7557146530144893	0.690417228386106	1.76079833062979	1.9105977963847003	1.5230909547498408	1.1927119463371416	0.8710426070156115	2.1397120898583664	2.662417166663663	2.617558949537539	1.8454211903709719	1.2893549171319598	2.984744064424695	3.0127649231185973	3.2830674565395426	2.4595913824925213	1.9845461795292976	3.8777654073085825	2.9507596418267816	3.585610380656677	1.6351979929647227	2.693231337423267	4.738790500120665	3.1927525916552613	3.3072140133328265	1.3803626264053612	5.577273831591345	2.682020895862215	1.9960278222233927	3.8578960798135817	2.4058871208483263	0.6765865070426988
308	0.1579391356295318	0.3272236875378685	0.7238312941396037	0.7880427817475658	1.8998044681267336	2.139713758788416	1.862110610075234	1.433775659755919	1.0405820581866867	2.3451840818322753	2.949220411483988	2.8898811267369546	2.0738465733620632	1.4555182420221913	3.2359471239406146	3.311287156327914	3.6740231421216882	2.5489792759435965	1.9481376360344893	4.10706375992485	3.266938439704044	3.9083304306536544	1.7629265740707667	2.797441237062506	4.874318110557299	3.3885724458971915	3.5651955514540687	1.5113681516635933	5.541978345230262	2.73319219852843	2.1409871524161823	3.857329358852488	2.4013988911080713	0.707643149496637
312	0.41643908514739914	0.3742865016547336	0.6659847481125565	0.8207643607398114	1.9836671302303694	2.2523550930377154	2.039994473075217	1.5211118421297156	1.1433520288210772	2.4522688326910624	3.1310439030750987	3.0675461214818753	2.122497553234959	1.551707144634257	3.3784413252410075	3.4975943477062885	3.9328322311289026	2.1785833780597863	1.8666881275731373	4.211863507127298	3.4688413055578136	4.084857453523396	1.7321658090727468	2.8053038049442662	4.8932714338737044	3.4965507895881958	3.6293342021862993	1.5261081418607534	5.394186959952765	2.6835696629481487	2.1322739070463355	3.7454538250773295	2.320447915894362	0.691302655382009
316	0.5940064176821017	0.29086384103771884	0.6662374122011214	0.7994913438638942	2.0119047114121282	2.2693023624346247	2.0739436097235124	1.4778388701320357	1.1664292782897905	2.4712037977769237	3.206038943779309	3.156135551113555	2.0420935102403277	1.5776067932352484	3.413054219211846	3.557873478489767	4.04528330735256	1.6499505001372539	1.8214203073291513	4.202166069865404	3.5527083784051516	4.128311623640736	1.646155353204697	2.7408165862502694	4.820834624516795	3.5381646066980967	3.540440073611297	1.4869251213679453	5.176936136526661	2.577246421029089	2.005181307498439	3.565123072206205	2.1945154611494444	0.6582800729344076
320	0.6881715637952182	0.1592096831355174	0.773543653919335	0.754634140016729	1.9984475323765851	2.241477960649406	2.0339827486183495	1.3727529014261	1.128735062610423	2.444739573982045	3.2118713774651453	3.198220244915993	1.9452263067724305	1.5621044596333358	3.3854103002905513	3.5350623041546596	4.0598502056617285	1.3335550989814247	1.8791705322504846	4.136561383293979	3.5675504117539094	4.102177609577079	1.6356055695246676	2.65618061348727	4.719425189500613	3.5659255891414348	3.392444125193447	1.480952855185819	4.955434786683066	2.484418385908843	1.8478007269936871	3.3810887251366673	2.071775431170637	0.6629801375816597
324	0.7272023540256544	0.06996376049735827	0.979955551534334	0.7158930283591698	1.9643478343959673	2.220542425271355	2.003330702492125	1.2907879319980318	1.0688692304327734	2.424718612271118	3.2031898417662386	3.2481675066001907	1.9403917740469045	1.5434783658159212	3.360271445373552	3.503044357992211	4.056915749797556	1.4619471989914332	2.053050274433856	4.0897798434951	3.582372656360652	4.08152769965607	1.7835077002318782	2.600303881755787	4.654929626156368	3.627704372783676	3.2793331063445033	1.5706380566042832	4.783557879768381	2.4591195521256703	1.750105138174793	3.2436287321212935	1.9898779342002844	0.7445634584701946
328	0.7505846004609131	0.07818371782828945	1.2288424937694191	0.7014393788747878	1.9339753340530337	2.2390177193378684	2.0449457116949183	1.3030527797224982	1.0281860802440455	2.4510085520851135	3.2283327497990726	3.3486728583667027	2.075236553674716	1.5495345553376791	3.391801348705812	3.530105820326231	4.109416951294642	2.006990904509251	2.2928895892427485	4.116908063031099	3.649185648287913	4.116404522993308	2.0791609234768194	2.5940856868099385	4.665143001222135	3.7367386723588547	3.2505586065239633	1.7597788527881257	4.678134906401735	2.5068099435457913	1.7538517669266251	3.1632180134064645	1.9550006340258899	0.8933674670552245
332	0.7925580719964808	0.18700036359303976	1.450081821595243	0.721557794179676	1.9359757851359347	2.308006757631095	2.187910312850691	1.4458450042460156	1.0376694176224461	2.542261594075791	3.3157718097894917	3.5193078429059836	2.3207435549317013	1.5882656534149415	3.503931513522808	3.6503345874177024	4.253785599459198	2.7068579128588337	2.51087807975073	4.231610764310107	3.7806641960058878	4.2150816810998855	2.4260964332362676	2.6249487333781345	4.745228755414469	3.863479366084886	3.296717158577224	1.9928468415490508	4.612756240642728	2.5789663726543854	1.8305299235857537	3.1079244535179913	1.9367439697958604	1.0434170935036255
336	0.8768902994904716	0.36408740190135486	1.5996522863055045	0.7873538712649912	2.0025176951394412	2.427726262638891	2.4314095912581313	1.7129437880183722	1.1114132376266905	2.6982469490591634	3.472879162603283	3.7574236298109027	2.6008474761147657	1.6513298708231634	3.6868939306634116	3.8551244638385236	4.48240326703385	3.2231969751996123	2.6282963686388476	4.406040180526208	3.950946559467568	4.352139938810487	2.6983885696947922	2.660704367595722	4.854230391644393	3.952494611297766	3.3687448416534282	2.1867313329800107	4.532769191741893	2.596926444172761	1.8982478332277097	3.023154966351032	1.8813149881547993	1.0969099970779805
340	1.0159990761854594	0.5741617665099756	1.683843131582445	0.9138139463241282	2.162110561634091	2.599050276870036	2.7557642390293027	2.0619974084292108	1.2474268643355964	2.907526485731711	3.692653169845648	4.045775403298583	2.845991365876696	1.7269244150430112	3.907634486823014	4.1053500071825955	4.755507457170744	3.336365691344553	2.61597132022331	4.589007366038381	4.114726533037828	4.491186607465775	2.811666243130107	2.671804421354928	4.93698214238151	3.9534988303504064	3.4148340139003457	2.2755377235181253	4.3837337383217845	2.4920673307442676	1.8672990751805425	2.862803690358175	1.7374108985904488	0.9698508953403633
344	1.208776828575024	0.8049366453828914	1.7549333528079887	1.1119977207718823	2.4272251067868846	2.826232664602119	3.1308386246790105	2.43104910236744	1.4328267538134905	3.1532380501290493	3.9610774417051733	4.3600640186855	3.0353662891046254	1.8126366092693578	4.1252908602511456	4.3534078488109476	5.022504317000792	3.0677242201600143	2.505380624167686	4.729867446401738	4.230751980590351	4.6062340620092925	2.7685427595811465	2.6473390989221905	4.948313223743282	3.8474297426360273	3.4117207441022974	2.2438886108966156	4.13833617119233	2.2401301804251474	1.6888147549906083	2.614287131384789	1.481446262434024	0.6352003200706203
348	1.4385869466700412	1.0688855621054005	1.8787827444325549	1.3734284604682785	2.7807667185194003	3.1079800050467816	3.5175793082118614	2.7591137816386437	1.6469210344695486	3.4124498281153492	4.258608807302245	4.671291339524482	3.200390330817496	1.91759442798935	4.302123058901367	4.560422408987749	5.240046011092665	2.660474055248891	2.368293517809086	4.794333445842249	4.2756838690572305	4.688788879000569	2.6532833509213427	2.5955383712087365	4.866738783946796	3.6523051169690017	3.371644249986562	2.1308948939882937	3.807984819334737	1.8714770031408805	1.3785364593033436	2.3043758810991246	1.1305528850621933	0.1413151469239066
352	1.672645445415343	1.3808025086826932	2.093525165994264	1.6582771497820636	3.168638221370075	3.422999134958222	3.8679788014983303	3.004370204969626	1.8618031693182586	3.651160469373625	4.555044639531112	4.94427584353497	3.390603295348851	2.0519435353924607	4.406677711805116	4.699616897161707	5.377762304079926	2.432331317482611	2.2748224677826263	4.7668361543467315	4.241885174531968	4.737324225862892	2.5781934196228895	2.530562632847394	4.693967330525581	3.406286469442556	3.3217506324825266	2.002858633706696	3.4344205769612457	1.4528354369676242	1.002906319947153	1.9836447188839905	0.7366047482966543	-0.4053226699132431
356	1.8656531525238704	1.7280063585522425	2.383399003687086	1.8984698009242928	3.507132521357744	3.7225129510355184	4.131447304785163	3.1540045658589255	2.0417103715846787	3.82265924442281	4.804690348892272	5.139631258385983	3.6250166801482497	2.2096023503783218	4.413026321713404	4.749034869601636	5.416009889279991	2.586069815782203	2.256270402933836	4.643713939386589	4.125785817220111	4.740639197778351	2.6141250067514092	2.456995719428396	4.444944847328618	3.1402938286651483	3.272460213982095	1.9123363446591195	3.0669946593098056	1.0523709032191786	0.6381916983704103	1.6990675883311164	0.36430409458688867	-0.8836574532133153
360	1.9732644508132742	2.0544788785562256	2.6812469891564055	2.0190453478381913	3.704664936249037	3.9370853801507573	4.267065037444469	3.221567384215567	2.1452681964117213	3.874337901824072	4.948462473773423	5.220962988069556	3.862161626601518	2.3567349851234245	4.300656307806437	4.683142650224541	5.3413910730926535	3.0869848650241054	2.2930674495023093	4.424704063688315	3.9177901645927835	4.668726909294141	2.7460627486515747	2.363775008909361	4.135622490931848	2.857360117373872	3.196294299638873	1.867347950989135	2.737249367478758	0.7069554311069548	0.32723346269958703	1.4694267474268339	0.063395574528853	-1.2071192234080055
364	1.9687080333595681	2.2719116153577246	2.899171106648192	1.9700924108356261	3.690473785619583	3.9973490137266334	4.255961884243743	3.234674207150005	2.134915346477533	3.763415565525755	4.926542269666169	5.164988504720888	4.011848916415245	2.436999791668212	4.059308041814221	4.473934162288386	5.146290289283478	3.6769361403137966	2.3300700128854492	4.111251343837617	3.6029815582861584	4.480385292185429	2.8785378860276785	2.231802696315313	3.777106752396095	2.5322859223327887	3.0328366679867442	1.8274388267155062	2.444984906699321	0.40938395158405017	0.059240642785469366	1.2776976791547998	-0.1513013835901687	-1.3553037609214487
368	1.853642101376217	2.295392269061259	2.972288124209561	1.7525327161410762	3.440232029812174	3.8612310788896345	4.107395638586122	3.218006841164254	1.9915910908960932	3.476319304272454	4.69999789005015	4.971172320212668	3.9822912115643336	2.3941087662332885	3.697991600236833	4.105341900950926	4.8353500244130085	4.015837182396386	2.308958286177887	3.7133550550167698	3.1745252529103873	4.1461210146175	2.8885307239083327	2.050239080974767	3.3789741907639543	2.132673019746744	2.720358603284953	1.7291747287961798	2.163293594620606	0.12171550064351119	-0.21582090800155235	1.0842784615797818	-0.30213066859258586	-1.374205585824898
372	1.6596920448361696	2.0882890171732558	2.889870636319501	1.423188921196222	2.987901441659765	3.535135498658259	3.8541059396711734	3.181799165321832	1.7283047394032347	3.0419819278208324	4.273282517134583	4.665338027619347	3.737459888558816	2.2026307527244144	3.2518107808982433	3.5938620476585483	4.434040058385203	3.871235122443478	2.200677389310767	3.258701077816882	2.65149616525691	3.673826446794426	2.6971070698353565	1.830269570498032	2.9572625085553583	1.6488542515133127	2.237553829265881	1.526654835661253	1.8594504547856245	-0.19419418226326976	-0.5471093044772939	0.8535790421869611	-0.4322071362550496	-1.3471848930678014
376	1.4377174341142531	1.6918719964227087	2.698932164053771	1.07598232951302	2.418445104215058	3.0787734907620004	3.5391223341279296	3.121519080864039	1.396306392005366	2.531169408129675	3.706161966503436	4.294669617300312	3.3297481452797175	1.891715044967531	2.7804791857137294	3.001719467213867	3.992393960409676	3.2513928331301334	2.0162599035855804	2.796010010335773	2.088668579550227	3.1217441480021426	2.319740766390532	1.604591127159124	2.540334456705779	1.1141046257500835	1.6316523510745655	1.2238997190092544	1.5199197492372176	-0.5473171458731009	-0.9423973536540006	0.5789450988457687	-0.5791749343554423	-1.3534507717293496
380	1.2431268660630665	1.2226378886825453	2.478667968214011	0.8074204305290558	1.8449139548452138	2.5915603572264705	3.2036631026445606	3.028736345273708	1.077110049389323	2.0408422895403615	3.1075985353211824	3.9175157448089304	2.8881902621782354	1.545833226115762	2.3571810662837973	2.431679004251836	3.5801401047915817	2.4100193916508816	1.7959786608174575	2.3884062706727347	1.5702735145977573	2.589711897987363	1.8681884956876353	1.4138349258966576	2.1687452738365782	0.6026907547993055	1.0156927083120872	0.8819807745600168	1.1662231654286774	-0.9050396061935408	-1.350975629256656	0.29228833243960944	-0.7524656634406304	-1.4340697490724983
384	1.1235572071318576	0.8351682403459317	2.302127117066716	0.6818545443485816	1.377923008300864	2.185531849111579	2.8836820052773864	2.905819170291075	0.8581962563781846	1.668035741409342	2.610026591387001	3.592411509026957	2.5655023986893553	1.2760776249138948	2.0501849599574475	2.0004026839295714	3.2723588860862325	1.72006785435323	1.5900806148437698	2.0971820301512913	1.1870249479841903	2.1894330923115684	1.5018880329360025	1.2882764306921168	1.8869680118603145	0.20452344365934816	0.5323516117006801	0.5954033717381756	0.8517166354610114	-1.2047926157097169	-1.6812549787035425	0.05192946256997294	-0.9269204116306982	-1.5814355571873737
388	1.111463067109597	0.6645894033818875	2.2070467416353843	0.7118570190576837	1.097562548727334	1.954228157831551	2.615335934711609	2.7754096914790924	0.801002560023714	1.4824004135851796	2.3309085310260325	3.3696179304878937	2.4710185465414294	1.17390262784215	1.9038530540082355	1.7997863247253856	3.1298253457203873	1.4868077002180342	1.4413764440384866	1.9623596618698589	1.0055850718858854	2.006270165146447	1.354452606596205	1.2349822490029412	1.7296199754915278	-0.011365849496040394	0.29964175744698374	0.4502266038017942	0.6393619163583311	-1.3833075726869886	-1.844430561177306	-0.08607959725581443	-1.0564484569579682	-1.753141160353407
392	1.221857544675116	0.7722715119891057	2.189624780848682	0.8632196762225268	1.036707756286068	1.9475302647057615	2.4412944255227256	2.677405827438198	0.9162200070137017	1.507747407921209	2.335124486749641	3.285856953907988	2.624697917033553	1.2702090708134162	1.92723202218804	1.863441104952551	3.181524983956557	1.7988740160347567	1.3770661319297364	1.9895812222793416	1.044715759500713	2.0689964242196455	1.4726606570256027	1.2373317448847656	1.7084428028841674	-0.02567117841020882	0.3626494696521014	0.48498141643148446	0.5708265886199891	-1.4076380694135848	-1.7999422504757243	-0.09807018165861989	-1.1000741692425382	-1.8979141664270995
396	1.4488322698253264	1.1179109783558299	2.2235629502423664	1.0775315734361106	1.1785120934295723	2.1594717448072576	2.407038444163901	2.6536974839921967	1.1586087912871352	1.7185108618263383	2.612478964885448	3.359989873032344	2.955309621978868	1.5209280214056924	2.094664091543757	2.154479498192054	3.415566197354918	2.493176453971448	1.4091271126456042	2.1499946063118975	1.2692829338452343	2.3404068887748783	1.798146362533176	1.2668254343473495	1.8068932249225913	0.12491423605137068	0.6741069538263028	0.674062905993925	0.6436024888001698	-1.291381713467785	-1.5778487880924257	-0.007395693082316535	-1.0461159918122411	-1.9788658568965443
400	1.7598800614746988	1.57267891963624	2.2874817790452204	1.2992153134922575	1.4656980000683892	2.5307481225014663	2.5423839028065616	2.729004614615663	1.44543432824455	2.050201410839364	3.0790269297109454	3.586439600472698	3.3408512984804446	1.827752227936944	2.3560080468775793	2.579390042468379	3.780414571754199	3.24860619678463	1.535055514274687	2.3915090500533287	1.6035599668071132	2.731605761307094	2.1990585271627547	1.298462983667802	1.983807201145238	0.3652852764443815	1.1129549713645583	0.940970954903482	0.8074836114523583	-1.089529749980525	-1.267068025250973	0.12381724236937165	-0.9221060252750555	-1.9855219075618071
404	2.0942320770795155	1.9695775459153562	2.3808610379189576	1.4933087788072723	1.818137998758947	2.965000145101985	2.8363981175336073	2.89644145234295	1.69043528606867	2.419187778087084	3.6029882340063564	3.928905953978171	3.66664814023296	2.0833985752910715	2.651524537067751	3.0217242164614557	4.19607590569621	3.7509324455926722	1.7359887317696987	2.655545466394147	1.9571989725289456	3.1321823517874345	2.53193139390656	1.3201103177119637	2.1849777643351462	0.6127828940179049	1.5310394725291503	1.1921813457906907	0.9827011202796909	-0.8763074852753292	-0.977494892990284	0.22206571642122577	-0.7851421813215396	-1.931635732542217
408	2.3716113507474863	2.1706595366033516	2.5177783902496658	1.6469744402311326	2.1533341353409416	3.3546402369679695	3.2228498377493167	3.1179551999526267	1.8392322017009897	2.7448453833897557	4.0467924969544615	4.320569981157039	3.8716614148618356	2.220577711220973	2.9255723879383466	3.380978337334822	4.573453891651381	3.8398694895118046	1.9713854739961187	2.8917798922961255	2.2526214065898995	3.4444279583751887	2.702484839291994	1.3305734362387085	2.3578827321603217	0.8058186749140508	1.807659502233889	1.3555985654937635	1.0912554236517054	-0.7176181059839037	-0.7955218533458095	0.23464469552402653	-0.6975373608144184	-1.8442223025489866
412	2.5131888326135483	2.122062916166354	2.7024176052528572	1.7565337375161674	2.40349029887867	3.6080865768889923	3.5894794373485683	3.3374679004329564	1.88650154591148	2.966413728853909	4.308825958817305	4.674209106088161	3.958889235991704	2.236743682936139	3.1342496792816044	3.5989043621752366	4.835419165800773	3.5661337285604646	2.1790888254462057	3.0647315901626873	2.4420084891653318	3.6081721691586734	2.6966268948182583	1.3307571377534424	2.4632224974430703	0.9165055728660996	1.8881931257259348	1.4052432740018455	1.0859990092515244	-0.6518744809858585	-0.7552862744335701	0.14985977075410964	-0.7003716808756218	-1.7532433227142943
416	2.4707109865751646	1.8712103319608286	2.905703060443346	1.8120102836636391	2.527019971189468	3.67171715763044	3.8133313559575908	3.499640932784129	1.8667536926822248	3.051850788040667	4.349688518986354	4.902847277660563	3.970262517441871	2.1822373811938713	3.2477769769686082	3.664826860711801	4.933929907739557	3.1358940522175165	2.290531391082809	3.152817479756576	2.5097205575521144	3.608615627714683	2.5698323184934866	1.3161494698673497	2.4802484449708846	0.9443379020690535	1.7909523203455286	1.3613156045876056	0.9640942191578455	-0.6859565359916675	-0.8385523536491553	-0.0039943298224095454	-0.7982277850024908	-1.6863340096813197
420	2.2509465160759397	1.5385096034307002	3.0635940951246656	1.7918572380602238	2.5132243569817447	3.541111221909773	3.809053172984994	3.5654129891976605	1.8262693835879655	2.998817913113527	4.19488095178077	4.946282374291623	3.945418586306476	2.1220571941204702	3.25049876346076	3.6024975685718044	4.859721648344396	2.782825939781901	2.2569811287163435	3.1443588654285666	2.4641115603222956	3.468852034393846	2.406116956358	1.2764525381285854	2.4055879055323093	0.899878976457272	1.5837285478660938	1.2695114580527262	0.7600077371482425	-0.8037921169968041	-0.9980874632431634	-0.17911465420800388	-0.9617242788829148	-1.6672646957264743
424	1.9202637623942318	1.2581517664615336	3.1026022355901444	1.6729897218426963	2.379245990468201	3.2577869809869147	3.5658190160368455	3.519764652902389	1.7930080845386416	2.829288952359906	3.9148199459418356	4.7915320275448785	3.8931977650577054	2.0948867744960755	3.140949002918865	3.448229542609365	4.640870559419403	2.642325394634922	2.0750355668130407	3.0354914588583375	2.3253738821447425	3.2325317778036076	2.270725482929689	1.2029905288841276	2.2479574623572898	0.7905241827079452	1.3437238897730117	1.171846267602591	0.5235922323358936	-0.9795480941836782	-1.188497540334293	-0.33517640744462396	-1.1444393367483248	-1.713350291694714
428	1.5834916790083544	1.1147912712561623	2.979691974746288	1.450644012603345	2.1605899279404204	2.8919525073469594	3.1526555935417746	3.3704762373704926	1.7617955163343646	2.58040212933411	3.592157831659433	4.477862346787746	3.7909090423240164	2.0931770748696548	2.93281316016738	3.23333071846016	4.33189820149587	2.6961083344100216	1.796227092976254	2.832486145497586	2.117137188334552	2.946660749625216	2.1818749849545522	1.098053571789754	2.023424381869494	0.6179715379371473	1.1224658460887758	1.0854326459182984	0.2966827742715474	-1.1865531176173394	-1.3858346904097951	-0.4569105792430639	-1.303488370465417	-1.82875871196608
432	1.3421219553440729	1.1081455917990641	2.714699738324265	1.1542717189256488	1.8996832322795665	2.5178306039183576	2.6867434910651355	3.1421823422254436	1.702981467715766	2.2949607314341747	3.291126242911408	4.082401265327693	3.610795488777905	2.074921602732518	2.6557197503750305	2.9786136075157343	3.996237744732247	2.8104319501492143	1.5122785530055942	2.557013743620455	1.8647327376015728	2.6503503255686405	2.112521643073378	0.9791823600842597	1.7543544724993916	0.3877898146852162	0.9317285991032999	0.9988021825368607	0.09999704335715087	-1.3992423975902994	-1.5881823261217558	-0.5541129098253647	-1.4145145380546706	-1.9981718012905503
436	1.2514879671924695	1.1631165713508276	2.3905289112771166	0.8477209188992917	1.636254664104633	2.191028112601731	2.2806653918859165	2.8711144851675146	1.5884662826487488	2.0132195898725533	3.041142694424514	3.6922223474742992	3.3534839068622464	1.9983998486608852	2.3523898065302693	2.6998855999491913	3.6885509397839837	2.833547108171909	1.318475600728481	2.2482798042754215	1.5970442254752972	2.371015542719816	2.016046280539245	0.8735511280892952	1.4703584872316104	0.12202511697001525	0.7530610542357886	0.8850067235536893	-0.06524621678806988	-1.5910475213888748	-1.8010110809631381	-0.6460321529290147	-1.4742683135004255	-2.1844878141563293
440	1.2973986831333797	1.1797435253875228	2.1179225391321297	0.609462080847273	1.4027990067350673	1.9373332213126222	1.9973459193346277	2.600887768854532	1.4172177278976992	1.7677957966994644	2.839938871842905	3.37581585985457	3.0647499483932314	1.85553895958676	2.071380610004642	2.418213122938178	3.442998400578505	2.6918172768341857	1.274456616998676	1.9581800649794714	1.3475491966557487	2.1261770671569433	1.858953471258742	0.8064206818247623	1.2087269990921174	-0.1359572258139294	0.5620632753486574	0.7226213198537181	-0.2046686107713321	-1.733694072160929	-2.0188815542747625	-0.7415118198746888	-1.4927523098450544	-2.336832040608855
444	1.4052665198132492	1.0957132550232018	1.98308228945731	0.5003287779573723	1.2256903617430759	1.7562431052689764	1.8347659064699564	2.378496640875977	1.2249586551256604	1.5817885358928425	2.670819275788568	3.165527097339233	2.8231091428051958	1.6840199189584024	1.856012935720817	2.165474886195299	3.2704403317850463	2.4299349723501114	1.3794702256660372	1.7382554964047838	1.1504251927894253	1.926960582636418	1.6423625904579253	0.7895556668374352	1.0096427176733702	-0.3313213280418968	0.3517858079134772	0.5124008642611217	-0.3180179885941307	-1.8028364136001311	-2.2172141019155003	-0.8290475585986896	-1.482819076609025	-2.410069221133788
448	1.4795408211546552	0.9252625084404565	2.0039184042881266	0.5353093729809018	1.1274880142355808	1.6345268446662462	1.7459961131836415	2.246118778279901	1.0708106729174955	1.4683016501548942	2.5218233998524906	3.0574972552352735	2.7017736366723297	1.5496201476073606	1.7326748327378434	1.9790878245931274	3.163763276695493	2.1746704523494507	1.5742886026689802	1.622662063316502	1.0312081549358174	1.7794630482569214	1.4015083277603597	0.816780684316306	0.905317185023559	-0.41914921893152657	0.140980586053627	0.2800422899805222	-0.3945673098139024	-1.7877845719022936	-2.359549278024034	-0.8822603203433076	-1.4527621232547356	-2.3854944645735188
452	1.4548240863308897	0.7534641008427422	2.12059688032716	0.6756793243515078	1.1257083387563704	1.5615193804416978	1.679842229416643	2.22795295152828	1.0070230935421058	1.4302252494941918	2.395812743813825	3.0257680339713877	2.728663914466987	1.5089158973744357	1.70335745381406	1.8878717374821172	3.107091657423292	2.0509633966162486	1.7722933247642811	1.6151957471122083	0.9966891978849078	1.6838291840956028	1.1864193647948011	0.8704456068950485	0.9072086788160857	-0.3858716776165422	-0.03529910361795345	0.06503625197679809	-0.4184193600580946	-1.6986855225590707	-2.41447853432456	-0.8763762094305818	-1.4050223791888656	-2.2814521731949653
456	1.331027981258618	0.6871921998793864	2.226896995644105	0.8456209876645118	1.2248368232320472	1.5358067712155392	1.6159023005695918	2.318066591132308	1.0498241159636457	1.4584221803083164	2.305722946067647	3.0401849669946808	2.867490284355742	1.575907226398414	1.744731779461858	1.8957704257785202	3.0834226530427427	2.102884764130424	1.8992093753547985	1.6861438708649663	1.0291742060426372	1.6321288306036972	1.0354728672587292	0.9319319105461155	0.9966577862371905	-0.2594306760436852	-0.14643670581562374	-0.09844829117237855	-0.38057085775611565	-1.5665255745437434	-2.372781270712184	-0.8056468347235972	-1.3403660025134232	-2.1472036784319815
460	1.172061559578976	0.7880906442771997	2.2260882798258343	0.9648612117248788	1.404108282358898	1.5586919745192709	1.571972723806724	2.4754271444764657	1.1684532136026735	1.5287274083641502	2.2584981861313365	3.0773086470156987	3.0313486976383284	1.7125014023459664	1.8140871479009493	1.9726470659042494	3.076847307066302	2.2658278884901497	1.9208363246104985	1.7812018349499192	1.0888775559590393	1.6071697432948866	0.9561837291418068	0.9889946554963451	1.125775930423375	-0.10154230867021265	-0.18548662913698455	-0.19839546034313954	-0.28891390489113744	-1.4338538610496667	-2.2547571602160987	-0.690029500172821	-1.2630557982026922	-2.041210884662722
464	1.0666953298340138	1.024466035163716	2.080343956463335	0.9797760819493684	1.606722827669489	1.6175111491373073	1.5786366422850775	2.6302933626523606	1.297361609044423	1.5994548757225069	2.2374997082485613	3.118413440460503	3.121682397590311	1.8468645764452085	1.8597323847547003	2.0577988572618326	3.069363347887199	2.403981917987536	1.8466579867469386	1.8391195489226484	1.1243377895578655	1.584189172559755	0.9223435497838858	1.035371181734999	1.2310756413849357	0.015131493060830486	-0.1752781267509162	-0.2500625544433445	-0.16939704077390508	-1.3397976126222801	-2.103735203199932	-0.5665832743644976	-1.1826734512987045	-2.00402593106703
468	1.0714490386614284	1.271582361825574	1.8260164214761776	0.8761434532933216	1.7405134395524644	1.670701737954125	1.6395511585802578	2.704476111259623	1.3634439672378718	1.6132625300684442	2.1956469957230036	3.138852588358118	3.071300737256087	1.908168072651211	1.832041378164152	2.0764961190249296	3.0360608024237945	2.387173408203313	1.7137025551444474	1.8098127796256083	1.0870434018346418	1.5350253543245067	0.8863735772642276	1.0648819181259457	1.2543771235267278	0.03356244034042053	-0.15951630432862907	-0.28847592996243365	-0.058061845454012946	-1.3075057235131353	-1.970773811132978	-0.47146031141458133	-1.112233755164597	-2.040905232045086
472	1.166552183067007	1.3636405433558447	1.5484120806701032	0.6707437617533426	1.6976678328567452	1.648060317646909	1.7054227547503127	2.6381249361189156	1.3157021966140843	1.5080236158444007	2.0667974896701438	3.1000850122383454	2.870425932312808	1.8589165163790746	1.6940675931121116	1.9647066543566092	2.944559566692899	2.1601352637112217	1.5616388281495261	1.667573328576342	0.9457137560809302	1.4341400825531556	0.8000814894503253	1.0659664842395404	1.1634342641066782	-0.06874080730010566	-0.18411919428116116	-0.35222178608658605	0.012396207979316502	-1.3395304646050712	-1.8974240970389935	-0.4231894303604587	-1.0638095113598545	-2.122972959880487
476	1.2513271538612716	1.1720473736735553	1.3305591311239986	0.38797753951346237	1.3903250659172568	1.4708356820164774	1.681092973279452	2.4096925197797585	1.141140934924072	1.2358140914233264	1.7915935471124034	2.9527439996556337	2.561692946642088	1.705378408894712	1.4303085767873776	1.6921486811830575	2.7615938116921965	1.7634727910341095	1.4138988220756954	1.4156405890009243	0.6954232436742178	1.2644475666546837	0.6333984120589649	1.0226287815977981	0.9626947617066974	-0.2762333445727347	-0.2795448892211274	-0.4669201958311801	0.02409120643016905	-1.4223620855659855	-1.904716486890272	-0.41679668321282626	-1.0443237993576595	-2.205366844331276
480	1.1876950233990633	0.6731578690699405	1.2071149318735923	0.04270554695672163	0.7917972187078439	1.0881354781334593	1.4690936766726699	2.0442562051658975	0.8642258026237952	0.7863524536306482	1.3485983576104363	2.655782216042597	2.2127389851970625	1.4863258562708865	1.054042694291618	1.276295301076065	2.4664885935499368	1.3011921611358872	1.2744172779332235	1.0837427350338933	0.3603758206805621	1.0217877600621406	0.3842074563339703	0.9237430072350339	0.6901741606453257	-0.5455502853924848	-0.4524872589608052	-0.6360769255791188	-0.021647367571774254	-1.5355620345447094	-1.9907556721970308	-0.43114438544138756	-1.0531858179204903	-2.2518684807189975
484	0.8732969738846146	-0.030774317604091717	1.1498005361137564	-0.3589954963203386	-0.03611040478768474	0.512059508461355	1.0267176602190664	1.605440970182186	0.5334135876539621	0.2042757118551259	0.7751065473060446	2.203561538854877	1.8837519836549332	1.248995777791413	0.6113290175262143	0.7815697173413013	2.0662634320543045	0.8778567291984197	1.138931509957116	0.7218965273750794	-0.009981840823721003	0.7176939230918666	0.07748389224516787	0.7755886296717708	0.40315940874354916	-0.8222878554564239	-0.6881709081441273	-0.8421438911156733	-0.10723555806026897	-1.6592881637641914	-2.1352364963027717	-0.44350021965587383	-1.081997034202119	-2.251953596151522
488	0.3091107897106744	-0.749607203498354	1.0895990105775792	-0.803898749706038	-0.9474164223592852	-0.16990306930560936	0.4031200100734521	1.1723945111238507	0.20320820757105504	-0.4120853830900623	0.16385112661478093	1.644067521712776	1.606884594675001	1.02677905300303	0.17630417600465045	0.3016524009241156	1.6023099382000396	0.547039209415215	1.0095850203773735	0.3905763318214304	-0.35235509187428965	0.378412394760314	-0.243642806391697	0.6073890313072189	0.15758883913307126	-1.058036443900065	-0.959693429431255	-1.0555403205924632	-0.20777684397690926	-1.7776859953820745	-2.308116907014362	-0.44261568672964025	-1.116892692607058	-2.2222285214585042
492	-0.3784441938382214	-1.2828712430989522	0.9636731123435706	-1.2510499922637657	-1.7506687596943662	-0.8149242976594634	-0.2658696763955466	0.8159764984510268	-0.07823357711351818	-0.9342519617334952	-0.3644281020500308	1.0766404839989683	1.3878750766045949	0.8328581431342044	-0.16398644405924062	-0.06870731694040705	1.144822236985395	0.303328781554191	0.9005708671720779	0.14914022348419778	-0.6053746923421203	0.04183348630237582	-0.5291829095831311	0.46400937320860064	-0.008823389165178261	-1.2206958501513767	-1.235879775741703	-1.2448543278735855	-0.3004231445356939	-1.8776659918108627	-2.4772324499528646	-0.43226051221431117	-1.142353531814321	-2.192918533510654
496	-0.9804987882654453	-1.5016999206775663	0.7573832254361188	-1.6274518925585595	-2.272158140167893	-1.274600264192222	-0.8079856613740337	0.5821254238690197	-0.2752235226834996	-1.2454994885470054	-0.703811464916925	0.624178408000517	1.2216157882365175	0.668089209300328	-0.3347958913933386	-0.2639920704852175	0.7746206502430624	0.1152428385685979	0.8294703343430141	0.04214532662718245	-0.7271406036138229	-0.2479387813507146	-0.7330614309876378	0.3870961656333939	-0.08428838082728858	-1.297676083149464	-1.4838315211026236	-1.383460041367939	-0.3705685725392883	-1.9467991541347924	-2.6135859423454217	-0.4243570257440159	-1.145674941031399	-2.188394064146467
500	-1.297041770521366	-1.3982435429556752	0.5151354061472231	-1.8489739848184839	-2.4195158420510996	-1.455012317798615	-1.0881545516197393	0.48407459136816117	-0.36795118358219725	-1.286384340853144	-0.8044257143691668	0.3879830827454125	1.1073921890910055	0.533565519893111	-0.3023082606312457	-0.2702233784528834	0.5568504915483418	-0.028752319442158805	0.8035270551421572	0.08481243976399189	-0.7099771481708589	-0.4498255539504355	-0.8227290490359375	0.39461085100680093	-0.08117354640731922	-1.294845696994806	-1.669740315036325	-1.4526172839682971	-0.41359281435494843	-1.9744399736145666	-2.6954309872285043	-0.4275006641085003	-1.1210392685243231	-2.213514322414343
504	-1.2380994527075344	-1.0818707915648034	0.3165374986286151	-1.8594261360906177	-2.2186276856674243	-1.3596535886768848	-1.069932696502171	0.5042406307841047	-0.35680478721179487	-1.0841690274522504	-0.6947265845878419	0.40331011908748327	1.0521303388734724	0.4365684677068984	-0.09425349509761172	-0.13167710569038205	0.5157105313632088	-0.09762681250957754	0.8099443892056973	0.25202718313482597	-0.5875641688771083	-0.5384776578659385	-0.7877433280129703	0.470339922909567	-0.028873713614163143	-1.2346273629488445	-1.764063353853053	-1.4436391555577373	-0.43392842898484985	-1.9572107742485814	-2.7124500206175424	-0.43956255801801886	-1.0724297734840866	-2.253757947953607
508	-0.8822262860912268	-0.7268207650907658	0.23017544986308436	-1.6673695999010143	-1.806728000847691	-1.0937131615681686	-0.8336592891626077	0.6029115900076407	-0.266716330570121	-0.7507352213978802	-0.47443306326292606	0.6172385796221949	1.0599185201587409	0.3852898468780362	0.199345319959882	0.061538062834343085	0.6216557606260572	-0.03830345710382026	0.8167599418999766	0.47760629533346666	-0.42948308478640224	-0.5159950839366481	-0.6456832273393805	0.5695052728579443	0.03436439848210687	-1.1531779736967818	-1.7526243880845092	-1.360958334347724	-0.4430622745294924	-1.9052021455346757	-2.66883420270398	-0.44944220667853046	-1.0139557097584284	-2.2872991504140896
512	-0.4534685004229427	-0.4993584441452012	0.2707441740352935	-1.3572715486590952	-1.3829390967739172	-0.8250508287580114	-0.5415822849905159	0.7293338757220855	-0.14610646628207946	-0.4460817266169007	-0.2790458791363277	0.9029164291473571	1.1178514929204941	0.37865942620996196	0.45048206930865653	0.20259182103982776	0.7982625941149518	0.17391286746462162	0.786491690080492	0.6685702783870956	-0.32151111879237315	-0.41686832799566537	-0.4423388231553576	0.6389423592648164	0.06823135150133545	-1.0941312285455675	-1.649582143433472	-1.225847479586307	-0.45670127753346357	-1.8429485512933523	-2.5833313399895563	-0.44617780930403605	-0.9659284924915323	-2.2994472922443805
516	-0.22199815455654345	-0.49701276296063274	0.3868384351500358	-1.0646519634069829	-1.1353656024877865	-0.7169778924959876	-0.3664267053889484	0.8321239927263594	-0.0558975672800701	-0.31933686056574595	-0.22909928800438173	1.1074166269953016	1.1909949749440765	0.3999563147460515	0.5377136455311364	0.20453427680350875	0.9485688185584631	0.4935030626711846	0.6954700929248929	0.7342371326028639	-0.33615022812850565	-0.3008203498874743	-0.2429709279363239	0.6407620890652146	0.03740173568819299	-1.0972722741080108	-1.5024950466368625	-1.0765333148479326	-0.4907440232761424	-1.8017953588771125	-2.4845404562210347	-0.42864996086615764	-0.946998057358663	-2.2900698127148336
