time	FP1	FPZ	FP2	F7	F3	FZ	F4	F8	FT7	FC3	FCZ	FC4	FT8	T7	C3	CZ	C4	T8	TP7	CP3	CPZ	CP4	TP8	P7	P3	PZ	P4	P8	PO3	POZ	PO4	O1	OZ	O2
-200	-0.47866815207745933	-0.45126408224613523	-0.3060047320746261	0.11992945491790655	0.20726059324865181	-0.27091109684256554	-0.6694262606885538	-0.4819875049342979	0.16076686937750417	0.10084232662489895	-0.6458933337116833	-0.6001004561531964	-0.6992270332802453	0.1147993874631692	0.01571841720248419	-0.7474485020839738	-0.7691885809551718	-0.7471365909786517	-0.04185542826217837	0.029139267207128245	-0.5252643810362007	-0.6317260249400792	-0.7943925837487461	0.05868776127779963	0.25028517779101855	-0.2763367586311589	-0.6813194138491393	-0.7702775578124688	-0.6891574842219587	-0.2580091350717036	-0.5295969830493402	-0.05279453085444619	-0.35966378359587303	-0.4182544638087398
-196	-0.23264740348729065	-0.10121173386054236	0.10226993982005174	0.3439427903551539	0.472838549612243	0.11380034656403062	-0.28894835637573063	-0.051854628938646376	0.33061793363067826	0.21867807154280824	-0.4800385820666751	-0.38769152662622974	-0.34095773014769415	0.0647845490131277	-0.024680277270351825	-0.703491447579934	-0.558137415430438	-0.4235792447363056	-0.18761186254340778	-0.13198408451136145	-0.4866928743949216	-0.435874908062043	-0.4814644145730697	-0.0673736034122802	0.03586310884242631	-0.3633158197766855	-0.4133690287167042	-0.44089281447675743	-0.8101463297416865	-0.21847340409432747	-0.25155374344257037	-0.1446914669198454	-0.3120722464788627	-0.2007455671725714
-192	0.10177902851634045	0.3008677057776288	0.5303910957296778	0.5848795756832026	0.7591064553168694	0.5088992105986979	0.18894155275802246	0.4443584371315055	0.4465749550511718	0.37190085555594415	-0.19297724913512426	-0.05098744841457923	0.11031839223665534	0.010161288056944854	0.01456296440262414	-0.45440938954066906	-0.22796735109947133	0.0012485635202519804	-0.34952986152139154	-0.19246402334258153	-0.23281909466613268	-0.1581060137333204	-0.09650378649903858	-0.25411909754490386	-0.07579251359638872	-0.26321145825688747	-0.10545967492657286	-0.10189050410295018	-0.8818380214361402	-0.07950117418959483	0.07745569179767972	-0.21298812275994802	-0.2598555081482492	0.03782556196437894
-188	0.478551565392573	0.6950654369925344	0.9143010354800029	0.8255059698243671	1.0626226636760834	0.8810929037736842	0.6856611353729065	0.8954804517071773	0.5188423978103797	0.5886633977332807	0.17485685602386855	0.3507434716905992	0.5506368265554848	0.01124517709902956	0.1829459364563646	-0.055678333946559126	0.1586970980929044	0.4354579139682472	-0.41834837092634636	-0.09587862318389029	0.17441847876381353	0.15208035669077155	0.28138694096093775	-0.39079946180858377	-0.012344782209521222	0.027915842760654067	0.19376185487464417	0.17808793440201762	-0.8583652951503409	0.14487245642324892	0.4043971885961522	-0.2096364194822393	-0.18061304046806817	0.26442256503102085
-184	0.7737374286190105	0.9639048552018722	1.1445519895266658	0.9742148493965757	1.292846676423376	1.131570217136651	1.0511945459528615	1.143689271900365	0.5093584643855328	0.7923935035726715	0.4759851086043139	0.6713694317079703	0.8249694088134537	0.04003908847594311	0.4009752561459142	0.3053252689282245	0.46310207130812037	0.7308914046907788	-0.3861861815239055	0.07733789066815917	0.5445197806915649	0.37876528405881577	0.5243571387403649	-0.45207187419241424	0.15298898479459475	0.36886316444728057	0.3810220351136039	0.29787561222210324	-0.8002673367322658	0.3312412492018432	0.6096559747562378	-0.18684820783647355	-0.13864313031001682	0.3764060130152729
-180	0.8580021836552859	0.9978390906890114	1.1293266983129697	0.9258047318926093	1.3293278183753372	1.1565483779317416	1.1445035905552303	1.0723162862407207	0.3730131676316118	0.8580429532322094	0.5494122491316662	0.7623437623803818	0.8142147639698486	0.016252424526904424	0.52021688091543	0.4242870796935486	0.5514929280662324	0.765658317063328	-0.33074596440733256	0.1728083486962387	0.6693191511421628	0.4109058369752578	0.5306667076064234	-0.48727744694708036	0.2611462765299238	0.5605140910302115	0.36269166974049577	0.1919698561351576	-0.8208501318234267	0.32745632446583955	0.5789688214943295	-0.24537144539394729	-0.23345132113166903	0.26960962942718075
-176	0.6959177834106706	0.7831317166583416	0.8753491021944054	0.6571677906610622	1.123599884057409	0.9394897794845531	0.9369978285020752	0.7008264047094652	0.12634912101316773	0.7195593100500476	0.345754294714594	0.5817572459791717	0.5270404802367336	-0.10615703436752308	0.44245478399147536	0.22505792918604056	0.3939961781091066	0.5349582420194164	-0.3323060265734225	0.08601900913455322	0.46430691959456816	0.23071341158314643	0.3067190043334886	-0.5473021851073	0.19350986133833123	0.4817439305540382	0.13588747347855712	-0.09902042870555242	-0.9825087760914863	0.06882948411014636	0.29524218961560805	-0.43603730091632353	-0.5049883710509241	-0.06846322847008748
-172	0.39789956707630225	0.445080815622037	0.5220311270885227	0.28327515649801005	0.7672583441436389	0.6024810060548704	0.5627153501608538	0.2142997676684025	-0.11803006350996706	0.4463078368362853	-0.00714799387438431	0.24909231003814034	0.12765273419575898	-0.2729653411172405	0.21020145661212222	-0.16553312498261225	0.10883626314341248	0.18246099306769636	-0.3902257671040691	-0.14317490124317053	0.04446862999298454	-0.04730494680978287	-0.00683999059857541	-0.6118351205637242	-0.026458000697450725	0.18167312397388324	-0.17718368723957437	-0.4144254018333914	-1.2225420444139885	-0.35351541549120263	-0.1191516366572933	-0.6912849528025553	-0.8693443514809588	-0.5120939003413035
-168	0.17474989548908915	0.2001930321168985	0.2874459020986707	0.018242692528800293	0.46427848817908207	0.36425638106886643	0.2651667886238074	-0.11258607329315151	-0.19454288433548658	0.22251047137825566	-0.2569088929365725	-0.004751747927738641	-0.13574193383754427	-0.3437642148398577	-0.00346550810207168	-0.4748998272349837	-0.09097071714083112	-0.0636597646655723	-0.406977354452675	-0.33955058369738944	-0.3266275814869749	-0.22662222328189882	-0.1976280207412716	-0.5804282412179702	-0.23383027256103303	-0.13998998666228343	-0.38013219737399867	-0.5437878952602158	-1.3713737691587689	-0.7290418129634235	-0.45292159800618687	-0.8464905598249445	-1.1432641715749001	-0.8448114969858609
-164	0.2049968386481203	0.22568683269263906	0.3386469474825536	0.04542367148851907	0.4053668667572325	0.40968650476016616	0.25236678059757633	-0.07339318823165787	0.0037668684868032622	0.22553624155799423	-0.18381676031433442	0.020747231267164976	-0.07712320963938143	-0.19302791308305542	-0.014173628726579415	-0.45609640959981	-0.03192397571490714	-0.02829800352760207	-0.2642356448654772	-0.3141909233743772	-0.3996486057681754	-0.15317729076812597	-0.11098045082682645	-0.3485369077465853	-0.238296731704839	-0.2648515694607086	-0.3239898077414221	-0.35531023055014777	-1.2668861118755776	-0.8608801939209993	-0.53460967405765	-0.7528119664259011	-1.1590187520328654	-0.8889557696786676
-160	0.49995642774240057	0.5275338278802938	0.6668890101761609	0.3787043383096868	0.6244589670627665	0.7518506627173906	0.5483260736926666	0.32589927233430316	0.42075875295265514	0.48331671831175554	0.23607282280923922	0.3501193812590542	0.29585236236263324	0.17169421867891002	0.22538272979576282	-0.06556026621001793	0.28974723742763825	0.2857073240219292	0.06340192242350555	-0.017791621342085326	-0.11253926129537922	0.16580064552884996	0.23569273889162737	0.08559133090820839	0.022934140579613838	-0.11373709113492245	-0.021841108743837215	0.0994135064356925	-0.8886436797594116	-0.7083557826277723	-0.35676729589032585	-0.40458816187753044	-0.8938823319754944	-0.6343896969037216
-156	0.8626310207522113	0.9009072757863409	1.0563845607789304	0.8132930973500136	0.9390633678569066	1.1837773293171578	0.9434254145644909	0.8355812409285377	0.8217266777272805	0.8136166313610377	0.7744141201494371	0.7827463130261969	0.7555123548506324	0.5640144929950982	0.5541198239641411	0.472910760639206	0.6729215366540028	0.6715443713399444	0.44321524984992217	0.38347208403091054	0.34176924738426223	0.5327991233725239	0.6336358173585058	0.5650663957634385	0.40379053252315994	0.17752987101555578	0.3253775826822237	0.5797773584986663	-0.414090572742211	-0.4397921849114363	-0.1083289084083653	0.012386929212529034	-0.5211384879306202	-0.27586972643820046
-152	0.9880756710855184	1.031231877584378	1.1902452677239845	1.020489451692921	1.0356069777091352	1.3749079669571578	1.0985830994526016	1.0869998904440656	0.9041928626119994	0.9077889300315091	1.0598251792852582	0.992915329810482	0.9712904071126994	0.7005863768055608	0.6762965900512433	0.779623029647852	0.8151147941036846	0.8286293128073566	0.6332138760792061	0.5813032374010638	0.615193782683693	0.6607824547296949	0.7919388989481173	0.8309703448296444	0.613761900305869	0.33118823087044935	0.4311480809293543	0.7764029483266363	-0.13643509115104843	-0.3405210367188498	-0.0724211705882761	0.20735792763332428	-0.3263159386025536	-0.11297398777095097
-148	0.6589359624438601	0.6917400342642664	0.8474121072354901	0.7470473032210035	0.6656967980743735	1.0725947591404084	0.758417187206427	0.8167324641588045	0.4859936821111492	0.5255268202864841	0.8042771199901169	0.7341439109386706	0.7143489104355171	0.37843707108318875	0.3514288058944964	0.5541381821946856	0.5059034215552056	0.5559568391114806	0.4327831555407046	0.3199815742043312	0.4253473569144587	0.35656002073864274	0.522585986725336	0.6756924373733253	0.40410163896577966	0.11596855491922842	0.10655844929733006	0.4994462417867337	-0.2787382595654186	-0.6191948636634289	-0.43728780636055403	-0.03035060122396929	-0.5237049447188793	-0.3583995392810565
-144	-0.08342944809592141	-0.08122874030824188	0.07183111440881187	-0.00021660840084104628	-0.16566912788048513	0.28824749516190873	-0.05447987825824735	0.056333865828143814	-0.345004110657345	-0.31872031012174595	0.01028339282807183	0.02358919003610609	0.02565436244984402	-0.36186802295874654	-0.4174904514739378	-0.20905308372645653	-0.2094329888301345	-0.09214860177616672	-0.15727554221976162	-0.4077574898438481	-0.23857335686054318	-0.32725042022098283	-0.1143362593744337	0.10034148369727704	-0.24060158370783938	-0.4690113055785556	-0.589423714580116	-0.18080161466250022	-0.8207645395537453	-1.2356706826483588	-1.1392184467163402	-0.6639299971984022	-1.0881772013846966	-0.9741902922829901
-140	-0.9064528919222419	-0.9509504413437404	-0.7972511032956672	-0.9041383839668122	-1.1428632707351531	-0.6517633779282777	-0.9903075073988533	-0.8342348316111057	-1.2223609655036178	-1.3007235494198461	-0.9737351512166345	-0.8133453110187051	-0.7616133074605036	-1.1975758045478229	-1.3226636614784053	-1.162317511484986	-1.0041264270226247	-0.7917580584563253	-0.8734093882443772	-1.29325759084342	-1.0578254434580927	-1.0729838582605196	-0.802304146648388	-0.6286896451335975	-1.0330311033870254	-1.1376672954446219	-1.3332464661315568	-0.9336399412424867	-1.454997059009591	-1.8665902567466632	-1.8436471177283562	-1.3725521529830031	-1.7157951550079384	-1.6446554619273561
-136	-1.3422845568146096	-1.4341158830674379	-1.2818081346574224	-1.481101151541646	-1.7777891114172757	-1.2510646550063433	-1.5288877448581912	-1.3387312855299405	-1.6714367824316392	-1.9273004483200693	-1.6123655993761286	-1.2939755883925717	-1.1859592169382969	-1.6661814409150615	-1.8856751871184003	-1.7676794484331566	-1.4257011377578725	-1.112171647124898	-1.2966135707543807	-1.8462703181382982	-1.5372694691946345	-1.4510527812561826	-1.1279125185145993	-1.0902043553483898	-1.5103788337721091	-1.4526822530309382	-1.6924567179864791	-1.3334912028023869	-1.7314780906830645	-2.0622010178952497	-2.106754059240894	-1.7007048087096732	-1.96883010367176	-1.9318722437720885
-132	-1.0539766523453735	-1.1715407341942436	-1.0324677202860308	-1.3498644794715584	-1.6778820710735085	-1.1157170505964764	-1.268469568864683	-1.076768753194201	-1.3743879760374502	-1.806537623612759	-1.4785145483835036	-1.0505287620724013	-0.9237011051698626	-1.4224526846258152	-1.724179859576613	-1.598934884802799	-1.1541624040074068	-0.7708922605124854	-1.0832900973626116	-1.6690639215291216	-1.2920983997147548	-1.1674815386859985	-0.8247402885595156	-0.9387386417529902	-1.2990846601112398	-1.0860097380875569	-1.375197764739324	-1.1047555180313782	-1.3221088614462366	-1.5160005054345516	-1.6361447531399447	-1.3218182291990457	-1.5341083964715974	-1.534919496475653
-128	-0.056576359874219655	-0.1604935373784155	-0.05356051014252082	-0.47069114327801925	-0.7900591472705817	-0.19881884703507138	-0.18225304736376124	-0.04784076276263845	-0.3767296960379084	-0.8920466281303366	-0.5159257041303047	-0.0664442552438693	-0.0012929711923886425	-0.46190696838106876	-0.7964608649172302	-0.6082505568406272	-0.21141865796116854	0.1708773370243257	-0.1886804099087596	-0.7121523004671555	-0.299874513584244	-0.26036778026647794	0.043707344570674114	-0.12487687138977144	-0.3627537777801949	-0.04916543128594345	-0.4271240223591155	-0.3015355460183285	-0.24876339670793896	-0.2872738532919609	-0.49734979742366425	-0.2622113817270485	-0.4423677314080007	-0.4994560467507745
-124	1.244167443948928	1.1942760914213881	1.2520105807165407	0.7904642800400972	0.5279187546752815	1.1302857370449846	1.31320333149283	1.3212754693050914	0.8929335452423551	0.4477609980722404	0.8889999963249793	1.267898794787755	1.177766558534604	0.8274255374045121	0.5269513712930193	0.8042030910214928	1.0082713340098406	1.2973183360724254	1.0544862720569164	0.6462936981096288	1.0378791067622366	0.8784367419952647	1.0794775458738244	1.030075547478655	0.9218670106501097	1.2532551256963087	0.7488960604833342	0.6912482363414664	1.0705109807643216	1.1668319672688763	0.8660904147215961	1.0568823787708375	0.8925600625391356	0.7563753705001564
-120	2.241388792101047	2.2642190399224345	2.2675650062530983	1.8324457360732873	1.6718368488063615	2.2542061748811864	2.5419132645326035	2.376795524318382	1.8265037490506306	1.5983123738943368	2.0882794804301157	2.335147374933177	2.0292026945380104	1.8410885287531875	1.6308770138572848	1.9793015668487521	1.9270180415138365	2.0414946027711367	2.075576300149078	1.769527311625818	2.083787674411183	1.6922407107543584	1.7491477683728278	1.9741694877372589	1.932678336985996	2.2062115613549	1.5861357410439152	1.3565932478032638	2.0137641379058464	2.1986417714875373	1.8383619738894659	2.0126454779355263	1.866176838931545	1.6417789417777582
-116	2.444682830360362	2.520777219130034	2.480983012611242	2.1342666095254352	2.1040999836250363	2.625216000604633	2.9109003470360593	2.5797538692191693	1.9557654808257166	2.016768927250677	2.5093941625181486	2.6111826830741456	2.1010150856378296	2.0723555035721266	1.9754362056448271	2.3446094930580914	2.0889770931908056	1.9924800345660292	2.357788556821814	2.0936269707272834	2.3017065466942426	1.757122512195772	1.6769949155429114	2.2118289414829295	2.1293120330456348	2.3085269869693814	1.6571385818604387	1.3335444893546815	2.087811464760521	2.310178035625491	1.955581898520272	2.1109800285447995	2.0074989745000336	1.7127883391051906
-112	1.7484521821700552	1.8210391952314195	1.760735388125066	1.5395518502466112	1.641133185057892	2.056811089091109	2.2238407078863185	1.7989306404471503	1.2094877927761098	1.5224811992353282	1.9606910894482295	1.9472711037109325	1.3260354962248362	1.3911238873645198	1.3902839387124657	1.7232210592631767	1.4102209770837604	1.1309750051554268	1.7237935022701543	1.4376440011920752	1.5527332981961193	1.019864795017252	0.8640019275785841	1.5812177618159144	1.3578989471484169	1.4563333951420814	0.9154331661000084	0.6283053739897007	1.2152945964647572	1.4360675775510356	1.166706797515164	1.2694268194573588	1.2516779867995336	0.9297956204781143
-108	0.4944643961820173	0.49029645199965405	0.431116103037513	0.3455395689823328	0.5490737543548414	0.8227607587068779	0.788218019402763	0.38741460344730244	-0.0412450618000582	0.39287015696517524	0.7312005739824483	0.6518280489676958	0.06565636379831442	0.12550583450101457	0.17250636176424664	0.4288876939912441	0.22689942958288808	-0.14778159521461776	0.44929718857815804	0.11237745703696435	0.17800253584743128	-0.16416406590022284	-0.2997404925408049	0.3600476375072574	-0.045510690544381144	0.018030464603677892	-0.26724848083733216	-0.37862583899271585	-0.19524078021823843	0.0013381410356353813	-0.12270443110480528	-0.11461683333784428	-0.002703255501269962	-0.30126163287395474
-104	-0.7123939376964649	-0.8508172609782662	-0.9013146735323521	-0.8599511959298757	-0.6105897411189316	-0.4965094613414201	-0.749541876807845	-1.0067923043581182	-1.1825358837789102	-0.7947251180611083	-0.5747507796081589	-0.6796897632604497	-1.0866490575058034	-1.1093512745505367	-1.074971077112314	-0.910634455765902	-0.8920779205687647	-1.2461008994112708	-0.8708518125481672	-1.2435215680197726	-1.186188217982946	-1.2235026328667633	-1.246200200749216	-0.8714128114633768	-1.4237445556934154	-1.354511257566516	-1.2998627391421733	-1.1433279485446488	-1.451885696560171	-1.2937878337620032	-1.2617461649509938	-1.3634628023055733	-1.0995006533519573	-1.3413282598962475
-100	-1.3318138088933527	-1.6189091164723397	-1.6733866887758981	-1.5223287305543776	-1.2963745561294346	-1.3321998085719435	-1.7488743022632889	-1.7901657774550583	-1.6915489392488419	-1.484688278264462	-1.3720669711757565	-1.4900871477652964	-1.6315625864797605	-1.7428004697667219	-1.7745412543316648	-1.7000584559433607	-1.4611476622884347	-1.6918545918664782	-1.6357200104423475	-2.010683054615896	-1.956694240398262	-1.6860532718051364	-1.5459361037323847	-1.5398319920763481	-2.1504435484952125	-2.0771052784929958	-1.698124881271729	-1.2699897257211965	-1.9493585775749858	-1.8490197611855557	-1.7080740885525176	-1.8821531486675147	-1.4849356375396552	-1.6706817107935308
-96	-1.1687635153825908	-1.5678483208172593	-1.6545811849781626	-1.4148037397903908	-1.27610063230672	-1.4232879841155888	-1.9007162999802054	-1.7298107103543274	-1.4103801214849088	-1.4382812940524046	-1.4015464747329196	-1.549798842331946	-1.4284759723837404	-1.5488197764393374	-1.6804857211600135	-1.6886317687316097	-1.335599538292059	-1.3896971905907782	-1.5520470103179083	-1.9173279952278768	-1.910276527350172	-1.4318698608486822	-1.1431016893136527	-1.38349008210883	-1.962005610280787	-1.9424542139602154	-1.3470264639223883	-0.7376804929228447	-1.4946802816800915	-1.4833056889277427	-1.3195714917245547	-1.4772349558726963	-1.012006161042037	-1.1754313677674895
-92	-0.44639342910596663	-0.8864313937695137	-1.0353478167143062	-0.7334078531821977	-0.7221551519281068	-0.9209377146357628	-1.3504794801947981	-1.0424737903977919	-0.6029469355619034	-0.8320270755741993	-0.8333231189669232	-1.0437976095549109	-0.7435889821352221	-0.7424195390076814	-0.9838479732469186	-1.0693252059641538	-0.7600683550718261	-0.6481108053056636	-0.769436119044299	-1.1596000165272475	-1.271678802140577	-0.7352912407430554	-0.3691162755706802	-0.5769636020398584	-1.0784256431054842	-1.207756039431178	-0.5458338842916102	0.09440761780745056	-0.39924082059197413	-0.5133219348345104	-0.41397458210377097	-0.4469139266651536	-0.009774144714235239	-0.1992321605420616
-88	0.3578035226371298	-0.05073247464603505	-0.27660065819523566	0.05154881240823715	-0.06951306742760764	-0.2543328994051734	-0.5629978165717312	-0.22821973206597435	0.22745858075411432	-0.1143678498360849	-0.12163361876295774	-0.4184782196446617	-0.06383029355384415	0.17355729595711178	-0.16554984408542953	-0.32165875949710904	-0.18980807018041815	0.025370178680143348	0.2317205214610511	-0.2542180412549812	-0.5432530031793519	-0.07990542779060208	0.2673345201418482	0.3889280249789734	-0.05153064416749742	-0.4176078428215266	0.18408997310413383	0.7035211306929572	0.7109420877626915	0.44749703890351905	0.4314631808831638	0.6037274583832665	0.9186697579077852	0.6660603864065855
-84	0.8072045425062244	0.4734275925127486	0.18159526540684195	0.49190705890438585	0.2695054107060541	0.15172108969529496	-0.021078180468509317	0.24312548277983628	0.6463272555245526	0.28526768016317594	0.29194182083808257	-0.08929333068237767	0.20705272205052247	0.7158602458046261	0.30807641070785385	0.09849965547488405	0.002136263292477209	0.2352990800162022	0.9302316880581901	0.2836677126875097	-0.18488275958112851	0.14022143149736194	0.3879653205613142	0.999651310304187	0.5669366703024787	-0.069591171863808	0.4131861020623504	0.7148834448885132	1.2571656672208593	0.8514176585635729	0.7217887025729529	1.1144359083649087	1.2514904705875438	0.9287443733608649
-80	0.7509205918426637	0.49351072186801886	0.17164954499776364	0.4222184110948744	0.15384556314249923	0.129234268935075	0.053740162266710564	0.1990672046880622	0.5339385853638182	0.2124249929786931	0.24086016355738338	-0.1927549536129957	-0.017065979497260596	0.695323882731628	0.2590395205633343	0.028809521274547268	-0.2507563525067784	-0.07452312838097332	1.056447980120811	0.2401843362943039	-0.34199505958042364	-0.14942915699901702	-0.03643815955260622	1.0064249013286504	0.537475048138703	-0.3243787578499219	0.05069051670150941	0.1215424683601651	1.0297790739762906	0.5257532583314141	0.32478940404906514	0.8819678999567778	0.8458052256210473	0.4776694166521244
-76	0.3765757670431646	0.1668239827712538	-0.13673286105443327	0.030801441442686334	-0.22332003656271224	-0.16086223680890402	-0.2054560924349552	-0.17024116175108295	0.12630134789050085	-0.14366973900284646	-0.09361168718545192	-0.5306198583557482	-0.47869366286535875	0.29894336982591374	-0.12101918428384192	-0.3289909056463523	-0.6871484500702317	-0.6114883407412965	0.7174897771840264	-0.19601625154596958	-0.7821132520956359	-0.6780659539269336	-0.6853563768249393	0.5443367348279219	0.043725978472699975	-0.9302020645498115	-0.6194366201020275	-0.7175418120387839	0.28477343844994624	-0.24980644818655245	-0.47209021329897727	0.1530279811333406	0.003750205496170956	-0.3688151231037129
-72	0.05395985008563681	-0.14043296838113573	-0.3835867931694912	-0.29004004524435806	-0.4847260701339114	-0.3680469980484318	-0.44391026980857085	-0.47342324137369096	-0.1615474518035119	-0.3988264789048641	-0.3302080622919151	-0.7284154277530605	-0.7641146163721877	-0.057487618032986916	-0.4193716336629444	-0.5670762643801902	-0.9034595466691793	-0.9380300617376893	0.2936210028864553	-0.5792861566223124	-1.0661762925886202	-1.0143040393016163	-1.098232028095761	0.020905425719289758	-0.4511431742245136	-1.3966367209458772	-1.125881907481518	-1.2945711580016637	-0.4304255236248889	-0.9329444742490033	-1.1521924705025537	-0.5452318773808986	-0.7235189061971246	-1.0661395761275312
-68	0.07608036677702412	-0.11370672256848606	-0.27624949743142807	-0.21444378739097741	-0.3315415970061081	-0.20649987407046533	-0.34871712238960867	-0.39515495200525935	-0.014272882567073318	-0.24011991857462553	-0.15485677083972188	-0.5014217483258592	-0.582828520257015	-0.008419081547461819	-0.28183185983074033	-0.35130700380320534	-0.62617695173479	-0.7585824708859719	0.17800037517906364	-0.5026276098912656	-0.8415737726898362	-0.8436857440628304	-0.9637815927967879	-0.14995394609261697	-0.5077230321463148	-1.306885119953301	-1.102708217697802	-1.254367705992877	-0.6129012688421299	-1.0559998724025212	-1.2876934972676852	-0.7297182064706269	-0.871748385612615	-1.1733827561317316
-64	0.4663541305211774	0.30045056267222137	0.21124376303267792	0.3000119916970713	0.2522395842859468	0.34342685255128075	0.13240528073260333	0.09168266481855328	0.5798221811914241	0.36251303462055495	0.46609863521199274	0.14612308107676866	0.0398888363427146	0.5274717198405947	0.3548550000768251	0.356919734768954	0.10386397663357784	-0.10772149237615407	0.5257567154008024	0.14309701287380694	-0.07063513976383261	-0.1646309937850532	-0.3086680762127229	0.19796207497207186	0.01646075952367476	-0.57458853576549	-0.5060344921687359	-0.5972961172282394	-0.09787058805551282	-0.5035343157452996	-0.7893078903297295	-0.24364651678082488	-0.33390620266534493	-0.6082945450683604
-60	0.9667626594930578	0.8613654949375353	0.8172031024327627	0.9788822506985734	0.9772844289901136	1.0094623540187353	0.7509205918426637	0.7070443016320905	1.318515655049669	1.1261001796901344	1.2538163630300967	0.909942267027873	0.7725901584192704	1.2953698602396373	1.2152137725666459	1.2680544821195152	0.9458745694121282	0.6705788953063102	1.1601232260977647	1.098310825435955	0.9397847032661573	0.7109730225732518	0.52277999984359	0.8878755547041305	0.8827037788993168	0.5032864200283047	0.3688696315512224	0.33057433283313514	0.8562704899149987	0.42890858541918514	0.05529472962962412	0.6632497293892982	0.5894896969217157	0.31750091830200966
-56	1.20560729199245	1.1899664371964291	1.1564186782250379	1.3960493767777433	1.4176322185964207	1.3887559140428616	1.1148916454777107	1.043318984258573	1.7676664546206284	1.6193336207513582	1.779657478607688	1.366206165679079	1.1795561283848222	1.858397002296524	1.8449161006124204	1.9342063616555998	1.4604383670173984	1.1346186370813471	1.684527392902739	1.887508029940616	1.7187501148698627	1.3465365137435716	1.079445359365727	1.511935349461844	1.6179164607207566	1.421133514630977	1.0719082328436187	1.0469855043680292	1.7314245657121914	1.2203817336742033	0.7677326183009193	1.4927661381226074	1.3800348008599244	1.0945719452879241
-52	0.9312821603150594	1.0072287295660618	0.9598096584882736	1.2296316592642529	1.261442300472696	1.1900031536575182	0.9375431513957485	0.8237341621582472	1.6171544749438718	1.515243884075683	1.7160003141947373	1.2264307706386064	0.9853955482399597	1.8556851101753802	1.874225492513824	2.009724373511749	1.3689864839322523	1.0109288666950864	1.7225813822170621	2.0942344612653008	1.903516406975394	1.4364646636935268	1.0696899863892582	1.673014875002728	1.7942064955234698	1.7530233815756284	1.26326274552883	1.2099044292420378	2.0536251016266185	1.432626124579683	0.9665541624461599	1.7885628893518055	1.6063710410569128	1.315249201314935
-48	0.1651912029387215	0.30508893651228675	0.2390478843375632	0.4514667082355376	0.49039393539593806	0.40614637629963696	0.21897973064925488	0.07671060393754611	0.8550206997265036	0.7777215222750283	1.0217602227163238	0.5087141977817822	0.23947755931950296	1.2067714899112638	1.22488403011059	1.4430646859928424	0.7124496084345445	0.3513372829626748	1.137514707554382	1.5908112485775818	1.436737295338041	0.9726313328028259	0.5214405046649346	1.2077764242196396	1.2702082363483913	1.380123373361837	0.8977608062012369	0.7961659411356262	1.6538962084021334	0.9535749530558641	0.5804228171953093	1.3832716906909244	1.1589883536641068	0.894971845274593
-44	-0.8120167830946606	-0.6481785161819575	-0.7187261563274807	-0.6564858539219087	-0.6124136432444536	-0.6809137446378222	-0.7464272361029707	-0.8757847525419689	-0.23470981359827925	-0.32152664580229795	-0.04015264277453413	-0.4726245987403619	-0.7126587611325333	0.14883312545392913	0.1465076204415662	0.49414250129872056	-0.17975966586981226	-0.5058199154480861	0.10630150112493268	0.5959995373937138	0.5800005182881419	0.23066070617613685	-0.2506018572679106	0.2665032737679093	0.25964239174139286	0.5328246341604234	0.2284908437920507	0.08781812317849189	0.7430456261948214	0.04176190857476189	-0.13078965213656185	0.4683234083749396	0.2865847043908078	0.09547342335914961
-40	-1.6227391917266467	-1.462824221732444	-1.5152522287259307	-1.6585565763560652	-1.620626683911851	-1.6582413869952888	-1.5354269704199894	-1.6018234450906113	-1.235927459457403	-1.3544751371518733	-1.0525559160360942	-1.285870429607188	-1.4265243971094317	-0.9017825103880129	-0.9261025166971553	-0.4209451962810418	-0.8832390882126931	-1.1374855012785159	-0.9831443404171216	-0.45872819307857804	-0.25068643625863335	-0.4036142219843595	-0.8393965342309777	-0.7825879434854286	-0.7990410903783977	-0.36078232435690394	-0.35856354146074193	-0.5110523687811279	-0.22678054811918372	-0.8384987094689929	-0.745461521650758	-0.5357446657005974	-0.5694846496509041	-0.6468750222086554
-36	-1.99624752494348	-1.8404506398464118	-1.857912178117145	-2.193482631867384	-2.1865627710450113	-2.1998300496827796	-1.8277349425900027	-1.7979723169708712	-1.8176132394676694	-1.957816238228681	-1.6623699623098773	-1.6147720772982146	-1.6001752574574435	-1.5700185259280521	-1.5994929034857774	-0.9544875001650713	-1.1110515566431067	-1.2711198297832846	-1.7385604337666847	-1.161534902501061	-0.7168204766295333	-0.6525418145870789	-0.9752842759304357	-1.5532325466994974	-1.481042500571335	-0.9145551300800389	-0.5672347531302478	-0.7058261615098914	-0.815945802059045	-1.2778513399286426	-0.9248747206225268	-1.2139530151235398	-1.026824352532945	-0.9700325106925354
-32	-1.8919719409858644	-1.7172939734016763	-1.699476476193243	-2.140440220197104	-2.196906322654639	-2.2155244294496734	-1.5657811125323784	-1.4403870069377132	-1.8761924457864458	-1.9944046685409673	-1.7396764711326416	-1.4081499541016236	-1.2188855378848291	-1.6937922196539446	-1.6992753701222787	-0.9881845091666035	-0.848162470106673	-0.9144841409482906	-1.949079508628852	-1.3124943938496614	-0.717137692548227	-0.47873985646494305	-0.6549434645329502	-1.824253912134619	-1.5791495998567195	-0.9673867797269252	-0.33671063099726894	-0.4535372543805175	-0.813700316282091	-1.1209697695086906	-0.5839962348498615	-1.3540494407799621	-0.9457414722406808	-0.7613589744418892
-28	-1.4809874258797016	-1.2625944582532955	-1.2277934520240208	-1.6387506682029453	-1.7843778088341125	-1.8547694636246523	-0.95625632759896	-0.7682964782390709	-1.5346221885082638	-1.5751218756008363	-1.398187037752571	-0.8688812233922233	-0.5288941250799234	-1.3595174516685615	-1.3101948466600326	-0.6493198259172351	-0.3197246483836756	-0.3143517069032529	-1.6523634153609592	-0.9770405267843084	-0.39300253888088715	-0.06366433187146668	-0.10463755551384214	-1.6101206500409764	-1.1666007012477315	-0.6147173031545615	0.16518069762010634	0.05614625275860635	-0.3035610906566166	-0.49989747874886653	0.10133487705633741	-1.0041743491569033	-0.44977766161847943	-0.16863654511313594
-24	-1.0184135411299249	-0.753571866040224	-0.7310352306982588	-0.9736106967186576	-1.2126964300055576	-1.384581443151912	-0.33063191091984284	-0.12831488219289702	-1.0262539360838847	-0.953928527807779	-0.8893873669103965	-0.3089518837281044	0.12453289298564113	-0.80679684673699	-0.6817719323111315	-0.1963008935263758	0.16782988565510482	0.21112245267970509	-1.0684123012270788	-0.3965012123110797	-0.0004399119923426081	0.3331189147168169	0.37918457293142965	-1.102458235818245	-0.5079337345650637	-0.09725560223343423	0.6740123016506385	0.5457881079245382	0.4337277699487201	0.29025375769766065	0.8307608345037878	-0.3865411271826468	0.20029583522771532	0.5315343128135834
-20	-0.698800562047954	-0.4173012961342207	-0.4337660361305693	-0.4137772013230956	-0.7215669732949482	-1.0315319273654198	0.03886763369164641	0.2147343004288792	-0.5542592988325634	-0.37811905050179256	-0.452075569680381	0.028187477890016053	0.48491757985709116	-0.28114613819665313	-0.07730910162480535	0.13967122102282944	0.40311893718984887	0.4514780331180163	-0.46200984599769135	0.16677984553190903	0.25429740483929925	0.5322147594366213	0.600387988958867	-0.5424850569380046	0.10535817566735724	0.36089882163482334	0.9876303647855258	0.8147091248923675	1.0964896651240859	0.9730122660866236	1.3558807338814178	0.25196084316535844	0.7754882554502225	1.103765723302737
-16	-0.5803629145274614	-0.3329167953668939	-0.3995664109632377	-0.09659363305023005	-0.4232485283656043	-0.8811548329994495	0.06164418890409773	0.1919794226806199	-0.21142001396683377	0.01762484009584427	-0.20562753029405756	0.07506151478412834	0.49178075666242566	0.07515262793401807	0.34305587324313536	0.2629567676104052	0.3613896062786648	0.3914504935394993	-0.019292585503029643	0.5538479075753623	0.31536352554808295	0.5154307471613394	0.5458565936612123	-0.1062024009526632	0.49323209995671974	0.6622075421780318	1.0564024421723177	0.826102671921707	1.507354136475974	1.4159167969241162	1.589051361840387	0.7551119308480423	1.1823462217997138	1.4562908374258192
-12	-0.6092459544058632	-0.4400834430073959	-0.5462981448685935	-0.014329125137212349	-0.2985341243359192	-0.8825692512163985	-0.17058634714926693	-0.08473090061014502	0.004977268619934969	0.22447782698222868	-0.13660009170853132	-0.07332393508518431	0.25862428480655486	0.24109370945618488	0.5498718605463688	0.22032588664694716	0.16976878004126944	0.16846929448031844	0.197937860585193	0.7406277637856122	0.2645516984936007	0.39164107939068743	0.3438546350857537	0.138122647651991	0.628618059955403	0.837530312807772	0.962169823601486	0.6764151436894023	1.6515133339193189	1.6361632305797782	1.591447945391465	1.0789517136989435	1.4488666021006305	1.6260204274132477
-8	-0.703896639954094	-0.6246849282705395	-0.7426445465411404	-0.08306350538024682	-0.26879391006316666	-0.9319660640074855	-0.4826764750215171	-0.4353051770663959	0.12006247758354817	0.2991657547550093	-0.16143025417101817	-0.2625153356123132	-0.041301496222647116	0.25999212199372945	0.5942910298601856	0.1263361868052841	-0.010529695052145658	-0.051913421469988265	0.21914634053214263	0.785256681843864	0.22608780803819195	0.28984397576586446	0.14534372054597572	0.20078962990611032	0.5851452335842958	0.9648781394439523	0.8223075845937948	0.48940098162113177	1.6131343800825007	1.713191743340012	1.4751788340517156	1.2361988990090247	1.6302639204826732	1.6845203595546732
-4	-0.8234341719818501	-0.805697558276173	-0.9033051706396007	-0.223576113017182	-0.27314254572571034	-0.9586756205196402	-0.7309364061974707	-0.7287586312968106	0.1260589208996502	0.2959032349268206	-0.20020475933072848	-0.38477823041089837	-0.2886174909934178	0.17299115614130328	0.5416755066547092	0.07797935585361239	-0.09079863108121844	-0.1847817893131339	0.10512140366716538	0.7550744395265732	0.27299368312575967	0.268180161037464	0.023281950444806448	0.11918003081987648	0.45538800839844307	1.08600127422802	0.7034621816994231	0.3262684337007875	1.481862779690663	1.696930046565578	1.3105337586693697	1.233688351377424	1.7273186401625602	1.6567232566966925
0	-0.9746142601202071	-0.9663716530243185	-1.0217856142949342	-0.3990532745776619	-0.29828485771209784	-0.9565222835232763	-0.8623656012696966	-0.9330320334719573	-0.011987967386377389	0.23877219795501184	-0.21199268049122869	-0.42151167882355695	-0.46150025608847073	-0.006705278979448981	0.4375840116420175	0.11401744158091567	-0.08451671131968543	-0.25282081897800657	-0.09186905599287593	0.6881856304913496	0.3972514559729734	0.2974211566091607	-0.048340752598784155	-0.07184901815394107	0.2997111074510048	1.1827305525482552	0.6019352659286848	0.17034664707090788	1.2991607156377811	1.581113096059953	1.103535291746617	1.0576268407822025	1.6814790921673322	1.5134226045545245
4	-1.1652452916289613	-1.1220415802283357	-1.1326776714337818	-0.5980098232429779	-0.35387197047534885	-0.9523633098399291	-0.8962652064583088	-1.0815200778358305	-0.30107033176703113	0.14072757923835547	-0.18251606775932977	-0.40940174357047066	-0.5981327280201945	-0.2704339616623432	0.3165138951893436	0.23077443183808116	-0.05525354282018831	-0.32867917335496405	-0.32892405903740546	0.6049644931778116	0.5515193925284458	0.3183805338450617	-0.1357507702261099	-0.33362993513750855	0.14868079088342903	1.220997568862468	0.49145379538433576	-0.015797775198866815	1.071479437030187	1.3508619035947116	0.8467771985609456	0.7136890274148747	1.4447619878531812	1.2338867156347355
8	-1.3517944778645128	-1.2628687588278593	-1.2439886300150533	-0.792655287171864	-0.4264263797961033	-0.9485508179557863	-0.8595477916950542	-1.1972242563538251	-0.6676173193288326	0.038544822386938515	-0.09126820392215401	-0.37077683116760773	-0.7211509328754664	-0.5741685018348183	0.22754967155226233	0.42497715246669343	-0.03391312054178086	-0.4469567526023166	-0.5525659308787699	0.542576669276793	0.7185125928857897	0.32029232301908317	-0.2617128186770835	-0.6030147656474865	0.03654452776622965	1.2163749902532281	0.3890214850617452	-0.21615284626746842	0.8217174390073636	1.052721378529573	0.5881854876926782	0.27853178907643794	1.0613102886107324	0.8780910946610848
12	-1.4298453294893527	-1.3223268952362746	-1.2952824798306173	-0.9158848500969758	-0.45526096109842507	-0.889046130319919	-0.7316110711699799	-1.2375954358325862	-0.9572757458359797	0.005978324901119931	0.10656056526221425	-0.2664006047675429	-0.7854343036848462	-0.8239055851161885	0.2428115153142746	0.722761331163942	0.030098641215268954	-0.5525940642710329	-0.6894987804170809	0.5723584279868492	0.9501587724538324	0.378133206604891	-0.36131593493790837	-0.7883491496209378	0.02463416003921845	1.2620421616162012	0.38179919027254566	-0.33219385063223844	0.6262896641177758	0.8200350979128257	0.4524090576670573	-0.09075070149635944	0.6891987902406838	0.6018339976374671
16	-1.2850093809109366	-1.2021628587888662	-1.1785929173276837	-0.8839516617391838	-0.3562250724381731	-0.6811619383780403	-0.44454422480880135	-1.1055273981792706	-1.0028887961816333	0.12466751007552647	0.4610665726941799	-0.010605536374495414	-0.6917510015188775	-0.9095025039598305	0.4295463253143493	1.1666221589197965	0.24457035897018858	-0.524936972723276	-0.6690382940566902	0.7740422467716223	1.3409076895237741	0.6156443937970573	-0.3124809257247334	-0.80087208545663	0.18359862221616843	1.4858485422767302	0.5859367832649145	-0.22944278957135503	0.5964528307160862	0.8173632601128699	0.5832015261230777	-0.21594573502855804	0.530179737659838	0.5864611253236798
20	-0.8733402468566123	-0.840290186667839	-0.8111687282109374	-0.6525094492650476	-0.07911733517937161	-0.26068186694132883	0.06061420946910853	-0.7208444457928052	-0.724124906619026	0.42938879023860566	0.9832198595018614	0.4603410947621279	-0.35858473091190607	-0.7694518546704799	0.8013605455193311	1.7695524647858496	0.6926648599302665	-0.2618322663849118	-0.4668088841573431	1.1795324057362613	1.9511933277458295	1.1155528994051793	-0.02198016079181168	-0.6070324763230727	0.541944085183389	1.959219689191019	1.0614423725032212	0.16676424401617848	0.8092632273269239	1.1327825756083216	1.0391174528589635	0.0015169972282718079	0.7055604440041536	0.9221543050372016
24	-0.26834633878667824	-0.2677804820929317	-0.20389269240876629	-0.25792068177908023	0.3495955458397682	0.3517977288424022	0.7698375563258477	-0.09463276690194056	-0.1864424492181895	0.8745455719802171	1.616433020325332	1.122515675571682	0.20550896175473746	-0.4348382640827267	1.2926146951464959	2.4796914991715098	1.357902761845673	0.24074357687249706	-0.13002639976097882	1.7344337658007243	2.742151491871289	1.8452551318310468	0.4992073165687548	-0.2578826540158095	1.0468980047497198	2.628617995301244	1.7502899125731304	0.8001478890244375	1.2431760994995267	1.7005089478474358	1.7248412327133709	0.5102612959376662	1.1691786021277586	1.5325479468753174
28	0.36231446174698706	0.38753378293422996	0.5223320113345893	0.18929879319558182	0.8311405756946931	1.0441690657002134	1.5717228611364564	0.6466462595825851	0.42251747739927986	1.3492000068932801	2.248802656218071	1.8499414874100353	0.8809592701604352	-0.01879346738481157	1.7804833605636106	3.1848800101932038	2.1089527553718175	0.868266461087562	0.23972986578020017	2.3102266730155048	3.570125809238862	2.6507432393860078	1.1242232294308963	0.13085073199614122	1.5732916553829839	3.323164931490186	2.4853215154841997	1.4911490641139336	1.7692576602135348	2.316414588801884	2.41613268242219	1.1222501964845228	1.7228622393025348	2.199912304092362
32	0.8368514159054944	0.953170237518861	1.1814684838029674	0.5545865879361987	1.2413991658339691	1.659074183089988	2.2890922965429854	1.302562233497235	0.8854290224608568	1.7303590730848766	2.758155815790232	2.460901730999955	1.4794962368804758	0.34192371282080763	2.142051691369183	3.7541294003117733	2.752256148065259	1.4353139364243985	0.5370323048384292	2.761873715103355	4.245371807823947	3.3216290390074916	1.666231747235125	0.43743428477471974	1.9790199945075442	3.837185849992213	3.0648677271710105	2.019529337552546	2.2090558949964003	2.7440159251551557	2.869753115084282	1.6063858230087797	2.128164762845895	2.6795325211584147
36	1.046730515698324	1.2881439891717603	1.6010528762449006	0.7412909250617089	1.4893734417505577	2.063744539772456	2.7482983996621657	1.6817074971655348	1.0620174381145622	1.9396989296577847	3.060634128472593	2.7961840558980775	1.8234384013868612	0.5548738227186462	2.3100838602869835	4.088345517326846	3.11806272673153	1.7685794785669926	0.7035310846686095	2.9951221867282047	4.617838371062026	3.6859280970019097	1.964079494285866	0.593915162971181	2.172940248725279	4.0367636578684545	3.34530138124814	2.2306475583024823	2.425473683909227	2.846024267640529	2.950362436475001	1.8067874862830267	2.24277400404213	2.8308482098632934
40	0.9966246460547791	1.3363778557415709	1.6874067740752787	0.7237633448447314	1.5480898579612608	2.198962921312776	2.844382517308981	1.6761617618203444	0.9444121098516116	1.9656964490852502	3.130317680084989	2.7807359625227734	1.8140724851583716	0.6040934309012633	2.2898173274402027	4.146445263884259	3.1255137841468	1.7732160046630745	0.7433556895561602	2.998948804913123	4.635148036698255	3.675428381223365	1.9437922190227552	0.606958685773027	2.1495859568683495	3.9199516674254613	3.2918791687823097	2.0988993591722243	2.3878810345443	2.652718298890299	2.68990492141604	1.7110736326886213	2.089539045780329	2.6780383519269577
44	0.7806647400219614	1.1346758575401872	1.4500954114542175	0.5391325937010769	1.4473861419374372	2.086943859553361	2.574026578126452	1.294718739101755	0.6370986087926342	1.8458806229717406	2.987037651149861	2.441537135635638	1.4601988755552955	0.53340518339907	2.133248562195242	3.9402258296667543	2.7985711027060156	1.4555255137888354	0.6975955349475723	2.829346888074481	4.345826614851817	3.3332078372723255	1.6309841830083205	0.5318640457076484	1.9729311416405317	3.596912851789029	2.966145507953097	1.7186878876208742	2.1740336363262784	2.3237609804611923	2.2446672859739953	1.4319362604227943	1.8163777543938844	2.3659267365803203
48	0.5206575380531419	0.7834389786013829	0.9857207511810331	0.25543212826134587	1.2453347413092621	1.8058956815901488	2.0296368547694583	0.6506888849996245	0.2862512164041315	1.6319733816905153	2.672011368681066	1.8835494470724976	0.8650657512758494	0.40181451934455514	1.8969494056492007	3.5133819491373757	2.237871641231021	0.90552121172211	0.6021189674434188	2.563183539594868	3.856115569869347	2.772875778826798	1.122830030467434	0.4240630258344036	1.7255706743542905	3.2084410109576926	2.4710693296986497	1.240473267284366	1.9117153834714173	2.0292708822514616	1.7831886961738457	1.1206070156415033	1.578105684110759	2.0465061612911986
52	0.31023242991322586	0.40477177398529746	0.43903839477318746	-0.05657134935878087	1.0034099791942335	1.4540938102249452	1.3651226724490875	-0.08037652800055617	0.007283934839306127	1.3671477998548631	2.233875745855367	1.2457272974987619	0.18793587339158876	0.24713079568934054	1.6161264140333815	2.9256839678330846	1.575329776601288	0.2610553198422262	0.46320113422748693	2.2563364448800804	3.2734231866206547	2.123760933282428	0.5475523458007907	0.3058047584919095	1.4597068988185617	2.8378298210974977	1.8978699397807877	0.7991149405330878	1.6984025197063917	1.8287502481065434	1.3818945849815105	0.8711059667528478	1.4219130241733815	1.776192064569196
56	0.1998083139381671	0.11441064597092558	-0.034003563139418574	-0.3270283631174327	0.783661601949057	1.1274770469809698	0.7550665717134827	-0.7066189032834026	-0.14427262508206623	1.0932415696198963	1.7367883876819865	0.6658682210323148	-0.39536809821443797	0.08628930874734658	1.3149588074863225	2.255963558223307	0.9431542134314477	-0.32143929519560016	0.2738848917721912	1.936216349481641	2.6747598580540095	1.4997482261939685	0.03964693089250442	0.17549754634894163	1.1852843731518539	2.4768323835781425	1.31389295723114	0.48162200925345794	1.552795644654397	1.6336517292738635	1.0034098599849441	0.6803113800992429	1.259954806961437	1.4989430866543754
60	0.21702630763096292	0.008863282367561195	-0.29522201344340254	-0.4763829100025405	0.6566880328764765	0.9108640528569971	0.35619896560382736	-1.0585511896110456	-0.15563335975453974	0.8714342095307972	1.2732677427569876	0.26135781341369757	-0.7253763061329258	-0.05662343636760246	1.0361864540641785	1.6101038415311921	0.4626255619766666	-0.6871502382095704	0.054683759670477124	1.62422918863298	2.1089513248603464	0.9980624888970656	-0.26861327818763087	0.0467568783771666	0.8967049099217067	2.063306564843752	0.7893924693204522	0.3416773370222506	1.4243171179096823	1.2811917034227116	0.5705937728780843	0.4840676474270624	0.9490833854555099	1.1257675857731275
64	0.3852273812104693	0.14848032556239432	-0.25593033368344315	-0.42197137964522646	0.6920753699949262	0.8643228985898892	0.2672893696235448	-1.0283563111090943	-0.028459630834728217	0.7811771015471571	0.9512011980836773	0.11210898281641263	-0.6957298499661683	-0.13066196408661415	0.8511627294985121	1.1068630190560254	0.2327364379251991	-0.7121171933314715	-0.12287110804291825	1.3565018142784093	1.6118870932890799	0.7028262001412754	-0.2641347043998049	-0.02369482250489743	0.6068444236692812	1.5550559719878625	0.4219460774735832	0.42439561975141055	1.244721409516072	0.6689662916459834	0.07510694097391309	0.23373383224602992	0.41943395031889974	0.6464641673932561
68	0.7082267385721593	0.5247020708188093	0.08288031795557275	-0.12016987770258167	0.917366919585574	0.9929371451104148	0.4875913548079974	-0.6143563970313577	0.22400848510929103	0.8781809188605346	0.8429281094250033	0.2323715531919666	-0.2983901195145054	-0.0778260601582177	0.8258334377419363	0.8296586850200287	0.2996503107134874	-0.35359516650571077	-0.1625293340155791	1.1739872664375173	1.2077654569650287	0.6656610352875987	0.10185793016466267	0.04484470922353565	0.353580116332943	0.9815645789159833	0.3164543799516856	0.758274016850038	0.9814633702294101	-0.1424531784037299	-0.36797433998663404	-0.04909395414116732	-0.24222895441887196	0.18305481924093311
72	1.128598091137075	1.0284427378438004	0.6003811940293797	0.37623554373164564	1.2684704033297076	1.216456052569918	0.8936265088407643	0.04805136832383996	0.5509340749182293	1.1342942686052986	0.9245513654254368	0.5431112633344338	0.3429722181244043	0.11503683746619367	0.960671482044905	0.7697972039814367	0.6171711667691241	0.2992233030393946	-0.009520782133741076	1.0870029898855862	0.8941426850632159	0.8673297144926371	0.7582109551360249	0.2970797114024269	0.1739995773213897	0.44074782617870734	0.5221151100327992	1.3111023869790914	0.6637334210804293	-0.9256042218680911	-0.5648344144865584	-0.275689213771954	-0.8124631026736119	-0.05893160387896011
76	1.4981281719530637	1.4516774379318516	1.0663664314049737	0.8911372996719391	1.575176711873891	1.3707141841613497	1.2605668274524455	0.6994578224642328	0.8389205315390033	1.4081532919617226	1.0540878746122435	0.8728255011456316	0.9829210614183568	0.3720147004271777	1.1525984973417385	0.8063408712056096	1.0313410732933308	1.0151525710224965	0.2889116101123194	1.0466912958421608	0.6312440617836423	1.1925334900311346	1.4912899694938269	0.6836032850172317	0.07072407734419354	0.049243900800592134	0.970248994761813	1.9452563475133213	0.3745008995614494	-1.3850774730044804	-0.36183258799751705	-0.3441028884306164	-1.0440738174781028	0.08575128742263989
80	1.6067384440863808	1.5504275521234496	1.2150422303994153	1.1724296778641794	1.6180520016826336	1.2663642136072422	1.3431274856988948	1.0370539400620493	0.9310534572936336	1.4905008039989933	1.0260820362887864	1.01224565250414	1.3312475647694162	0.5396761284554114	1.226341363671669	0.758312461845821	1.3241374459214006	1.4869006834636491	0.5828303680009984	0.9624221896668278	0.3638310423248231	1.458170887126578	1.9983370253654507	1.0580369207372218	0.009019584372219136	-0.10919987382736612	1.4732098542211765	2.4278669296002056	0.22680835368590124	-1.2959536281290935	0.24583485660474474	-0.1975100631495589	-0.796303270236842	0.6301170571630746
84	1.282924172023379	1.1633764476013921	0.8704717137293942	1.015164849579289	1.250434157075501	0.7972151020903138	0.9987575982626812	0.8507288076856429	0.7056943160359811	1.223793503532533	0.6953544599143207	0.819783506707864	1.1854174107186566	0.4698748874722035	1.0407448980758018	0.5019831048689365	1.320495006088373	1.469161029921096	0.6996766311146508	0.7749736289485311	0.08298683145551745	1.5076699218831966	2.0213894793019995	1.2523974148601562	-0.03717461964043037	0.00648193059715246	1.81445729274407	2.526330941497604	0.34694400342130705	-0.5948535784961554	1.10103368481171	0.16245867270937625	-0.09409651881541146	1.4209797346478448
88	0.5178746568002498	0.32826819933027535	0.06440229697656762	0.3998276283183063	0.5212070928765835	0.041857488347708215	0.29346337840374476	0.15287041625527464	0.17629215076759736	0.6323964579828202	0.10287690136684771	0.3271832755888128	0.5565920458092483	0.1308837529692634	0.6120713337703728	0.08851952083411543	1.0085663770007338	0.9251893735415018	0.563143728741773	0.5424349294318751	-0.10887247296502212	1.3270397152774764	1.5011531076677775	1.1908585995171748	-0.02005659224989622	0.4270620633310279	1.8893842649441188	2.1509814208083076	0.8623747207803242	0.6208229049267134	1.9830537984371792	0.7108837944202483	0.9144312120238637	2.2374105397002024
92	-0.4650149929703897	-0.6768473369675774	-0.9246714091797114	-0.43992093094382606	-0.2824859313985317	-0.7102519851872243	-0.4760591077706157	-0.7752077559926177	-0.45597213391576713	-0.02260192664221636	-0.47970214365008984	-0.22120860163151967	-0.2853439145036512	-0.32592722691263226	0.1708771284080695	-0.21785244290662523	0.5992370232711601	0.09605727320499229	0.27442854573581493	0.473115830419038	0.016393408137893764	1.1086143227243943	0.6606601459989246	0.966842231693632	0.21104010886315577	1.210688587946723	1.8094794704528658	1.4595143758164233	1.876516933471784	2.1676654760945535	2.7549321581903388	1.4463686906536901	2.0634527154323727	2.9375286028129453
96	-1.2579904762931786	-1.4139492476050481	-1.653800721761444	-1.0817425223695707	-0.7223556023479804	-1.0470925543097755	-0.8779199697263668	-1.4678838215960737	-0.8524422028000304	-0.32088848867462144	-0.6358782632985839	-0.4393413651818158	-0.8941524602249344	-0.6038925036442327	0.09355679130775238	-0.027900181640278875	0.46933144212483596	-0.5671996459945637	0.08888346679419509	0.8578978159225478	0.739487646143227	1.201682206934611	-0.050441816321812	0.8173716047631173	0.8574683048533807	2.4362261233809805	1.8862025690140414	0.838802991179803	3.4128849420211114	3.858253230844174	3.4525546940419263	2.3954875408727516	3.2538509286744643	3.5477764516903085
100	-1.4324541055752955	-1.466730114094714	-1.6977475838712532	-1.0997711392292653	-0.4024323512884146	-0.6120247825429207	-0.5294232951149033	-1.4704352580138873	-0.6866951567478593	0.1253753450327695	0.004226037290453424	0.03421185529535059	-0.8373029806931727	-0.4025065590709726	0.7219006997002031	0.9835057829821271	0.9939414237676998	-0.5985635503915433	0.2824667685052848	1.9149676513007305	2.247055286456247	1.9489588688281312	-0.14976376257278007	0.9886518095804627	2.0430004545129403	4.131819237767622	2.474385732125579	0.7409867029555434	5.337842927807422	5.526820168846413	4.2391295326016705	3.5503940492636556	4.449337948056052	4.220811833215545
104	-0.7422947864864815	-0.6378673298943616	-0.8466954805931649	-0.28189080882427436	0.825655517877731	0.7136912327867259	0.7147878390385348	-0.5573546276325793	0.17785096123615016	1.4594397508013528	1.5606807430918255	1.3499230112325802	0.0936103311797867	0.40725624458487497	2.1596479361367686	2.8801484035254434	2.3432729185070222	0.24979011651392524	0.9757069920701155	3.624392977146895	4.481647480140006	3.4820799739661616	0.6325159652952931	1.5616705378204665	3.674944391509011	6.17252539029966	3.7452530766342327	1.4410397970056452	7.306360703141348	6.9878477873805735	5.23863886464236	4.772828566898741	5.586644635400694	5.077327238615307
108	0.7454694490684931	0.9463727450319032	0.786466417711171	1.2436825005602599	2.762750857053655	2.7272717883871276	2.672702305721558	1.143637773487409	1.5879629810295361	3.4697184475081135	3.8051099681151888	3.342955580854282	1.7639285281469115	1.6792651372473846	4.166258324594734	5.373727784894555	4.3554768452351675	1.8616180372920539	2.0228881784864483	5.656871304534912	7.08141945004716	5.591148839185708	2.188298696715067	2.348309272559248	5.3896345956148926	8.223032930593819	5.518919453992093	2.8461766171121905	8.790135361412998	7.9804515637136015	6.352867110425396	5.742341980741238	6.476584418157474	6.035142406485142
112	2.6789841584278657	2.8960175441103777	2.819584124122079	3.060473434350684	4.941442000310923	4.983565794760235	4.907089697846385	3.2041733184025496	3.156002751965331	5.663713440900693	6.240378364066337	5.584579453673729	3.7467026615915104	3.0406899375439433	6.231586917402741	7.912754038860107	6.573653681370649	3.7927169704047787	3.053130142132896	7.468686084964181	9.474402403752773	7.763588408896138	4.052682389517717	2.9450368806870553	6.650561315911584	9.798336004314313	7.275854092348007	4.48304508984717	9.225104308679066	8.181126573888099	7.201813202794953	6.024146064807583	6.798890573502176	6.759049875360577
116	4.598253715349754	4.754266726888232	4.789669024772483	4.673335540416538	6.849214536540403	7.001853448355955	6.927051526700329	5.10201738976757	4.450534332482963	7.49583671584656	8.323609331096723	7.569847564658724	5.522685037020916	4.075874318322688	7.80433128293878	9.91564175963338	8.438573815974923	5.4769949774744076	3.6522714999494332	8.531602837956843	11.098505945794884	9.389048552649912	5.610532269617726	2.930742494813111	6.971718770545075	10.439673397409448	8.36280057703049	5.688371643963437	8.236486414141394	7.315168839105437	7.252202492523689	5.252049432845807	6.226921065821505	6.787537557631182
120	6.152896388731787	6.21334980349615	6.364246352340026	5.7521185729711934	8.165136316665286	8.479596116591566	8.402984597925128	6.462863428964821	5.210225092131091	8.618469216521706	9.70387742453571	8.935129143090382	6.714771253798785	4.536868560780616	8.5460223935845	11.018260927992111	9.529843306322759	6.485000117141353	3.579615345500304	8.573756196309889	11.63219639702313	10.021456693143078	6.373630030752613	2.0971376842956904	6.148903354379076	9.91710660337968	8.28538224989441	5.903383240100273	5.830321774067694	5.3132953509651015	6.0732045020311345	3.3328542625204105	4.618465888760637	5.771051869127004
124	7.236234169810099	7.226459008091615	7.457826595550681	6.270376189613158	8.87698457384021	9.39416883004177	9.278483367382186	7.2039341744692855	5.4570512633829145	9.01695726025439	10.344680760015004	9.58911797963502	7.229588013515844	4.4576854593264805	8.470442750525809	11.203806848849338	9.727448438880495	6.6950874159578575	2.89342068895336	7.699738959899627	11.11558720643291	9.56021783322361	6.180112823141832	0.5771987423629037	4.3708171734129895	8.348094919108632	6.9312329117300555	4.916177737221633	2.4430091319392946	2.4183177886941394	3.5798365979411515	0.5517515526192598	2.1561589186590053	3.685018291706355
128	7.964346388735953	7.956813315329678	8.196186998654762	6.463006480111921	9.218324637980851	9.941843007736173	9.725735639812553	7.505640487794464	5.442838178244239	8.958066917690672	10.472014400745763	9.69324967798051	7.23724935611735	4.105236996776386	7.893989066220716	10.75236603883189	9.213997817618239	6.291283591598946	1.909526343292923	6.322138293516895	9.900323842801937	8.258636453758323	5.2158322202602445	-1.2096595733619189	2.141231769877723	6.160818084421016	4.605755317503665	2.926260702374475	-1.197244641142287	-0.8400619008789255	0.12241107939570324	-2.4997384485074927	-0.6638016683985248	0.8870560504451827
132	8.520156838840235	8.598830201373536	8.757597901168	6.629907591293319	9.466657614648792	10.354175541485173	9.97691247328484	7.6338953779125465	5.458518491315001	8.785408951512823	10.385032627588906	9.509791350196627	7.009138089603432	3.7926008605570494	7.225976448888732	10.044207547577825	8.323328950848408	5.597007260496601	1.0109530661808042	4.93662928288533	8.453923204058727	6.558258040082615	3.8542196653331176	-2.7761151720528727	0.04146055866740925	3.907884826330439	1.8613344383929284	0.40046527880650357	-4.351801861266175	-3.8205983542302593	-3.6420433429317995	-5.161387907348387	-3.217533818704511	-2.030136818528572
136	8.976891494974687	9.197225547457949	9.205436683301475	6.917883855519862	9.739073728768137	10.717455836893661	10.148103688367758	7.735809783477991	5.632717118347116	8.697390534376648	10.258106205790225	9.22398183401149	6.726377470200147	3.6773621943135755	6.733024580168716	9.345478034266264	7.340366821829904	4.860246646054252	0.42939183007548154	3.8751068017397334	7.137104493241529	4.8573799010663725	2.4259297786498966	-3.818034639255653	-1.5329741200843854	2.0344061800137645	-0.7709693293179855	-2.181793445800705	-6.5555929972121465	-6.010374054039131	-7.022481900604898	-6.983920556555528	-5.017725931850503	-4.505280483315202
140	9.229318595472625	9.593007063487505	9.433255171800996	7.228759747374136	9.925262426112996	10.920889826858556	10.177446339660863	7.749514560207306	5.85639713716104	8.653744675722196	10.066693280553281	8.860935188809929	6.389444335064493	3.6805882360992537	6.427012904152991	8.712612130102379	6.384323580835479	4.135028351834227	0.13978978956214955	3.1865336814536773	6.088114246256186	3.3591542159147028	1.0706109973580022	-4.342716682913868	-2.507389777528702	0.7364847641470245	-2.981748811823004	-4.531049240116597	-7.750156383020626	-7.192132454833555	-9.548510527344964	-7.889564494240921	-5.899842247372397	-6.231399520400041
144	9.080018974267539	9.535357451206298	9.258307433595236	7.311101418156234	9.798446630534738	10.765724154948066	9.913148854976589	7.483958225428553	5.881688579968279	8.462571122738066	9.67572591246079	8.342526414789196	5.87972591823007	3.5768120198543056	6.135978683238612	8.061018923434505	5.437205300908607	3.326172581857959	-0.07032600027448555	2.7057402065628278	5.267415987067264	2.0778043217651567	-0.2470698797425339	-4.6012048605144225	-3.0661289614512732	-0.019502090240950745	-4.7105116725248255	-6.586361868441836	-8.20114038304167	-7.44900272396041	-11.070419283573315	-8.126781443104896	-6.024644836473804	-7.20999096003749
148	8.420347192485783	8.887094475242908	8.598200776326298	6.972005349676431	9.226370788168055	10.159092877487963	9.285901046196466	6.810635072679067	5.528994069445173	7.980679491874647	9.019535995599442	7.6337032125382756	5.121332632486138	3.1936838546228805	5.698914036667533	7.334353428442987	4.480063903941612	2.3543136060401824	-0.40668395058950896	2.252522939716979	4.612720477855953	0.9758469437756947	-1.5861629207618642	-4.8722267027867	-3.444519749527911	-0.34721591981008587	-6.009667381372458	-8.389464357175573	-8.256440141813185	-7.0131592573484065	-11.669400185686522	-8.050643900572515	-5.701756939797563	-7.619327525929063
152	7.375156860804568	7.78120420398716	7.60227916705487	6.261400683806961	8.332470872822396	9.253414130690109	8.438534715328048	5.830032810750553	4.859484660277367	7.282049637528899	8.23730562037712	6.863363725500042	4.220417012049549	2.5828728610631013	5.142871366867793	6.642323954024421	3.6240460781151778	1.314223643799519	-0.8831619598025485	1.8196828319383354	4.182280053069908	0.11731882363739983	-2.8646390365754653	-5.241314874767441	-3.7164711858377597	-0.27455881168664265	-6.862506849128914	-9.904087995319289	-8.095522860114968	-6.064358219094485	-11.466394395488614	-7.867953757448559	-5.152296053275883	-7.601663570285184
156	6.294579013190968	6.607351286418628	6.630061132857873	5.492010102711156	7.482097130004784	8.419630029401658	7.706191043470984	4.882795798371588	4.184866894646629	6.66582153544703	7.652763824215006	6.316289408949142	3.4689767273104013	2.035542006121737	4.711044299629194	6.2545823892990295	3.12378334210405	0.4991029488360166	-1.2777477470562846	1.6152759749638734	4.1724872483766156	-0.2886128716334594	-3.8142502211591287	-5.524362073302083	-3.722579708237498	0.31350964228631456	-7.100543004228614	-10.925887080263909	-7.625335674107253	-4.6170668485420014	-10.479635212188926	-7.510910015216463	-4.369508255417027	-7.125927907118625
160	5.578415379745201	5.817482456778333	6.070591434410779	5.067720877250401	7.085436326257722	8.052844980889224	7.4412088206292575	4.378915775687465	3.893797864619789	6.485453112440502	7.595142345326062	6.283757670750028	3.1939754405443854	1.9187904547883934	4.714778888242812	6.4415917233910855	3.2462417997416493	0.2564891868314462	-1.2656648127072134	1.9262291144375814	4.78827904445983	0.0028988134508407654	-4.102899541032776	-5.387766824470927	-3.186044446530596	1.5792064626876916	-6.4880552128062465	-11.15964028401944	-6.580753786638367	-2.56941222495817	-8.632719971795785	-6.715052110884258	-3.16597413217392	-6.022013649041482
164	5.431060300466358	5.65787743093618	6.102630599826714	5.219059454138815	7.330344181626938	8.320316293690487	7.781906108282263	4.53937052534339	4.195157994168986	6.901078683595738	8.167222956064315	6.858339292376741	3.5373706728316927	2.4276711879472574	5.3008842334427255	7.260070782451333	4.0703415767900255	0.7555784564015213	-0.6497345550345353	2.889347784376851	6.048150047290924	1.0745539638092287	-3.55728029306646	-4.59051893982607	-1.941115016804783	3.5450422674320747	-4.922994124380938	-10.422562572867689	-4.7605404733628705	0.12216544865520401	-5.903938755388177	-5.248227583032458	-1.373463031162161	-4.163770188309512
168	5.704758152863716	5.994460090761439	6.548655493414965	5.817342266654175	8.018117884419285	9.014039016853555	8.515494325119096	5.215246187394293	4.944424616727954	7.720410804329858	9.116644836296649	7.811139563866415	4.3134522329145115	3.414390793762915	6.293144687022714	8.43299196021509	5.355805383511583	1.819892640287415	0.4643277514178646	4.327246178192185	7.664358596524599	2.7003667286406032	-2.3365650118009356	-3.1882316985697514	-0.11773458838540025	5.952247604600926	-2.610091202821774	-8.833851791966687	-2.239589685507689	3.2722582734461056	-2.49701523150387	-3.136275283524537	0.9457110142672774	-1.6663271146665246
172	5.944107994330949	6.351562007126689	6.928250295313025	6.399169905718649	8.621520974326502	9.615412687820585	9.138124442870836	5.913496956200227	5.675959572766748	8.446989038121645	9.911914800414275	8.649704911328099	5.052231775879595	4.41628455000718	7.227359276644029	9.42466256623187	6.589098913723011	2.9511208459732083	1.6722588496903057	5.77245090934564	9.101702667144922	4.369767177993277	-0.9259750819669472	-1.5582628210779716	1.8519927216501566	8.282185533593886	-0.06766088289821108	-6.846690160631249	0.5899308308965847	6.435818655931295	1.1125152082965157	-0.7282413821907557	3.4309539708298615	1.0558414432571082
176	5.621430382840944	6.155692561820431	6.696409208557059	6.4038138227906645	8.548297860497701	9.55084702941426	9.095326400681527	6.0348863449318335	5.839053616086664	8.525548913411582	9.997547124416823	8.843977905832723	5.2233161794393475	4.883581149169166	7.577395896854022	9.688914274549074	7.205908757136419	3.5543503671552785	2.4680690703068104	6.684692365935274	9.806097005881634	5.496692166755731	0.07189647835222365	-0.21702343170685975	3.42731212704328	9.956141446725953	2.0673282094258836	-5.074423777166339	3.1875545898068127	9.064004875186876	4.321129311142199	1.4533131085896482	5.562200055384285	3.43485211458833
180	4.433216560615065	5.049599634772959	5.537115083066027	5.491324887716548	7.464224796523296	8.49762342214908	8.07287404883182	5.196434961550673	5.105786787493649	7.6478228375941795	9.087981201115111	8.0997352395599	4.5204090957953165	4.480963218819712	7.045830231997366	8.95463178281165	6.875073892401629	3.2471852220567725	2.5225622590272607	6.740519506602429	9.481644606493278	5.706957802668954	0.2414899462324901	0.4654350567033837	4.244092453731718	10.610882732304335	3.3390469466783594	-3.994744529175104	5.1464137901071405	10.767735454076288	6.66706894144974	2.992092125014053	6.931399327897848	5.028017508210017
184	2.4801857408847394	3.0927143018840297	3.5403222948335182	3.7495191002593264	5.4840917448820266	6.560312731392125	6.1681537472442916	3.4483206185063517	3.5656793027498446	5.935097202575134	7.326091271023661	6.518974764577548	3.038254730183148	3.282243005095091	5.742342934415552	7.377921562640849	5.677983746498209	2.071828360095064	1.8742411089307158	6.019164547028412	8.251123407512642	5.035022246046336	-0.42315921080563385	0.4775821852547159	4.3172984014228675	10.286135647552953	3.701106300546352	-3.704301347916825	6.412688715956734	11.52751442859846	8.064052561427333	3.8135630988158926	7.477274875836051	5.759401783707199
188	0.21999508086927894	0.7295144181906543	1.1577805251454276	1.66190075454739	3.115269653084407	4.212974060865949	3.839813461145857	1.2548866240289815	1.68855702450725	3.8844067952312678	5.209362016876922	4.549470413165791	1.2330701320033743	1.7393623546554682	4.137555111929166	5.465205655604758	4.072639931886762	0.4812831568487654	0.9139063335232968	4.967343794679121	6.598052485019986	3.908171167043217	-1.512506600375929	0.17302344695752883	4.033004273722672	9.405114150143529	3.5319511801238184	-3.8731202981436748	7.30364606920655	11.711544960970743	8.846594788150336	4.226109017192649	7.53082750326432	5.96798799915347
192	-1.7807096197946066	-1.4538286887656537	-1.0368173096228885	-0.1485134210413223	0.9856059526354856	2.0411281534159826	1.6640298324533915	-0.7522461395344769	0.0740533022202981	2.105782026696351	3.3234999095929783	2.748918049547686	-0.31590104023331034	0.44053617008564433	2.8139533925536537	3.805626382756219	2.655393832178221	-0.8984416104521424	0.16961227314564561	4.157385815614449	5.114689337214824	2.9184532091843485	-2.421966308200919	0.06462417526618382	3.9287664791097487	8.548890092246694	3.4193899545168946	-3.933327664935025	8.307950952535183	11.877128571087352	9.582811331396547	4.73719118829609	7.633434276381728	6.220330222637461
196	-3.1516008297504925	-3.042616836495377	-2.646239989275307	-1.2530366150691137	-0.4876818644608603	0.43230751047659793	0.03574400013601431	-2.109832996763638	-0.86818575639874	1.000356552459389	2.034413570989698	1.4948081932474564	-1.2116283147738793	-0.20454788156364437	2.1551999991362796	2.761619322480096	1.8493920517958828	-1.599833365215875	0.01608098107986661	3.9752945799596837	4.193357933901314	2.5056483682313413	-2.6785585812652437	0.5262659774844776	4.387329567322716	8.146714189941777	3.8309993647173046	-3.4006180677387277	9.783401464557098	12.460926024447389	10.750657054461204	5.749640450266268	8.227000215740052	6.987043839933873
200	-3.8981602093505963	-3.9898776907321913	-3.630505075825311	-1.6300741392941873	-1.2918791738318245	-0.6011687501988086	-1.0092920039443973	-2.749755375595377	-1.1173102827473	0.5697979912676971	1.3192752566407688	0.8099213222082275	-1.432457205016816	-0.16602911013169722	2.1582214777816056	2.298633569635961	1.699537034512182	-1.5468013247537598	0.4826579081747165	4.423991668975758	3.8407206438370483	2.735812418706141	-2.183847183435901	1.5840791423857774	5.427999959592737	8.263431528209107	4.864144789812721	-2.139704698882433	11.737994164395175	13.54299732603671	12.468636481276066	7.324424725159949	9.404376006224494	8.376399972748107
204	-4.351801861266175	-4.586269367082893	-4.2703790556856145	-1.6347678858491093	-1.7669484570714769	-1.3682780231262406	-1.7524800256352278	-2.9873971863662385	-1.0073311303455272	0.4644052970605216	0.830917952347019	0.40177804130204475	-1.3049367633298021	0.23152385593611122	2.475063317725675	2.050132984707335	1.889406795499787	-1.0574096414571894	1.2704297272078175	5.155303465225077	3.7205207253935755	3.301812163599761	-1.2354687421123698	2.9210147783917484	6.718359930242362	8.60704038354275	6.220225318462921	-0.42073118580451613	13.828448260679785	14.827129326578769	14.442092859045033	9.154930091632117	10.872011157243193	10.085657094287141
208	-4.934996115622608	-5.23953674900899	-4.952990996253445	-1.7580074027498735	-2.3565933644877957	-2.2642452659660695	-2.5725469524282834	-3.294196597365326	-0.9963934992429236	0.22523827793951434	0.14142978155668146	-0.12286096035217085	-1.286133405299273	0.5302536474191728	2.6452252798052127	1.5657534559772726	1.956350202389487	-0.6298257096601482	1.953413004711661	5.698694691575314	3.3873727236101816	3.7323367501440163	-0.3299310795083432	4.07956217689492	7.787610511191445	8.740342118130512	7.40451095618944	1.2521554200029792	15.569114645750357	15.841712911663675	16.149139363524217	10.758228274840038	12.13881298815127	11.59025952273936
212	-5.887139305509937	-6.203733905388103	-5.914381965963617	-2.322539085246382	-3.3174831783459617	-3.5014905841161292	-3.6853148844180086	-3.9948489565124867	-1.3820993865404416	-0.42813634764342484	-0.9833303069083513	-0.999531981805648	-1.686464424643759	0.4197401393783379	2.377264493662291	0.5949729665993391	1.5762776096601132	-0.6421674473761806	2.238773578713485	5.749006256847459	2.5737888748036877	3.6842276957000504	0.1319037672527294	4.737227427920022	8.312492349618443	8.370818116988275	8.029857615224605	2.4336712298937786	16.625793415055156	16.242050129891204	17.156198458271678	11.766376465654083	12.817338911120775	12.457623450298012
216	-7.117701989323231	-7.423351269099636	-7.0958142101426525	-3.298079005497614	-4.56266926567153	-4.970170485345813	-5.001379954108569	-5.071311461042605	-2.1340362971786044	-1.4359595739349753	-2.4397263465319337	-2.157867187773955	-2.4966936048414743	-0.09068496502391875	1.7125287012732044	-0.7588281016264711	0.751882074365108	-1.1432638139470324	2.1280014461196224	5.342392431122351	1.3629634345929058	3.145764819785979	0.06236043184152317	4.886601912558756	8.303912141815399	7.547114830035943	8.042722681720445	2.9771215840514835	17.01541133399334	16.031696279103937	17.374359086993334	12.139489143239896	12.854255643815655	12.59717079796815
220	-8.268119791136723	-8.577104546826337	-8.191408136667315	-4.337291229741531	-5.724396214337572	-6.304383261976029	-6.179611190452669	-6.183186038618692	-2.9349560663509346	-2.449202531352979	-3.8478975198870433	-3.263843766555119	-3.4108679208470045	-0.7017627936765225	0.9830818747495548	-2.0945870823429016	-0.19680178115748118	-1.8482085419722107	1.8893965435009115	4.8236756202981965	0.15350249370919944	2.4391608176637325	-0.2913992993627067	4.816155421495162	8.088655451379866	6.651499731436558	7.744480113503708	3.087192527605979	17.09265323138133	15.571821173453486	17.107503847798917	12.174392669457927	12.554515806925941	12.301130263742436
224	-8.936179138510093	-9.283918357297663	-8.846725441531353	-4.999234186902073	-6.386676295368113	-7.103715878671287	-6.834717256456156	-6.881690484792149	-3.392988196389583	-3.049596063543796	-4.770547377939656	-3.9174981018341217	-4.0192170041651964	-1.0252588961465166	0.6016290768692467	-2.9361758157985385	-0.8223293998937276	-2.327672952497214	1.8697680187701953	4.635252940872795	-0.5542154298141194	2.031204695341672	-0.5202985988832107	4.9122457380250175	8.10612008909212	6.199824317537867	7.606226901877666	3.167662612546854	17.33518214617428	15.37662025384134	16.87106891187242	12.309632270251733	12.390549628445873	12.059345214914408
228	-8.915987945934118	-9.332768416683606	-8.87489030504667	-5.012480246286354	-6.333790286285328	-7.164404850991207	-6.762227041337662	-6.875730974003973	-3.2825622475717022	-2.9934139176132546	-4.947615134145435	-3.8769462010728577	-4.043658246321506	-0.820891557051441	0.822194574187586	-2.980374328717954	-0.7960523942876158	-2.2631428184590874	2.2728760185077554	5.064671980468548	-0.41618427529162766	2.275375837303324	-0.3017396919261688	5.414196477571923	8.652080514044268	6.574567778200617	8.00005433923784	3.571590176148007	18.063581421068644	15.824756582360784	17.100246386269387	12.855322805373019	12.721219030687186	12.270701377405688
232	-8.306994417198242	-8.79475305244138	-8.356371858479825	-4.4185633547804795	-5.662541852005947	-6.579661829548839	-6.0434646453862495	-6.188058837526067	-2.6666908196832684	-2.331939214540886	-4.409584987951341	-3.174379102321767	-3.4744777591721228	-0.12525097994175965	1.6148861605880265	-2.2279097977655713	-0.06467045827273506	-1.6118664700820398	3.041587345073416	6.10027788529408	0.6003743394952479	3.238709918428268	0.4301976848708102	6.273181422607784	9.72293946672391	7.845288256864914	9.009430862568315	4.409915912938298	19.26407618427304	16.9590606261278	17.92395777945339	13.813621486120052	13.591862644211677	13.027175870429856
236	-7.441563110636908	-7.965484599029709	-7.57686708444691	-3.527209273016039	-4.707447993791106	-5.665804371834135	-4.983186232383264	-5.124095426973791	-1.843295807952937	-1.3557592596156722	-3.4246036919915244	-2.0728955216524283	-2.545793765316263	0.7874707559731007	2.709795229745949	-0.9444653964039063	1.155005332891692	-0.6003164037806724	3.900693883584312	7.461268406149901	2.2330124321826204	4.696257579390648	1.478112455450864	7.187323552105218	11.036397906095734	9.760092710648662	10.41333768122838	5.517790303604319	20.606437631079213	18.47842211826346	19.123096417783277	14.885008774369648	14.721281968142394	14.085047686301467
240	-6.686837656304614	-7.186750393842504	-6.8530640429088585	-2.725074284349097	-3.837948074187676	-4.772337901464189	-3.9297521015132664	-4.085877885039374	-1.1614180773975962	-0.41308903589857876	-2.3296430052113566	-0.904786107639951	-1.5819231231804054	1.5753253658575856	3.766781320598434	0.505383907472655	2.5211162503486606	0.4316176761220316	4.5249543075758325	8.768230416094768	4.082281579201286	6.278168185595682	2.5237257416903387	7.783548812288125	12.20233532685808	11.894129723083003	11.83568474642392	6.581155283524561	21.637519781796296	19.91463083961297	20.28178019171335	15.64843936784012	15.672029455671186	15.026423416346596
244	-6.245246871439298	-6.6617379020344885	-6.357779963653959	-2.2604491653591987	-3.256345025424149	-4.095966805607164	-3.0914013307722326	-3.350216857081066	-0.8250109532507572	0.28064832020474595	-1.354764696515461	0.10489705178479725	-0.816115675296226	2.01907419648619	4.560392845084015	1.8438197327791899	3.7542769814118646	1.2302852837972096	4.72555302380521	9.744578336908535	5.809794888133192	7.671059589091909	3.3208393966755008	7.833135585081632	12.935476270441647	13.857841456711533	12.95912739342881	7.333847981056568	22.032129232093947	20.88266558143161	21.03018183166952	15.802942236102384	16.096239049326723	15.505135497047144
248	-6.070044025354544	-6.372182353143963	-6.049902423842896	-2.1312708800865874	-2.916249267844698	-3.608041038940499	-2.4577684340413133	-2.9437332078998195	-0.8008920530125794	0.7291139941880642	-0.542146860184403	0.9245479083560485	-0.29093459175088865	2.12016462744434	5.070240484787985	2.9785134717127644	4.7544627069597585	1.747316356062083	4.542625415777067	10.331124279641516	7.262085896276812	8.752448059872409	3.8166465662916282	7.37310026214643	13.184514966101949	15.444131812203604	13.672470058253769	7.699575881591934	21.754381124885036	21.256256049848737	21.22999185924122	15.326190909791416	15.909922559623787	15.427147826345607
252	-5.930994495676313	-6.131300433891292	-5.737173542796524	-2.125998491641647	-2.593811743863242	-3.1220893781038104	-1.858162279205991	-2.673758500024311	-0.8700481631246897	1.1036729784757007	0.2129604513036809	1.6769204097371302	0.11647057503858167	2.0645430035918513	5.441395269007159	3.979013671365699	5.594862923801575	2.1198928302648503	4.203799237128126	10.665491077198201	8.470354058814607	9.596016859622484	4.140434731520284	6.675073606804286	13.11928268935014	16.6502265509798	14.080146754001827	7.804440001810575	21.05037874629138	21.182062095568284	21.007511085877148	14.470384561244112	15.307307204699933	14.971864662517058
256	-5.580094323374995	-5.7288093422256	-5.225127206961631	-1.9800404260235225	-2.0577545114062317	-2.4490666327632344	-1.1108571262923401	-2.2844021262667407	-0.7809867243122252	1.5990713794389901	1.0404797766165104	2.510964387276147	0.5734041914767931	2.0857770390301837	5.853456482413826	4.9640893810826014	6.412396414779494	2.5373914177727794	3.9814226526828596	10.954622241018996	9.54711148712633	10.36127278572995	4.479182708875477	6.0876092757069244	12.998089757527216	17.58370776505365	14.384731256406655	7.864851454905121	20.288589426315298	20.94037050682303	20.63112444437138	13.608030284856893	14.620339356702914	14.455294572573713
260	-4.907917010313779	-5.068705069142447	-4.4517488367218405	-1.5412163695524062	-1.2241884439078174	-1.5346006116269097	-0.16130660433574381	-1.6302812058296143	-0.40230438011640496	2.2970788420855652	1.982170815231706	3.475654593275597	1.1633889645767632	2.321656698087355	6.392317278935413	5.986007198479314	7.27946565697512	3.0926830690502465	4.041005601217119	11.33241745948654	10.562413188969677	11.15317437217053	4.9329824323086005	5.852271542078682	13.008004155695545	18.332553817240143	14.732804261204123	8.03579995987513	19.753810832694782	20.752878136690935	20.32710451716044	13.029332128053806	14.121475184073265	14.133266413291542
264	-3.998218287863843	-4.217144001803907	-3.5251500517535383	-0.8452922084447608	-0.2025090152872826	-0.4942742573656639	0.8767452217854546	-0.7612807135434966	0.2161901289726813	3.122136346563775	2.9580664560020593	4.476048458242521	1.8324592067229726	2.7506017615490506	7.005097848372178	6.9856376471578825	8.142172792858517	3.716489067231147	4.369674194747662	11.790285080706024	11.481025666813977	11.944284408930494	5.447084889964474	5.99949882899945	13.175502743834663	18.88711733817887	15.125092468221505	8.319901445363897	19.516881893473634	20.658588357265906	20.15320200600282	12.811300245364537	13.88991829226287	14.067533457524885
268	-3.0654025000425853	-3.349611750728834	-2.655753844231756	-0.07456498574266116	0.77852612537282	0.45850238088241657	1.7885514452600375	0.11727232456401182	0.8922986961724553	3.8991336724066104	3.8164100550617563	5.325451360608483	2.4295051036530766	3.228276721433125	7.549482803357601	7.828951339028964	8.851197220389691	4.224750984969515	4.809216487186509	12.205298392951674	12.183685271973527	12.594676939637043	5.853051170830376	6.366266234537075	13.382945026941293	19.148033093745706	15.433016738073952	8.583092667843934	19.438350628413115	20.51720423286701	19.9935855360689	12.816704717701967	13.803322757203183	14.119943583124984
272	-2.3231210649964997	-2.6413798265525927	-2.0318689295013717	0.5620062933083959	1.5090891084717155	1.138382193552253	2.3851659237723464	0.7737030367390619	1.4290207588356119	4.466578949141673	4.424830902372077	5.853998169424177	2.806134455271759	3.5899968056639127	7.895275096033143	8.389737108029376	9.257195449345113	4.442502487410469	5.162342058499543	12.434818236427368	12.54601475409096	12.94677063534233	5.986625656271942	6.711573106986791	13.46613213000275	19.001579236693594	15.499196967093875	8.658302285268794	19.28723330396555	20.122610041358378	19.664197872105603	12.806871381850328	13.64320751560304	14.063707316177123
276	-1.8705847216108458	-2.1760203783409153	-1.7196743444894165	0.9453797912570969	1.910279865210271	1.484860058850271	2.606786244486613	1.081598994385314	1.7220823721322625	4.767732131364733	4.738731849150354	6.001357063400276	2.9063422606523033	3.748197069241546	8.006371477893765	8.617985703644509	9.303106284495312	4.319353569569534	5.302130208933964	12.40877815928364	12.514694182270622	12.926230397967434	5.801010594026952	6.85335777459757	13.322099652033877	18.402536345749976	15.247992477066484	8.463459947198713	18.890928220737607	19.343912075795107	19.048704099245512	12.58859154383942	13.237020459133447	13.730688060426118
280	-1.6598472553307728	-1.9235174607350158	-1.6432476002213159	1.0937474938434724	2.0574057050258867	1.5759431083944782	2.5442960198061284	1.0778063508478313	1.7978821947481984	4.86762331687303	4.8085822937677	5.841112598930587	2.7935366560024177	3.7294149304645035	7.954462031308515	8.554099061349753	9.057066894552538	3.964966525557659	5.225459562460059	12.164854018969313	12.133807151677093	12.586634604147095	5.404585347835447	6.7513360806718	12.963089910203474	17.410972551256364	14.736743889795251	8.060201624547409	18.228206588499688	18.20728297405056	18.178720428346306	12.109635322514489	12.55167481114454	13.105181660943359
284	-1.5467965563821897	-1.7836883023050916	-1.6420495468643552	1.128938791285751	2.1166672653163294	1.5660408695736538	2.379513496113278	0.9265032387229685	1.7760330393773367	4.9004664297356655	4.736870276889429	5.535343633027774	2.6108872824553844	3.6437544730696914	7.868677119415727	8.295011499442852	8.676353432684158	3.5919537453562373	5.035951601665327	11.818737953864169	11.51779934836176	12.081456153884462	5.0080270640771385	6.504976732996679	12.49856564227228	16.170431096258547	14.12663074741474	7.62599561673254	17.4250430620851	16.881662326152313	17.219745592510648	11.463153810169647	11.697609871894597	12.321163146382288
288	-1.387961026502144	-1.6598281818444929	-1.5673345287805927	1.1910825937716751	2.239866966314484	1.590983625209837	2.2832524718812155	0.8180301168769333	1.785879726669371	4.9848732822447275	4.6164727094443805	5.249733434774262	2.501973384262348	3.6110999493026488	7.855945567323848	7.939320067388005	8.32593152805131	3.400905600544398	4.8738241072626485	11.493314714024162	10.793011638094503	11.583382577261117	4.812310206661119	6.277181609517851	12.063005416931535	14.84507270879665	13.594495738992627	7.3579287343221855	16.665655094031663	15.584255179159397	16.37631221451316	10.810803386096458	10.852065058965916	11.573684663162068
292	-1.1231445045724748	-1.5138405523226344	-1.358677741435086	1.3576070035990442	2.482687467028936	1.6993787245760583	2.3330354631648276	0.8672625996627894	1.8913284492424938	5.160674558961516	4.490946281538648	5.080841528462392	2.540787928842085	3.6919746305712384	7.943082789393886	7.548862915053502	8.10247800688696	3.4773542793217205	4.838517653646955	11.25427624722045	10.048607800862614	11.202951402989681	4.905421244634045	6.195848449322806	11.739361733361449	13.559468235113778	13.243410077037236	7.36872718857959	16.08181567900181	14.47177501839392	15.781209905834986	10.2822828033244	10.158836339097498	11.007955523355045
296	-0.7970756272218914	-1.3707836831769824	-1.058228847692914	1.6134790141377218	2.792553179366107	1.8484291983666121	2.4960112508698082	1.0703403922714052	2.06728267147739	5.383514867541964	4.358461369000826	5.0347461573324335	2.7103106907126655	3.8632545373653606	8.074941614744569	7.14882991893214	8.007781008529856	3.761069049876162	4.947618948842692	11.090939493787621	9.327033973033535	10.954946490285755	5.228362070234713	6.290395720812613	11.525015801895785	12.378306357602762	13.066483464629929	7.636537532599479	15.688293417422116	13.584921802554398	15.438143691186008	9.914159749749427	9.66747376862176	10.65546891383239
300	-0.5190875517137219	-1.282215949635946	-0.7668153624247867	1.8779942941934566	3.060361139200211	1.9538642118714715	2.6742384366228307	1.3325830664368818	2.2301847878416146	5.568952546364551	4.204542149418732	5.055903421988489	2.930044405215264	4.042281140612093	8.160217264553681	6.753993970984914	7.975755671391473	4.094647397193747	5.142397867570892	10.943317385700858	8.648830391982163	10.78150746484474	5.619557843325408	6.487523539376193	11.350170106841622	11.327275247585462	12.974576917315584	8.026990870236727	15.390868148092476	12.866833654342981	15.241195640230618	9.651559805344068	9.334893203055195	10.442956898072545
304	-0.3917760839107628	-1.278751489271768	-0.5756761417159605	2.063074345148294	3.197201959167221	1.9568791340058884	2.777650110861253	1.540788646622578	2.297207111280798	5.6530327654210675	4.036170472445147	5.080077158499722	3.1083950917919494	4.138982762377221	8.13262555930108	6.396433814111788	7.929606894499931	4.3161463628515575	5.327925191778995	10.75263306763981	8.047821978277394	10.60991093817837	5.905320629469161	6.659435255403339	11.130754442722742	10.433347675684697	12.863203969903903	8.367406823967102	15.052804908894736	12.23378750573375	15.049987754971184	9.39931581031442	9.075234390234208	10.256907437177528
308	-0.45076960211432704	-1.3427040543034796	-0.5141311870945827	2.126091951724419	3.1898915687132656	1.8675293875273733	2.780728094709683	1.6331957537424828	2.2375585976374506	5.633021817290438	3.8946699997799406	5.077883707577525	3.189134351307951	4.1052532092397245	7.9917011059215275	6.133550628435172	7.833205203306554	4.341662395959743	5.422065244336724	10.503517124360075	7.589161376865821	10.407114002655227	5.984168514401925	6.692143423350544	10.821423503257146	9.752658819371044	12.675430265849178	8.52881620161134	14.574147187630086	11.646954507032255	14.76994415368848	9.083079315141159	8.81842801728639	10.016638730508758
312	-0.6431121809934853	-1.412521477947703	-0.5362807498743538	2.0917725510237135	3.109473459022503	1.7651083424826168	2.736562721972679	1.6308615166496825	2.0916082806231273	5.570418820622324	3.8440489671929026	5.069962011888297	3.1734011093127616	3.9586398501585935	7.805175284706668	6.033555492426649	7.712184886534464	4.198338021169015	5.39000366757441	10.236905072115725	7.35907218982467	10.20267293261475	5.86452196547915	6.538448317232239	10.441026661261011	9.367429709625881	12.427564589595095	8.47444532162166	13.939177477929519	11.141306849007135	14.392535173318104	8.68385503483807	8.54190824259391	9.712264036453012
316	-0.8467342236121711	-1.4082207644194378	-0.5449024425100568	2.039968723868739	3.077150813916732	1.7638081267647692	2.7499198844145414	1.6225088793798161	1.954578394723367	5.563059792778355	3.9482741256211655	5.11486338277713	3.1154806535263795	3.775181522374711	7.679280261678576	6.15234611865261	7.641214351435328	4.0004110235303045	5.25390337571222	10.033241246641158	7.4356217196606975	10.074101422624421	5.646079525997705	6.233746036049634	10.063363049848798	9.35603806994517	12.191387145733378	8.258555391441632	13.214084591881784	10.80136582508513	13.980842555033798	8.23356149502036	8.265021303290542	9.393662428981036
320	-0.9175416207989696	-1.2607415882704858	-0.4348347474086938	2.070101255912413	3.2106408991815085	1.9659898231460942	2.929103367085926	1.717367763951722	1.9355019282111667	5.704660401246531	4.252231110327381	5.282195554748455	3.100625507155804	3.6573257353950464	7.715119342398638	6.516254408596867	7.709186534491253	3.889129628852767	5.07673882156357	9.977333043657312	7.857553939054406	10.107204411737621	5.463554845367227	5.87064932294659	9.78108594332271	9.753339742831239	12.04947373209021	7.9857253826700125	12.50318524064929	10.703479739822015	13.617212261152071	7.782427291294863	8.018780688067514	9.125564552155478
324	-0.7401390653043326	-0.9307947731359615	-0.13192085888457558	2.2629764022912946	3.580186596414389	2.4270212589022675	3.3436734591941444	1.9962491938735294	2.113859648135918	6.052622779823577	4.774361121521336	5.627519116498667	3.21718119762691	3.6938128378114703	7.972922305004584	7.1189036189588695	7.982830027452714	3.9715821642738662	4.9322996014997775	10.123766873548833	8.608389832697057	10.355566952309296	5.42616890490986	5.55112837343592	9.664176916518267	10.52510354245743	12.051970451444259	7.757777194463788	11.896028488642173	10.864327403295308	13.350331272751173	7.366572361467111	7.818809012699591	8.943826652834048
328	-0.26408094101035323	-0.41485518112345926	0.38461953304458457	2.6535146169424872	4.188265313064562	3.1407823483324937	4.0026411909135895	2.4828748640316367	2.5094757016719953	6.611666185852314	5.505201325822383	6.175489886904725	3.528898707063288	3.9255490203928964	8.453605630512167	7.925953368203003	8.48155782465546	4.283727635058651	4.874070632072817	10.474385235090365	9.61848351911166	10.815856906286337	5.5784654476466855	5.339688287605009	9.729893659821586	11.567105264069792	12.194191901890848	7.632930736343937	11.432902307255302	11.223630876814424	13.170043912061335	6.99514053485972	7.657910327650498	8.837743736842116
332	0.4848794328845312	0.25863900715377725	1.0809963914281562	3.2222773947423393	4.976089464975645	4.046205987251353	4.857112872258453	3.1439180294769207	3.076851598600715	7.335141640263506	6.407182677304864	6.913680535980914	4.053230275411108	4.331156719716736	9.100903488069791	8.881232239234759	9.170809722634505	4.788339602778769	4.9175357694447674	10.975621195738928	10.781661960083607	11.428003282304292	5.894941791909916	5.24146269428611	9.937122319881881	12.729376760769128	12.42317196570482	7.613162021489063	11.103672953228127	11.669105500323496	13.021440473105468	6.662520868646281	7.521353225791903	8.766274430076757
336	1.4197398388303575	1.0375277969868173	1.8854153108678358	3.9069435497825222	5.8492307515284985	5.04844425834155	5.821227058972248	3.912339200632547	3.725793113838516	8.140912989089726	7.415489178055033	7.795659999238749	4.752138125819387	4.838963973225906	9.82110593223534	9.911745046386383	9.973538373561912	5.400566564276257	5.04439686455294	11.536587686021841	11.979152649198907	12.097891777011911	6.303178294480292	5.215556608383499	10.207405064560811	13.856583560291368	12.666188208072219	7.659971694680206	10.875887843329597	12.088699310299281	12.846894231785901	6.375256045457981	7.412634830833236	8.695519425372584
340	2.4202992855000494	1.852401847930862	2.7083322933482754	4.621502387776408	6.703436834576914	6.039530262003849	6.793814641965919	4.711908328557676	4.352812756039013	8.928995109902743	8.437534310972664	8.744503952836801	5.5354313710646625	5.353714929415298	10.505781147181507	10.927029582092079	10.787548037949605	6.0192179527899965	5.218443380531973	12.053882568443825	13.09606358082722	12.72460457450188	6.714540464614798	5.207601057256124	10.455085727997977	14.821056328547227	12.858415571173317	7.720206718026662	10.723390552149674	12.412412612094288	12.622216192802378	6.1653413616923105	7.361942749509805	8.62424180714434
344	3.3627793704007893	2.622924082809516	3.4597256096274593	5.274800287280554	7.44157550840299	6.913797361084379	7.673058967291206	5.469173894425306	4.869680869205482	9.596905684083131	9.358221984124226	9.657306646760222	6.278809531571846	5.785984501535593	11.051112147086418	11.819914787967642	11.502982110545164	6.55107162728948	5.403349385924504	12.434176413614047	14.028375590192107	13.220881428717652	7.048932057703646	5.181650625497912	10.612273189454145	15.536495169514355	12.956253972720733	7.74652336072145	10.635326358646429	12.620435682858142	12.364082305209473	6.076319679177811	7.4067220500864455	8.579120614326131
348	4.143856991796068	3.2685403741329826	4.063096989863737	5.78624866932057	7.983747938979937	7.580971698694359	8.366691568231603	6.114223464787679	5.2211155759597965	10.055589650515397	10.058812116022398	10.417117092534756	6.856470090721304	6.074789031903843	11.37483403195025	12.479210822069682	12.020498245407996	6.926575643217644	5.574019894831982	12.611881224261577	14.688546143640083	13.525250400727513	7.250751953892097	5.135386454014376	10.642515155625349	15.956223447568412	12.937695470570322	7.70820663413362	10.604815456318676	12.721960035629161	12.110555618227497	6.131565078513427	7.558371047964067	8.58726308561905
352	4.695735442703734	3.7245306874653603	4.46613930528292	6.098302348952632	8.275311449138586	7.9789767063870025	8.801589943598435	6.578824980338306	5.38887070248938	10.246323559640773	10.446366283745089	10.914014788728942	7.178680878634606	6.196787818522095	11.430910081613359	12.814652410578242	12.269078223723263	7.108406525784688	5.716572747102686	12.559757200955676	15.015056572198048	13.607069934822697	7.29637144153937	5.091657148857448	10.541228267758516	16.06441875216585	12.796504942057165	7.593202094934232	10.610013935004282	12.724362341226124	11.890906303901687	6.305344088847383	7.777695159348803	8.646082856283533
356	4.987330424114744	3.953815688641232	4.643919456201256	6.181858523973607	8.292055109069457	8.082025507548948	8.931953407624766	6.798472864152645	5.381580339196019	10.1525687915059	10.47925946450921	11.068141909311487	7.214973431490974	6.158936961836654	11.217378588011849	12.782053915177146	12.217486350684574	7.091616612649588	5.816854939079723	12.289132087198022	14.982953033765918	13.463959659915462	7.191682320557347	5.072057711193309	10.324268314998182	15.866555173869022	12.534981695952311	7.40240715065276	10.60302731697993	12.61292454396109	11.702307671565354	6.515951617002173	7.9756226338246705	8.709458329145985
360	5.021534907060612	3.9547414679815462	4.600646484203576	6.0418662872359885	8.048700312320587	7.907240847650882	8.751040436584946	6.729007227120998	5.225060926596807	9.808966611892455	10.182400677722086	10.853397341982571	6.997475129580388	5.988755211015101	10.781653377014782	12.40271755901818	11.881710976166115	6.9015979592597105	5.8548798413274685	11.847690552362847	14.616325341515294	13.11980721022284	6.966833097034461	5.077649580533438	10.019607518648236	15.390691718344387	12.165172546190188	7.146560650901981	10.525113079200569	12.360769240642643	11.513138741989248	6.656760198952574	8.050335863769094	8.707651116320958
364	4.833768355563242	3.7623970413584047	4.369850147658595	5.723019585465315	7.605912189354046	7.515881519415337	8.300789812111368	6.372167571192096	4.96087502180727	9.302162146924454	9.64450261542048	10.312192890834332	6.604046804920623	5.730829701259806	10.21948525709623	11.766414612626644	11.32477566720847	6.588147146757641	5.814494118315419	11.315755815546673	13.99408527655798	12.623550383167661	6.668228132578405	5.0913987031183545	9.667300199896612	14.696517907230797	11.716352433187609	6.847612363692886	10.3439311720042	11.962455719309421	11.29062745104713	6.652752859485152	7.943846205682242	8.59087655759479
368	4.489445198168414	3.440401545421487	4.009742726692779	5.308262811610132	7.06576727036866	7.003565770586739	7.670351485913765	5.79316566912	4.648950088207598	8.756440140550806	8.995486236749029	9.551877951347693	6.127962573792297	5.447598443582562	9.66032788698697	11.01240250668122	10.645025226419794	6.213079913665288	5.702871785070627	10.796369525354091	13.239660229634595	12.044505088914278	6.346428378294435	5.099182116032052	9.322860694235477	13.880162204030666	11.23928353333008	6.5393571688534795	10.088832829752755	11.465650529523694	11.03336522177722	6.509283049361539	7.684226970345286	8.368287065358922
372	4.078269471362295	3.0673158091350445	3.5944740681495566	4.905763613712771	6.551572306304329	6.4800710514494515	6.9804954352568025	5.116383062796486	4.366860855521367	8.304662683500515	8.372631051859186	8.722024895581542	5.650441632309934	5.218687997993513	9.238607383290969	10.29420850062095	9.955327008861797	5.83592699484822	5.568099961527836	10.39718053100062	12.49374767963796	11.462829560902888	6.044692501065523	5.114624010524316	9.056772209189512	13.065166440402297	10.800701114088273	6.264538749137174	9.859346364878052	10.976379366818556	10.786990138475916	6.322892649899268	7.386312466092565	8.11697957850562
376	3.6960396673346567	2.717094891363872	3.1974215426780193	4.618416297696309	6.169842704454383	6.038506969464929	6.351623042282785	4.490126598465766	4.192779053592718	8.045956591319213	7.881956557400998	7.9737715519812	5.224321352166302	5.124624716218061	9.050989128149427	9.734831785419471	9.354626631960452	5.499254212800288	5.492950902421915	10.199923489567492	11.872654884880385	10.951410265929448	5.788816914248168	5.182330118446636	8.937623955095802	12.371096579788933	10.46323392133678	6.0633168067435985	9.789256071170735	10.623189899326485	10.62679001986183	6.238141520962853	7.2008013543478	7.947753409346693
380	3.413553706133803	2.4370520053369034	2.868854753880495	4.501954544145132	5.966230377392771	5.722815975999277	5.864874824975329	4.0309061902318755	4.171069611508856	8.003191927730894	7.566060047120679	7.413896541950656	4.871208178619351	5.211962686731196	9.112776733279071	9.387039160870318	8.900772072254274	5.219984995060551	5.556998715675737	10.224622700625739	11.427502603289442	10.554432842310138	5.582952008456892	5.349406228864653	8.999549843000977	11.869535416199296	10.258917782631437	5.956778511266732	9.977753614029785	10.494922611442322	10.614257785701575	6.367723925726021	7.234377842757901	7.943227747889614
384	3.248821488761015	2.2340962830404796	2.620038264335357	4.533741462705015	5.900368198756567	5.511305795106287	5.536557660429494	3.776324024202881	4.279588211698741	8.103880861802851	7.39335105936703	7.074494344016061	4.591539371342048	5.458299623059938	9.33827397849832	9.217875457378957	8.598564126239932	4.9940552585399045	5.786267265969693	10.409285519068202	11.127189608137016	10.275862667842562	5.417137132319137	5.622485623469383	9.21293160973519	11.553626984990052	10.174484227241583	5.937709793358334	10.426671955486707	10.590034458126015	10.756337138675379	6.722082597927055	7.487075786761014	8.106757143533871
388	3.159651509890689	2.077088112355344	2.423082583985454	4.613620269571211	5.857747063152505	5.32766054715686	5.319606767575143	3.673417797350878	4.423278797426045	8.200569132127585	7.274718266240035	6.912208539677257	4.37939642754172	5.762331471199802	9.562701201137262	9.126568771208117	8.409384706246373	4.811859595547755	6.121257766527732	10.622641536595935	10.877715083315218	10.085593198108102	5.282862649931097	5.940633281967895	9.47985169878296	11.342485399219422	10.15944764433277	5.975694641284892	11.022505732363719	10.810494395618724	10.994113894361671	7.191698533020685	7.845395545225239	8.354775407678192
392	3.069663040040373	1.9203304003869224	2.233161205375604	4.60873888759501	5.704597935578964	5.0832867494034835	5.13786314620783	3.616054764201028	4.472025383148918	8.134206751313688	7.108430844479695	6.84254596889977	4.237433899671381	5.979187950297068	9.609841322478205	8.995900131401305	8.283061960288451	4.679156768429185	6.433499319999651	10.717531177164467	10.577875110622534	9.946548436801441	5.191793428664442	6.193592055895887	9.670599913023047	11.129748316321473	10.160144780256303	6.0403766479575225	11.584483117419472	11.013729067651992	11.234808893448799	7.60177848804002	8.14375493854544	8.564810731244584
396	2.919306747695377	1.7388589338269662	2.0246767946623523	4.4267759211354765	5.364086614417189	4.734115111796288	4.937861430099017	3.5142688662493944	4.332450378923675	7.81685302668158	6.836282236005427	6.793481809630334	4.185593594473896	5.993219837316084	9.38020894543346	8.756605126207127	8.19672582464217	4.630455005399068	6.591350538778362	10.605938884660567	10.186997387915557	9.849518751072297	5.185626970550128	6.283327563634414	9.690052961679987	10.856424304255203	10.162277196022403	6.130264266749133	11.958397835103359	11.097766848201536	11.41126915911656	7.812691668812447	8.26286218464365	8.653417565432495
400	2.715145104228902	1.5572657545826862	1.8211743785654289	4.080625046917871	4.87423704824061	4.3220910916878665	4.729885089376547	3.3572308932419466	4.017119397511557	7.293154698078253	6.484568102677112	6.750915510299327	4.258944023823616	5.792786583580186	8.91660592688959	8.434419610663145	8.17889688334197	4.72394798993475	6.542605860404116	10.318510983164572	9.769479726921348	9.834759687388857	5.327705846686775	6.195578082654788	9.540780043355694	10.569050762195106	10.215731594996331	6.288401587822043	12.10563084407001	11.071943255127085	11.533963174309719	7.809495906186238	8.209124544398465	8.638379075175052
404	2.539662593151567	1.4471312724770211	1.6937924580725232	3.6995289232309987	4.386419762027161	3.9692175288123073	4.588160503247551	3.226170770129238	3.661190738971104	6.738095743333402	6.161654456794392	6.765237791146956	4.489422786822035	5.4961223463531175	8.402426698451439	8.14845846026208	8.297772386581878	5.012028204661519	6.359528048671518	10.006546948918027	9.48295686234934	9.978984807569157	5.671908364280882	6.029172882116669	9.33865544822392	10.42038056603726	10.417151424810061	6.58617685562492	12.12875458516153	11.063659640035695	11.695603341137945	7.7198762698768615	8.12082193231672	8.639734246375244
408	2.5057015355743464	1.4854129515338115	1.720594163365268	3.4690341861878196	4.093736638223879	3.8168783091499296	4.603052604497794	3.2427678026343316	3.4633021267235318	6.379881365880873	6.004972442724644	6.910514814095596	4.876591193284715	5.300636754958243	8.080694178206606	8.05379102580871	8.613883950420002	5.498764024202893	6.208686336100697	9.872913335668994	9.50573251231625	10.346984837157624	6.220406516582581	5.952206119768267	9.260007834897095	10.599612209261501	10.850798579476926	7.076219540850083	12.210300414728595	11.248050661298668	12.01660916155551	7.7404866023138394	8.188758829423028	8.810062386203997
412	2.676976673996899	1.6941677289150816	1.9257882784859355	3.5253457934064865	4.121462334717599	3.938163270544154	4.809310900943594	3.478960266866494	3.573536148585721	6.380354388340616	6.1005649412625935	7.217814427272375	5.361802087598005	5.3734445436232985	8.127609232409446	8.253315904760525	9.120755172589982	6.107405647116904	6.254289611284632	10.060292218557723	9.935406659790997	10.931204768238763	6.892550927879964	6.100696548317925	9.440538382537001	11.22155282048422	11.516781777868722	7.73714158965749	12.493579832958696	11.735101670200818	12.558268515351525	8.009095171734545	8.532617547426938	9.230187392772677
416	3.003009550142129	1.9989998290136795	2.236988061979101	3.863032331250199	4.440986145251211	4.274073589978045	5.135359274296427	3.884047975270626	3.990633000788878	6.736422044912335	6.419697745327466	7.624504546942603	5.824606880741059	5.742834076687261	8.547110535976772	8.726426102540646	9.711212133684672	6.68228719931537	6.549390299473901	10.55707833485717	10.71374413646358	11.617396325344187	7.5283527184194945	6.478633864258256	9.881401990737894	12.23528095970947	12.291605918368534	8.446344354285381	12.97535130085855	12.480339972457456	13.256492581276667	8.499525048731192	9.107350326432421	9.834268545117148
420	3.3131513511932025	2.2376306000481576	2.491980784800272	4.312494743903257	4.859659659513986	4.6353554608615495	5.408933625870122	4.277765263247533	4.531537998202521	7.259225350171974	6.810788614243621	7.974353293312738	6.110961898633804	6.255762561262602	9.146700835976624	9.315442061746882	10.195623372085674	7.032908421879844	6.980077725907271	11.176182718670058	11.621895760757631	12.203224151318727	7.933426836964651	6.923554402990897	10.418814632813675	13.407056774622115	12.95128056117323	9.004548050080643	13.476766552278146	13.274642910820686	13.920416796824542	9.006396270901172	9.699349378892844	10.414544079235588
424	3.3888759527476218	2.2278411332149637	2.504441493386976	4.611570346633271	5.103877531517024	4.782086360301881	5.428389058712848	4.425981987269073	4.903984534280006	7.653022269954099	7.060665112788769	8.079241732226388	6.089956745030832	6.6365985702803325	9.617443060435088	9.785135244459948	10.373991940055747	7.008256894537298	7.304668884908314	11.628484696593047	12.358431784899034	12.4719428701227	7.952876547761493	7.1705460367362	10.78441998619969	14.397873842127867	13.256454434304107	9.210717177978085	13.71793075912776	13.827672923462504	14.307036363719513	9.23823545030851	10.023551915610932	10.712622615470318
428	3.086679689243626	1.8704147291643756	2.1656796877542304	4.544491279572405	4.963038431988576	4.551280010176603	5.072942244119543	4.168817509616349	4.857148158208071	7.6645870015228015	7.003973943193131	7.820059279725243	5.720864281515679	6.62841699834054	9.68769929347304	9.93474671716571	10.135086987655994	6.572393877601857	7.279349308708812	11.663826912995516	12.67179581303853	12.294418303920516	7.546066265127702	6.993072492109814	10.737131091665765	14.908837280779215	13.06655785122642	8.959905601768062	13.46575066027715	13.909849131751123	14.242344820303742	8.977699257118644	9.877169584132368	10.55693528371007
432	2.436611884640993	1.2244501082977208	1.5216890535082632	4.067045678360847	4.411840904541104	3.9584398169712323	4.385951507938988	3.5238490015706656	4.32382582526503	7.2196912583223245	6.617720587234733	7.225392323371407	5.0895166268596785	6.135759814983549	9.265048003646577	9.699344610521274	9.52410504797543	5.836107239293566	6.795973760612812	11.200178118084573	12.475334135983278	11.700561493896423	6.818063241910801	6.337187751028948	10.191657994288068	14.815584145333503	12.417039839865808	8.306243875513125	12.668707815609803	13.470459904039675	13.717215503392262	8.212724664933809	9.257586455813852	9.963530515310811
436	1.6540375906191835	0.5057297932254133	0.7760512213187046	3.343373051785235	3.639113417020618	3.211292973993705	3.578951111340604	2.7002074650301657	3.4701888473634934	6.4697894886702345	6.045212730403809	6.478619559143547	4.388039577849487	5.2855095729896	8.48728177788808	9.184158302007543	8.736888863439523	5.022385584548699	5.949966415641842	10.368314716864514	11.883435219325824	10.877216311648997	5.985974773552638	5.366897092620541	9.269996619661915	14.218999826771375	11.513028115768824	7.451047878526779	11.49869725185237	12.663655249094239	12.900149312828203	7.158652287529168	8.37286851676337	9.138048148925716
440	1.051264044968494	0.0026135011510131523	0.21268692558949723	2.6728596619833676	2.9665296002830597	2.625125401544803	2.950545065106132	2.0121743628244113	2.6246190004840697	5.725606903879193	5.537044034329634	5.846992001076387	3.845170488186165	4.372606743263208	7.658302287793552	8.617326714693537	8.041849116048821	4.381826866530945	5.002017485387477	9.451261496523601	11.154915781467892	10.09299371078473	5.29672812078232	4.3935541995701834	8.250621774823479	13.390442814397948	10.64284417326368	6.661959631312493	10.27925393370314	11.772659272034705	12.061237304753382	6.159855827038191	7.54130409244075	8.3794107225574
444	0.8853269793092589	-0.058966930806771234	0.06707519275896563	2.3391179979395096	2.6922247341848418	2.473668807460031	2.7509787013216584	1.7289519266345719	2.1155679172508677	5.305697904542633	5.332318769343586	5.5596861698925855	3.6306912807351193	3.713873377006428	7.097681981286619	8.24044702356743	7.660095672341026	4.09039162556753	4.248527039291811	8.745888687940726	10.568364116689027	9.579522108687566	4.9277286405127825	3.720405092383003	7.436356048882477	12.63593575148356	10.048345540426265	6.155982955649043	9.333968138970617	11.069070788093322	11.441357583723212	5.519301877392007	7.030158025158272	7.931154231074394
448	1.222015973820529	0.36676758435155826	0.40902167455402	2.461957210046973	2.9396836683440033	2.850369207815106	3.058691970732135	1.9385024260215844	2.10466503565608	5.377768502962967	5.5396485188811635	5.695628151818652	3.777649631499339	3.4894628436679804	6.983077031624797	8.192443826972317	7.6624102399011	4.175909031815242	3.873559465165271	8.420501687724652	10.292597744704606	9.426924681704675	4.915088641155047	3.488821736110395	7.0111722769151905	12.150176017602563	9.816565488826395	6.003580555063364	8.837322212795328	10.683071109502448	11.135807009238306	5.350436197123772	6.922570687936007	7.8606815139671635
452	1.8987081002935031	1.1158105106792482	1.105294701646655	2.940483324256291	3.598520508263852	3.619843473831965	3.739295234776106	2.505065673225488	2.5133211549246157	5.882115349223794	6.085884555710058	6.146006091813149	4.168153752293806	3.665673723502632	7.27468727182483	8.451872804283632	7.941619376159055	4.513789165544696	3.872429122684604	8.450196244839622	10.32308480517451	9.552026724540678	5.148887144440495	3.62033533135941	6.968848687697096	11.94233700598131	9.85408208266478	6.109548076463302	8.754233338188213	10.560285541575146	11.0615548808247	5.53965376408989	7.092764359686486	8.039107302396076
456	2.612536185344288	1.8949243974527143	1.8863558721600167	3.521167746236859	4.390442837120764	4.488861549488247	4.512092578940092	3.146690599126293	3.0845234316196755	6.577437384211438	6.761170847034909	6.67435787423163	4.5949697378495005	4.041816224384018	7.76022241540488	8.866435028578758	8.277094820105763	4.896363245999687	4.089209546255328	8.66266820627828	10.51415631500704	9.756793951196542	5.4393811088559945	3.889040937141565	7.15044925791731	11.870377510618557	9.957878087651743	6.282170756691534	8.89858434337796	10.526700946933378	11.026698084648057	5.839086517850497	7.302786808649638	8.233441332056797
460	3.0816767137923904	2.4274301467643946	2.47834228843578	3.9447481532637347	5.016645418852742	5.153527723652411	5.085148321664408	3.5847391991708393	3.53597282470595	7.1742157754964655	7.32902811107362	7.037527543419695	4.864391314622889	4.38336895789668	8.183697679838637	9.243789649513237	8.452381112692992	5.136432157899676	4.334272850537726	8.856218315652894	10.677763911945046	9.83989045519817	5.615672574170178	4.073154916016321	7.357745628853898	11.752227753531603	9.936826680844542	6.34755276031064	9.064987159730295	10.413426372939583	10.85580346227679	6.026581749005535	7.35563180973692	8.251270273357
464	3.185242644851102	2.5813388759290348	2.725419991287921	4.080381859967802	5.2993745670036665	5.438295350649507	5.283642755519947	3.6769585516601757	3.708122720893017	7.474212627613802	7.635200004374096	7.098006707390535	4.8824481840841365	4.553227889962945	8.375931718659935	9.445732092851038	8.358489015456902	5.147248731969046	4.499000537957522	8.911680199057788	10.685094806396751	9.69580647881634	5.600841031238875	4.086525906735736	7.466253261789171	11.479573220833759	9.710690473834914	6.23997257564573	9.145774818217731	10.159217808823097	10.492224666808019	6.030441268954287	7.207011681480559	8.047611216254001
468	3.006660215416115	2.4137649475191107	2.6418211393413955	3.973132361871271	5.244606004825049	5.356761918848523	5.109811293098723	3.466113320182621	3.6250843910245436	7.443760853093518	7.661018352239819	6.872586232953563	4.683710563278527	4.5650296095986755	8.316921213132652	9.438667273532937	8.033012369855312	4.964139448984087	4.597833621814438	8.835815407379211	10.518711063530699	9.353552794682889	5.430478082297662	4.011140813237101	7.473256569114018	11.071213694276876	9.336804366380449	6.021787151391908	9.16648671696915	9.833369230239047	10.021039937467862	5.94710157800259	6.972584706822185	7.735279063722251
472	2.761314861955352	2.1136209911388395	2.372338765830489	3.783542385085535	5.000370013010045	5.069348799304396	4.710979926612999	3.1248013894342432	3.440233937160802	7.1900548753405085	7.500015716690501	6.498387797161263	4.392333019611109	4.532774913787777	8.104022959275637	9.281001067571143	7.620624999833257	4.702810752439288	4.715701568141606	8.71820066158241	10.254470799305263	8.94095800049754	5.210904108242658	4.01288889825466	7.458782654050464	10.641946765734206	8.956376053131953	5.826646313261544	9.225658393455499	9.570967650091001	9.603763556075094	5.9469776003417705	6.831212980189369	7.496975879814631
476	2.654276364300794	1.8788179111728835	2.090078587023474	3.6621818450019266	4.744360434951573	4.770082461711582	4.280748833338877	2.835065596098373	3.3075599586902293	6.866044980833848	7.28045557091305	6.141898616542758	4.140437115706069	4.5565776709908645	7.85658071441697	9.064971900941272	7.28233717033457	4.481669414649228	4.901197897934503	8.63701913560329	9.993390058082104	8.600385644179669	5.044163214346011	4.196758736505033	7.4918346215878655	10.312925312707483	8.696542717911504	5.761350617167855	9.384286856800117	9.464797949736495	9.366502738192674	6.131172641533216	6.88704870392535	7.454654197945165
480	2.759075634666084	1.8055639221381667	1.8986438464865976	3.646484365793512	4.578358638648275	4.578140724067526	3.95783637954905	2.6827917031265045	3.270436040250633	6.574295027346813	7.090898495891148	5.9114718287944505	3.996581305903865	4.629218089813813	7.629425506402836	8.85993573812886	7.112238389178334	4.357442844833475	5.089046465422877	8.58586786009767	9.795799230639078	8.411885240297677	4.967986571166756	4.503087986067319	7.5539679336563355	10.129236195739614	8.593334176301964	5.830933079302968	9.587571119897714	9.489991164089393	9.31584451230739	6.437262042005532	7.083674412962609	7.581828575065487
484	2.9912242813883143	1.8549383831875192	1.7966797306475355	3.6480030921385547	4.493937004187347	4.49812840279737	3.7797577285704325	2.630755417857493	3.2426483549265033	6.330656035652372	6.954359037007361	5.82343719919494	3.9455621142907327	4.631394374598357	7.393816452432262	8.693483330712198	7.108184319669527	4.309678066816863	5.115599619347536	8.4749316955218	9.660564398216842	8.368110635610833	4.945307242305559	4.720847594739941	7.537566165967033	10.04019448606452	8.582643487242041	5.935003265655205	9.677904104593962	9.51378438454934	9.33721063163821	6.660358412139289	7.229412060604911	7.7160248561597795
488	3.183433286258868	1.9071493100652819	1.7157130198076453	3.5318610579011454	4.418392170241116	4.4607128984362685	3.705568781080129	2.575695031338792	3.0879607122659043	6.098863109449263	6.856190664147302	5.83016680199167	3.9230847259655244	4.418040741256408	7.090049725751689	8.571899392420534	7.202389222080607	4.274258125957803	4.822125899537949	8.203252771647175	9.553988432604573	8.405622461077648	4.902038561842293	4.613479125772739	7.319531422254823	9.94955537191348	8.557350137086175	5.933252796451861	9.491708731528902	9.382682776603971	9.273274398279128	6.576697332943775	7.117535573155439	7.661569099156154
492	3.2095680155782604	1.862356896466824	1.5990520675341318	3.2329173006450413	4.301054943669689	4.407186973888792	3.6817448046235555	2.4450066027899644	2.7416489055078115	5.86211298416199	6.796938402181421	5.8822173923753915	3.8786277673070155	3.938517322133226	6.709240896451909	8.515814759688599	7.324644547089326	4.200971592787121	4.18147896664615	7.752629260516825	9.462208723973989	8.46547029265262	4.787167537046865	4.081489075846354	6.862504464943129	9.800180410437587	8.450757959010566	5.739841446689934	8.979197479465936	9.032540298545126	9.033533073505998	6.094102367273782	6.667758447978761	7.320141773815782
496	3.0757384222577	1.7204555229618703	1.4648506604404015	2.8283815312501366	4.175798882431975	4.355329502553655	3.7007324602152645	2.265052551272869	2.287978404944235	5.673692212085216	6.824875337535692	5.976802334000601	3.821921577340932	3.3074974930226624	6.340815528119398	8.576310136122776	7.452162723799844	4.096304883151476	3.3611326132790924	7.2355117615172455	9.424744582222873	8.538565614123346	4.61558769968099	3.2567369855672026	6.272656424897928	9.632918333528341	8.289581277898945	5.386783586253195	8.26584337054921	8.54908941017832	8.664027192175727	5.333182321434911	5.998296245689498	6.767233831486155
500	2.9189495966647847	1.5876426656693219	1.4074292147388192	2.512473815296628	4.152793873792547	4.39824723086937	3.8098730944764543	2.1522855704327006	1.9345811556610013	5.643834099825396	7.017960530682232	6.156437858296821	3.818893661393987	2.7699513365429222	6.14341257451623	8.811303116486508	7.611711959694628	4.021160115579969	2.6679158143395996	6.855081540920122	9.519880270764418	8.663353898110044	4.463150966820006	2.4596474108584685	5.766021237120663	9.57462880578244	8.178755739543497	5.0129070155418685	7.606011848319859	8.134196260896234	8.328857400846656	4.581661689634808	5.377166257633677	6.2227439723261915
504	2.919710867185934	1.6106967885359207	1.5396997889745703	2.489068740282478	4.348544109809556	4.641218650544012	4.071125497076133	2.2376949730643525	1.898121113753237	5.872437462285337	7.4285397342049455	6.464602454076397	3.9444515605520816	2.577450507332285	6.255936606824907	9.239456153430428	7.840671042673691	4.050148476865423	2.398731225633239	6.799011213302897	9.81325623895682	8.883711792451155	4.421258438391839	2.0393786378869527	5.560056195526417	9.763463949348646	8.231432893951517	4.7880515931359415	7.25301120834196	7.997648695780779	8.21654126953843	4.14724921133096	5.081310259387721	5.93508051327464
508	3.186599008144186	1.883513803495012	1.9159377764966454	2.8493275570456413	4.802501189504489	5.121523367348938	4.503581989361971	2.576825373819459	2.271362060534283	6.373995288014875	8.030318239918266	6.89357326674457	4.224956501784182	2.848567955454542	6.705215914009678	9.806407903707997	8.139643648577794	4.2212510002371415	2.681624644184749	7.1298413096661175	10.304689381331793	9.199997878688743	4.540815341929098	2.1875181142890594	5.752742752809705	10.257352803082165	8.489732720875056	4.81778763508357	7.320053558941737	8.23749444789129	8.426650026027	4.194025505921113	5.245116697420195	6.04580686950143
512	3.684126844641345	2.383172506037511	2.483297341752738	3.508322706901614	5.434613214123159	5.763812527409442	5.047931658397776	3.1023223321789857	2.953580610447589	7.044727307653226	8.705031372980404	7.361525993834587	4.60657929211096	3.4945447356686996	7.368580799572391	10.389466259474686	8.450105645779791	4.504623401712856	3.397470227246797	7.736166457671427	10.90671631920391	9.546244597174905	4.796107280066286	2.829822056301431	6.258469088965731	10.979589434559475	8.883494354707564	5.080687033223524	7.711190204224964	8.775591828124522	8.90059468883187	4.652750957186038	5.78244446248203	6.508880598801031
516	4.24833964228911	2.9747159405944226	3.0941719930729765	4.240849484226966	6.073919280929476	6.402954562233752	5.5788030483538416	3.6501905825962884	3.689993133765328	7.698061923618461	9.284018493100634	7.738301734460469	4.971691119039483	4.255912293179415	8.019484499711243	10.844559642114747	8.674547173533444	4.80964373327918	4.230170239258812	8.376524904083242	11.47134015048101	9.811454748177677	5.0901551118129005	3.658567180933294	6.840764982118377	11.736384362153146	9.253615355970362	5.434682355510923	8.1642856391772	9.385958647872556	9.437329268470398	5.254975305641154	6.4260616140247775	7.109196644953836
520	4.677879798522741	3.479127636708601	3.5732018857386643	4.794743048960111	6.541755182916029	6.8628845041572575	5.959563717100765	4.042973031326898	4.198620785603115	8.150394419119499	9.624121641656018	7.906940440241972	5.193960176705847	4.829987990582552	8.433161714242981	11.070884676638547	8.727239586730487	5.025366293617101	4.820269572485751	8.79335305854843	11.851261108994457	9.89320275669931	5.297792421316743	4.287996281288108	7.225691300268846	12.297896354143667	9.426698660892256	5.686954483932836	8.383647897534496	9.800122236304434	9.784696554275508	5.670665249812585	6.860805494152741	7.567001800505753
524	4.8394489166145735	3.7582781219962453	3.796608676861628	5.011218058331777	6.7361116239231285	7.0409793675992125	6.103091224520375	4.174730290363139	4.308033455462373	8.303836801544593	9.670871710202537	7.819867114350972	5.195915209049544	5.013725744940436	8.489199616933531	11.051810236684263	8.578929879463331	5.066596495234196	4.933768259943335	8.830195404646817	11.957130401940054	9.746558164784396	5.317799554750116	4.441369522325438	7.229915600642702	12.494370428965	9.293752646823616	5.682662949519843	8.185126283961008	9.827234243377095	9.751288389381829	5.667245850559744	6.871298295792509	7.665012340266845
528	4.727697360500235	3.7706427478958138	3.7412104512171935	4.88591479021552	6.670074922887463	6.950986367795905	6.00537680063378	4.0494999783319034	4.029661645252108	8.18021104654666	9.475044226566094	7.518133144470687	4.978160368748492	4.785315024691923	8.215815523385478	10.84996506812649	8.268814066037313	4.902785288830153	4.5573124770498	8.49148938896144	11.782494515234971	9.400829291450734	5.10900448462908	4.0701422588584	6.836646539593374	12.278341262335129	8.851760841909265	5.3675117357159134	7.57785223001327	9.428363776244497	9.281897521426302	5.207789884770295	6.428194506628035	7.333903294166779
532	4.450977314201816	3.572875013867541	3.4816231639697564	4.544103134126607	6.447765810899911	6.705315096138333	5.73860739212762	3.7587058449260735	3.530503740933747	7.892468909364203	9.15864465308514	7.106954079804469	4.608727443503242	4.288301933905744	7.757911662542062	10.56489655688333	7.880617598664144	4.561198699879344	3.877839078649339	7.921221713094099	11.39100262626978	8.939123131117407	4.698561656533268	3.3508279238977607	6.186891063328576	11.728062600089196	8.193121889409571	4.799073684019978	6.747289163720348	8.715674378324627	8.465854623401162	4.4472546465171225	5.67829035279016	6.661803228724997
536	4.161938656789478	3.2782599843226765	3.146265975637985	4.157115448946431	6.200150474153253	6.453284247317863	5.414666639008725	3.4216318044105267	3.03244327733222	7.577498893679934	8.854854561383876	6.706890089267902	4.18713282481669	3.7403747940995524	7.295214157759333	10.283523533606912	7.502212505472797	4.111216534725156	3.17081283722457	7.3226513677730685	10.882038088980574	8.458589532477122	4.16658638855875	2.576242917232184	5.501234517513306	11.001398058771992	7.458012085204754	4.111658562769695	5.95928953573549	7.889365176309295	7.486827354602217	3.6434168723625358	4.858332621706057	5.837520584626912
