time	FP1	FPZ	FP2	F7	F3	FZ	F4	F8	FT7	FC3	FCZ	FC4	FT8	T7	C3	CZ	C4	T8	TP7	CP3	CPZ	CP4	TP8	P7	P3	PZ	P4	P8	PO3	POZ	PO4	O1	OZ	O2
-200	1.5739382465678748	1.590964551723557	1.3199316229873783	1.1548796863008228	0.9576708650251982	1.985027904267156	1.7422556833148504	1.2414513795026605	2.125004286169304	1.332312103722417	2.199025386980343	2.077355379581842	0.957337675061745	1.989153380140224	1.6957157807452794	2.2944476546532435	2.004801506702889	0.1534036543072502	1.7949972107390637	1.5404800137727102	1.6652286010660877	1.647910471570322	0.5245405422318759	1.4079292977072222	1.6249631602268912	0.7581377606324254	1.0847055884631638	0.23611719846716248	0.8226703980656266	-0.1092477438075805	0.22307105306095287	-0.4991834747109048	0.024781405863183698	-0.03706210469783
-196	1.9461281250456053	1.8266085340158813	1.898872728321957	1.2669211594066172	1.427997227878113	2.3802549778924114	2.0861263222476856	1.4125087225537534	2.395555967004781	1.7262842611597398	2.659036629639117	2.3684446751878547	1.1050893040412775	2.247730011033401	2.0448348470559163	2.8827853130036494	2.4154636798909204	-0.46074873092671764	2.148724788962809	2.092034811460063	2.4680042204534587	2.12011217535707	0.673588095394843	1.973930115484445	2.3430554807634305	1.6440008837200852	1.6048099954141866	0.5529810176239377	1.6116191108068463	0.7291222792336671	1.0084968779851011	0.4469350863139955	0.8232420662122241	0.8941934682204363
-192	2.0445620962021125	1.7629690125777397	2.2411792221705458	1.0586304637883968	1.6824728208025184	2.452390664584676	2.0545604177100723	1.2507933346640108	2.39902185788043	1.8736525726696895	2.7590537001568616	2.2219929639029465	0.9081751085240338	2.465084784959731	2.2412490788140462	3.1101164739287164	2.3454866350083914	-0.654012141960686	2.36340498327553	2.489029639635604	2.9281699583511003	2.195167059124484	0.5834153875879918	2.3536851346672574	2.9474677965134375	2.282424682576665	1.8050342752660298	0.568199752326725	2.3470134675851027	1.421880837665284	1.4800239764039846	1.486071821275495	1.5454890688976979	1.436689492413052
-188	1.7874010756187768	1.3935089076145406	2.0939061588827066	0.5989393576759033	1.574695583182479	2.144244903872801	1.6169719655220305	0.7918595055614769	2.0862164444703586	1.7218983129896608	2.4659449991909574	1.6523246723419531	0.40636488692683187	2.512722009036846	2.236192459182648	2.9383175298892006	1.7810345843171016	-0.29114544318124924	2.3419167936325165	2.625689499901533	2.9778530522503206	1.84168242943223	0.27107575467334183	2.3941996037116966	3.273283473333654	2.5691618854507454	1.645404215473134	0.29097753689734085	2.827277176394526	1.8191434099044799	1.5507085284182114	2.218407625319469	1.9486186455166121	1.5151597223174726
-184	1.2199711768820272	0.8030215481510933	1.4169372284400945	0.061888530694156944	1.0931150885640022	1.5233607253714132	0.8956057406701788	0.18983945202581315	1.498893853217915	1.303900715396932	1.8612203551031163	0.82655030280284	-0.23636203944612041	2.2585837784010176	1.99642550441233	2.4283225475037185	0.8984807110990164	0.4416953016096648	2.037891382794272	2.4405658183468306	2.6525664262557944	1.1761367291319806	-0.14919422529222795	2.0411155172313222	3.220448485826669	2.496533149138144	1.211406227868007	-0.137004673135084	2.9243910238818813	1.8787316036474668	1.293607470107368	2.3762087761966946	1.9276936005560152	1.2479625908814849
-180	0.5066857325159075	0.15250687262654622	0.4372099030900293	-0.3473475864700623	0.39219206472560003	0.7759166936357863	0.1343647983258082	-0.3348721257338138	0.7784487585440968	0.7443777303975434	1.1290076942549372	0.011104678707100368	-0.7795931677208949	1.6914783673496059	1.5510141810358478	1.7387804941146399	0.004397825326842973	1.150045630412454	1.4993028602893312	1.972408289697882	2.0974283165428815	0.4369027603562772	-0.4944320010576637	1.378480907774553	2.8160793710181347	2.176079267729805	0.7041355949743953	-0.4842880952052076	2.6610345773269435	1.7065770582981186	0.9315466857279047	1.9751034925185311	1.5910030563239848	0.9040561891618745
-176	-0.1389639672108715	-0.37625637555494207	-0.45739275101575705	-0.4894002663653963	-0.26910081437834027	0.13509137894378576	-0.40690249101902615	-0.5966703280643225	0.11890397935887681	0.21543177907911865	0.4870333361250191	-0.5433805571188491	-1.0099263165724957	0.965730545466733	1.003067610115508	1.0704765292797285	-0.6047981366146635	1.4383729659958377	0.8649354555226993	1.3595118488319669	1.511263009070475	-0.11985626786488775	-0.6014837011410066	0.6024782642412178	2.206102604064526	1.7899194910634684	0.3503277590966628	-0.5425316081654566	2.1963865701535097	1.5023307762362763	0.7255836110869313	1.2961674895940078	1.2054351537787733	0.7606213073600113
-172	-0.5526417479867327	-0.6558559520375128	-0.9257491803638188	-0.3606465151741261	-0.6566283090225623	-0.2288435095731351	-0.5836988076731833	-0.5422549830097525	-0.3176866463746609	-0.14423227273765515	0.08478910454562123	-0.7261303048874309	-0.8527122118401811	0.33230906641029834	0.48917993779654034	0.5732272848915464	-0.795189021010224	1.1095963688492343	0.3062700025455292	0.7725308517978686	1.0466579172411707	-0.3557988098221381	-0.42597147714832606	-0.06492808444796505	1.573324199518949	1.4865897856372856	0.2718700461676133	-0.2530742281246293	1.721909399453561	1.431626316270745	0.8155407288941742	0.7062546593000998	1.0324975226083433	0.9329209304143765
-168	-0.6928979140907499	-0.6724652034947545	-0.8637114741453269	-0.09732311939463309	-0.6856711489532035	-0.2949938766661007	-0.4492113280875759	-0.29277187511912894	-0.4784050869784073	-0.2981641285044101	-0.07239463162025686	-0.6290234311434969	-0.42610570680802135	-0.001919277589579074	0.11045385869272657	0.2697990231854764	-0.6719665510378225	0.252097099382971	-0.05132028447545498	0.32320874847825737	0.7261981945776587	-0.33615487729078636	-0.09491546428081589	-0.4728302943689624	1.035615918405829	1.2864258256858028	0.396022229386874	0.22993855120302267	1.337724205454358	1.5062178335308447	1.1108815641966365	0.43464934716158804	1.1545836896356156	1.2790566650522475
-164	-0.6451147778435928	-0.5302613364183294	-0.4572211790462043	0.09794430409975267	-0.4662751543670494	-0.19999302873185965	-0.23049898387410833	-0.09051796026026035	-0.4406184244952267	-0.3264667681557769	-0.12291759221514509	-0.49837490790424566	0.003470758200242176	0.009350464655693131	-0.1205622252758251	0.048186529306107506	-0.5218212591347985	-0.8161656835930663	-0.18475778354251124	0.008033089319451523	0.4320303786814144	-0.30309602541693076	0.1384186294160371	-0.6003490075212823	0.5889304265412003	1.061503884496474	0.47298213720114435	0.5931988939567235	0.9911491845856015	1.554055567632478	1.3110079732220055	0.4430267799636182	1.402455207144871	1.4525020085855926
-160	-0.5568163976916164	-0.39396184583380267	-0.06645426137358569	0.06930471939232129	-0.23650410711658387	-0.15972688753808884	-0.2039534444428002	-0.1681982423588867	-0.3616244485784869	-0.3713248958749337	-0.266755818647185	-0.5979379400415603	0.15201927683119218	0.23557080268988598	-0.27981358695909647	-0.26652300290528014	-0.6483800394854343	-1.7016724305105138	-0.1717615868284973	-0.27619066764718325	-0.016392637002803932	-0.5398165569981477	0.028440229522902812	-0.5467984066509304	0.13160803880842295	0.6137367471458373	0.20854923076428106	0.5243031965369794	0.5213354812811055	1.3125895228624826	1.0660723420883944	0.4675957846756811	1.4416915141899738	1.0982419224667688
-156	-0.5449622855732602	-0.39751779932747977	-0.008251483531324886	-0.2015412295736692	-0.22552184703631734	-0.343859910096803	-0.5338567481867482	-0.6081932171724981	-0.37859919571656847	-0.5498317466205364	-0.6418996437078809	-1.0525923940786046	-0.13150121238409396	0.4480592299116211	-0.4767572271707849	-0.7949896434739537	-1.1857596605880927	-2.115106577301471	-0.13159176674044035	-0.6500215513984041	-0.7335916739062209	-1.190987583968143	-0.5119982348866805	-0.4581119108554788	-0.440933882076904	-0.18443301273511128	-0.5513099418072339	-0.10304589543552047	-0.20900180883091796	0.6025958046004181	0.19866806218533153	0.21087744778797443	0.9814050172823223	0.09147270000728147
-152	-0.6275752170930456	-0.568124590869853	-0.36721211579117075	-0.5770590886805476	-0.5193429576159396	-0.7725724558398168	-1.164819476047761	-1.272118326790041	-0.517652152661865	-0.8790639020660079	-1.2292047707994493	-1.7607960656532942	-0.7708430866806698	0.4462535966096766	-0.7745690326208172	-1.5090243778276529	-2.0006315657649307	-1.9852027842944855	-0.14565688334883498	-1.1524271935930865	-1.6646635490350437	-2.1465113108800185	-1.3276967968798215	-0.4351811398009314	-1.1320571870832365	-1.270891901622239	-1.6930031733684001	-1.1235543461089157	-1.1770212620582141	-0.5216072188559504	-1.1465909452099945	-0.43623879441747804	-0.01633512224603119	-1.3302915062696328
-148	-0.7220451813587738	-0.8090417960721424	-0.9481157040500245	-0.8329919555613873	-1.0067459319446	-1.2960748639762607	-1.834359641212193	-1.8494130326307907	-0.6718452555860108	-1.2617121903035577	-1.8445070935410042	-2.4318807063692467	-1.4858472309745485	0.15257593950850531	-1.138576981530887	-2.2207050267418915	-2.7456057002365912	-1.4677791558401123	-0.2077647144317281	-1.6908326106297398	-2.576149218730834	-3.0644400042411823	-2.069363588830535	-0.4783679234824837	-1.8017102434445882	-2.376001113614821	-2.849465839821171	-2.127637619368832	-2.152356380750515	-1.7443814233607529	-2.5248370106847253	-1.2858498064001478	-1.2558697430374246	-2.6338009767792467
-144	-0.7055783253975411	-0.954915640327412	-1.3950269187038478	-0.7846524695613013	-1.4381123744895377	-1.671215291572213	-2.2048039380674385	-2.0114500471829295	-0.6649339182278194	-1.5377724131859793	-2.22852181825658	-2.7335641315108896	-1.92596077432748	-0.3707261374173543	-1.4460988008228284	-2.6698293618506375	-3.0402090472711096	-0.8593225457430168	-0.2377376401382574	-2.077776188372894	-3.1587824741720576	-3.5337674528548284	-2.3608002603054214	-0.5011511432392621	-2.2226386014135233	-3.132974855142367	-3.564602842867919	-2.651503079395686	-2.7857499052286205	-2.618968480173629	-3.390931836150024	-1.937919134969285	-2.223992580520823	-3.23692511694962
-140	-0.5001401888617791	-0.8695026614170825	-1.4057388270172568	-0.39730927247825953	-1.559663172598789	-1.6934628443877473	-2.0455422349783245	-1.5918978412490938	-0.36898848321260447	-1.5713369806671549	-2.187176222047491	-2.470798486193474	-1.849547143081197	-0.9668818687823076	-1.5538686474669345	-2.6648769311380436	-2.68204402246433	-0.4588919568396849	-0.1478220518671569	-2.135394567820317	-3.1914184012899773	-3.2952070153010076	-2.0019738623618837	-0.39961498874860696	-2.207062000424408	-3.2657549298803716	-3.5289516359877147	-2.4165160594964177	-2.7932519842196895	-2.796480648609731	-3.3830327902257533	-2.0119297453628704	-2.4532272753766313	-2.823016159559581
-136	-0.13045366075481127	-0.5327589498420467	-0.9152430868882995	0.18125529541506266	-1.2564076153505197	-1.3163256611968608	-1.3695663179151634	-0.6952862722008697	0.1938799316756461	-1.3338032927216428	-1.7100734667518154	-1.7035895543002293	-1.256948467895846	-1.4626345597532477	-1.3941161597339793	-2.2039334718373365	-1.7753450825690762	-0.4428958285593773	0.08246204981249806	-1.8128708555227335	-2.6796226433810877	-2.402827972067598	-1.0961255999547168	-0.13368082012757626	-1.7338907674881914	-2.7556481291815733	-2.7620491911771308	-1.4925547800527674	-2.136154169411417	-2.2316026631279517	-2.5368716652716503	-1.3902507985300543	-1.7928606226478394	-1.5466504057935695
-132	0.2820404760869275	-0.06312779321229504	-0.13886342907655044	0.6882228833942402	-0.6208941920816848	-0.6859053952065793	-0.4414925266086509	0.3328192225636429	0.8319137075401227	-0.9262534356573455	-0.9917734836334028	-0.7306972723632356	-0.398076384254582	-1.7208896831933183	-1.0319429609947532	-1.4961993656530017	-0.6941784602758713	-0.7991886118738443	0.3748908927512301	-1.2400579421206195	-1.8784017515441125	-1.222928878557604	-0.020395200648074863	0.23097057582238056	-0.9944179629014759	-1.8807108354768813	-1.6262652832933668	-0.28466558384549745	-1.0844763489999365	-1.2377983300428894	-1.2942504850135816	-0.3259360185977144	-0.5280880914706608	0.009273960231671922
-128	0.5829835519376845	0.34188517841805766	0.5505486712860846	0.8799577333168029	0.09055864043021684	-0.06965307873783154	0.35134813100799656	1.0674011680356619	1.2673852411696667	-0.5286205397610951	-0.3389895549798575	0.057865943613582334	0.3516840627851025	-1.6563550192021999	-0.64382016496234	-0.8639175274017952	0.10677978369456406	-1.3307102885027673	0.5897521957766438	-0.6774609071793462	-1.1751588553322645	-0.2586998932982616	0.755562780379985	0.5496484623383148	-0.3182888619016286	-1.091821310147774	-0.6516507847545813	0.6621369106741513	-0.1108063158575548	-0.3458949616759088	-0.2866665415678778	0.6639249904082537	0.7366375904558427	1.1159411640602659
-124	0.6602846367377877	0.5066273795688198	0.825639305414393	0.6585620029034834	0.5776796326357374	0.2725752287181705	0.6872227770620789	1.2097284763311051	1.2777669397518538	-0.3166326276414364	-0.021231012365263004	0.37071293498856983	0.6748630387433697	-1.2464227644922452	-0.4339913118849291	-0.5826691374372881	0.32172650017572524	-1.7368327335375873	0.6080456360724068	-0.3914028992307663	-0.8977592564804766	0.10050066535132841	0.9032850242697175	0.6756135804284865	-0.018228599755636794	-0.790079114826531	-0.26837131313277607	0.9326106286344592	0.3333085170913687	-0.039315633376518055	-0.010438123691550363	1.0614459487818986	1.3725545371687882	1.2720303503345747
-120	0.49582034224258925	0.37058752681627904	0.57846182438715	0.1240581345406232	0.6370887740262711	0.21391732936732796	0.46621152640891234	0.7328857760999281	0.8211945274600694	-0.3810116043007945	-0.1374254223214912	0.1537691201857678	0.47272086024143106	-0.5389137254460142	-0.5274094925916063	-0.7389157991826958	-0.05403435961670822	-1.7385555461858255	0.40763690964777194	-0.5149160014503588	-1.1433029145939064	-0.22130715791140695	0.4038057913121839	0.5419361577656538	-0.23096197785239342	-1.1168789835387942	-0.5834613427689976	0.4485967445968485	0.04622150573385543	-0.501209794209573	-0.5643039927540413	0.6272746904748469	1.0502462360568792	0.4667742240564937
-116	0.1665527667370493	0.019773904184246606	-0.034450132312819216	-0.4793768811043717	0.2497676306617405	-0.1835264260903665	-0.14987611732789802	-0.10917393090579314	0.0731846092283736	-0.691131828470514	-0.5708058462036597	-0.3925326456649867	-0.09424072480250083	0.33857235226980553	-0.8989395476533389	-1.184718486655785	-0.7298725228955608	-1.2066531150870388	0.08535336681512404	-0.9739685034003409	-1.7241781906465634	-0.9505973434289824	-0.4465031910590434	0.20109756240140375	-0.8439945557266321	-1.8752560568193886	-1.3284637894468547	-0.49898749463937814	-0.8179349878641119	-1.5161902866230372	-1.599396224752196	-0.46596339227333883	-0.0890194622414874	-0.8193536380108292
-112	-0.2025173599375301	-0.36135747937521195	-0.6934075934069374	-0.8905148483681212	-0.42136362088630863	-0.7085391265146385	-0.8311101773259344	-0.9148113108426367	-0.6528494937626327	-1.115568038984914	-1.0547693941188847	-0.9260035729870779	-0.7021206003582058	1.182479020947938	-1.3790184224597806	-1.6158409077856282	-1.2810280290685716	-0.2394317978535922	-0.1939773256649632	-1.5205231866594	-2.2636611404487454	-1.6135208565982486	-1.1980044811519652	-0.20029161819910812	-1.5485153159145935	-2.6289853983307117	-2.0098071047584884	-1.4124548399550125	-1.8262182428028775	-2.5828146869299475	-2.5139746602482833	-1.7228767828358231	-1.5093203744928603	-1.8858628225396794
-108	-0.49296644205562656	-0.5835470542479683	-1.0888068648505143	-0.9611873602441336	-1.1059671612473132	-1.1028836937715776	-1.2443814246231315	-1.3320544924483482	-1.0565783950832506	-1.4757062159473566	-1.3048688140349296	-1.1346224517786032	-1.0342161629314577	1.7695749953415179	-1.7275167660012933	-1.7243195728636136	-1.3679730857643395	0.8605154731005396	-0.2888473861077361	-1.849849338629445	-2.3843591153027037	-1.7826603606038904	-1.481070633963598	-0.49459323162137403	-1.9857381532125062	-2.921348325983069	-2.1724541132437185	-1.847500558003356	-2.4803776678404317	-3.168952218637959	-2.7775883604494216	-2.5793969566071557	-2.556166642411046	-2.1980042402086295
-104	-0.6341624839984115	-0.545630036406993	-1.0719543668385583	-0.7193149310070855	-1.541436787528229	-1.178591606025502	-1.2080508440034927	-1.220987555282171	-0.9938244794549457	-1.614335652090271	-1.1536325187166914	-0.8810348488498196	-0.9377987957165447	1.950031156384933	-1.744002576239517	-1.3508150543440365	-0.898829100246849	1.706050391658213	-0.15893495042728006	-1.7456502870355277	-1.8952431630921682	-1.291570183354089	-1.1873366802755785	-0.5710723385697776	-1.913198347029685	-2.5023610528709885	-1.6357465941138503	-1.6324363905699617	-2.4558615622504734	-2.9763445779041535	-2.2085826341180788	-2.6824381283745895	-2.785753958344455	-1.6712923007730685
-100	-0.6162400826154385	-0.28110846806125017	-0.7094244343012522	-0.3394115260614795	-1.574641700583738	-0.8954005218787353	-0.7607754449710113	-0.7013940793448729	-0.5400547967627134	-1.4504080974199196	-0.6220284684688968	-0.2522266798803855	-0.4863437103867089	1.7211667255815348	-1.360139962577024	-0.5598798380067579	-0.057067639981669555	1.9902738282498829	0.11462442547945338	-1.1799496382486356	-0.8824135638846382	-0.3066914967899942	-0.5050399290685247	-0.420014469755224	-1.3076952662830426	-1.4471371137321942	-0.5769206866957285	-0.9329545474339449	-1.7422687963366679	-2.0752181954441715	-1.0564974519758499	-2.046428675253186	-2.1719036047459626	-0.7011362296522256
-96	-0.4810618150009508	0.06231159328583364	-0.22233615759505013	-0.04126676161599195	-1.214850303443723	-0.368058084512332	-0.120231240684223	-0.06839688850061997	0.05725333452670815	-1.0053932641394825	0.10119595353087792	0.5021786677079508	0.07558127473583807	1.231859800089621	-0.670599578117995	0.39607208867210275	0.8127719739420581	1.625079985330356	0.37909763955724424	-0.3198221913846042	0.33974018607194123	0.7765664438668424	0.20235297032765462	-0.12313327907230089	-0.35657897501563346	-0.1050193083615035	0.57922297569901	-0.13466617431019284	-0.6149986966818357	-0.8394591787124784	0.15441822966689414	-1.0037171815326302	-1.0812892886518428	0.08188079276869659
-92	-0.3127782038898001	0.28876981066275675	0.13361380960585673	0.019823491523284234	-0.6328417046781682	0.18181027426116514	0.4269809116073711	0.3624049415975277	0.5055999743094203	-0.40889951483486126	0.743280706913222	1.0892970534479094	0.4677492666355902	0.6975290757688156	0.10035888825350751	1.1896749704842133	1.3781622613443882	0.7795187215197584	0.49521690482040676	0.5490778670753206	1.3761495317046946	1.5395724734536513	0.5969971999354454	0.19420613299451703	0.6394191964218155	1.078351256508992	1.3899786437226969	0.3786070337273367	0.5244648443332022	0.2645201378342718	0.9211574173558501	-0.002766634796280252	-0.04857679071678906	0.18767140758338807
-88	-0.2263552242763016	0.233859553342705	0.1773624266676433	-0.1884220386754718	-0.10276244554800673	0.5085363375222215	0.6470397098417541	0.39815533060638775	0.6029693469082823	0.12901866403430556	1.0551614734712274	1.2919050422475917	0.5105054365620498	0.2684766643421506	0.6831775886453206	1.5534898003456985	1.4618107043552422	-0.20856775290759827	0.4070239056801271	1.1421587438356868	1.9214189004070623	1.7379803613651952	0.5322194682035467	0.41950967801989564	1.3955011332564835	1.7683211520371882	1.6154994923812167	0.4242619265335169	1.3444346155555191	0.9125031209795373	1.0264724467110795	0.624498604151442	0.5129766451281983	-0.4482133377202988
-84	-0.34559690865046194	-0.1716698552804196	-0.14393000268360112	-0.5854461178303623	0.09528224146151523	0.4303125728233247	0.4406395245394239	0.036578416731989194	0.31521564642476857	0.37810787463092543	0.8986732341011548	1.038715359926324	0.19479832004002662	-0.06208132936777677	0.8632580020090207	1.3764972652014362	1.092347142322655	-0.9984375213210455	0.15683755238989666	1.2844046321865723	1.8726851892874272	1.3928478921056506	0.1017081064398174	0.4906249928008265	1.7428302720890343	1.8734106970218016	1.3158051934399961	0.09413545554951268	1.712299819437845	1.0572408411036116	0.630678413706152	0.8007530549813141	0.5075028525890704	-1.4260181152579878
-80	-0.758833048811975	-0.8777708985101599	-0.7638655881669448	-1.0405341360524083	-0.2157343918598793	-0.10813464942095216	-0.14215689861646064	-0.562243698607937	-0.23340748191554742	0.17198422507733246	0.28236070204017477	0.40086954730867197	-0.340683876607965	-0.43902310618184115	0.5594072923841716	0.7239547949632665	0.44370442516835873	-1.4008797371781456	-0.15478382965586215	0.9618652438674526	1.3366214003195083	0.7330282908052262	-0.43991353996789256	0.4019861211164303	1.6585977035608563	1.5397369822728162	0.775589881369308	-0.33111476814594915	1.696231837758442	0.8960666633870632	0.14140374922814153	0.6794437152874382	0.15584579070798288	-2.121136659988883
-76	-1.4636962376833065	-1.7326996282700073	-1.5430532654904565	-1.4435300790580736	-1.0240414116754082	-1.0104713414429458	-0.9406209564302446	-1.1747679680728143	-0.8444062450070562	-0.5074742423596503	-0.6498727782054203	-0.4562405932351577	-0.8961805678629414	-1.0203503344523666	-0.14561314844084144	-0.20707742817571947	-0.2730440490504677	-1.4495713674186754	-0.43479165325063	0.306701301754035	0.5512589798360796	0.04895818593658267	-0.8318315723398296	0.18747852695338188	1.2335144250244083	1.0353285048094476	0.32232072868031325	-0.5606741295010294	1.4659010134879815	0.7147367578580913	-0.043054122369068644	0.5009513484704794	-0.17687353447126866	-2.0486555047763724
-72	-2.3245871008356938	-2.524236911122642	-2.3083901347053226	-1.7324583486685656	-2.1042728370944483	-2.0442604967003106	-1.7407654479899384	-1.6128200251867488	-1.341510769318089	-1.4869823418267851	-1.6603888231318347	-1.3288869824236915	-1.3003399339270403	-1.8105291082447104	-1.0285086605807554	-1.1611313790569504	-0.89503985417411	-1.329578157882762	-0.6420647485734919	-0.4614238727363839	-0.22064505461775236	-0.44711938387517564	-0.9316579675994194	-0.09819179748539643	0.6154004915912521	0.606356917280894	0.15563595255658091	-0.44819348937363873	1.1733144492089915	0.7168170791647897	0.24702672597982547	0.43480664381875317	-0.2037771190028386	-1.1272542448193619
-68	-3.07825707612097	-3.0349454803135734	-2.877678625470766	-1.877763981846626	-3.0750648897734387	-2.901860468213668	-2.331039661244207	-1.777264352125998	-1.6284382302178124	-2.4344522891569436	-2.4801475939121795	-2.0221791216339904	-1.4585964642891998	-2.576061003856789	-1.7972196295185479	-1.898806805585002	-1.3373403515429738	-1.2222763269082506	-0.7850581983772631	-1.1110984058937818	-0.7784337381736514	-0.6866612417050677	-0.7492943983233624	-0.38975006243531773	-0.0393994971115053	0.37934204840252866	0.2745099954826949	-0.04410104069900218	0.885234949737958	0.9318650341348463	0.8856160022310451	0.5013979064680092	0.13772775198018986	0.2944354109482877
-64	-3.413942328416757	-3.1019737642172194	-3.0826706808461553	-1.8488172246031203	-3.5328512102576544	-3.2965299999931017	-2.5489566261786387	-1.6605857568776754	-1.6934958653608696	-2.97215484822418	-2.880375854849332	-2.3826520382806464	-1.3489242758072453	-2.9323537275666114	-2.188587898450787	-2.2527007999765396	-1.5689458807433823	-1.1720255583736225	-0.888322947166685	-1.4647319279883086	-1.0228178475305483	-0.7171421032919293	-0.39323040743728815	-0.6207128747527358	-0.5935232624327722	0.3476958862109279	0.5273380862273457	0.468509821901004	0.5943326339021338	1.239956495015468	1.5579377373461873	0.6050717219334919	0.6869357210935654	1.6485129553181905
-60	-3.104070655615123	-2.666057341520195	-2.8017086911990705	-1.5996022184040195	-3.209465734008084	-3.0631704253106715	-2.3158359469118652	-1.3118935790318422	-1.5725108345383978	-2.8242130208236493	-2.7379119327084087	-2.324696058126068	-0.9912562941319925	-2.5636701519135854	-2.054008001863689	-2.157548422134501	-1.5773624141922864	-1.0549648973532544	-0.9546688174940203	-1.4366264306990388	-0.9495330428945602	-0.6232237204075599	0.023299673513356635	-0.7338027339528377	-0.9396653151629736	0.42933222543085664	0.7366807442185511	0.9021291113965068	0.2833828024862026	1.48008668049013	1.965327973172179	0.6382854564764053	1.1885763376744871	2.469192975485858
-56	-2.127238268249845	-1.8006986334160142	-2.0105276057027144	-1.0991831990146852	-2.0946237988039904	-2.2299010697332	-1.6623742538442903	-0.8038602451056104	-1.308615085158894	-1.9415258120155379	-2.0811247773079207	-1.8561375094280832	-0.43016502152555575	-1.461898800019998	-1.410905119194765	-1.6611394840262408	-1.3577418293051857	-0.6844922882918121	-0.9555081700996282	-1.0465579006474903	-0.6252593382307896	-0.4604803312119717	0.43973553069672033	-0.6981755477444173	-1.0159423325637764	0.5377302752269868	0.8078277090657777	1.1644004553960479	-0.02212590346114529	1.5549520214876367	1.988564128623462	0.5690407738623824	1.4470108710948788	2.618936055246953
-52	-0.7119139414933006	-0.7020938378727692	-0.825794396699707	-0.38289633296615627	-0.45737960819161727	-1.0209091876003695	-0.7315528374321815	-0.21544173305477102	-0.9381793713724746	-0.5362460599711821	-1.0910752984156489	-1.0880023213573673	0.25627860362198646	-0.014634800106590587	-0.4354527283641648	-0.9112173295856889	-0.9326107478437484	0.02246665390124014	-0.8563357570008628	-0.40629619257390165	-0.16175934631515343	-0.24099415479850014	0.84229618098269	-0.5284833298691686	-0.8255009630342186	0.6224892719764918	0.7598303537258388	1.2761981455053264	-0.2530688935089354	1.4693855010127534	1.718557949495592	0.45432868485184696	1.4150131905116026	2.297304386060826
-48	0.7304606419240747	0.3634304395082992	0.4954651581652695	0.41339686408574405	1.2496716944614594	0.21646963005248862	0.24978527363654945	0.36537563708563287	-0.5069605099276283	0.9975846384611078	-0.0509771107340271	-0.21857415084490472	0.9406723356339113	1.1402341098607487	0.6035878047009103	-0.11982898383881069	-0.3839245726905805	0.934919235730071	-0.6619880182718783	0.3131776742180762	0.3031587593053985	0.028611143978719576	1.211787578384317	-0.2938655011387067	-0.45234203224417663	0.6612710936063299	0.6706026179548709	1.3087112870553188	-0.3494475177048423	1.2871959176943566	1.3498295511498082	0.37775203490251474	1.1722055644003897	1.846918220625371
-44	1.767894382781674	1.1451889247591276	1.6245045620911471	1.0753071280987092	2.564021104061137	1.1395484180289837	1.0366388533168815	0.8415610172958865	-0.09029520280213593	2.239798301763876	0.7487950902153396	0.523674009908319	1.4530539475948192	1.4308158123131354	1.4392677509209468	0.49626287692660687	0.14878034554111377	1.7319834188601944	-0.44203063734032455	0.9271253323989186	0.6290322526309015	0.3057159475714184	1.4782278500428578	-0.1006184888325907	-0.051585212219651524	0.6284869297372282	0.5923634156530162	1.2977298465389158	-0.32246750511770206	1.0529172393918105	1.0241252158057508	0.36577555444874366	0.829230723671622	1.4977469406460426
-40	2.134633774136325	1.497204896007824	2.2775597514823804	1.3950738871638122	3.190384141496446	1.5439321955800953	1.4535754882352871	1.1272463770062715	0.2090027476040708	2.908419840145349	1.120954629928956	0.9664229726233405	1.6343686539394118	0.6735575182121505	1.895592327100381	0.789965985211033	0.5207916485035479	2.0705180115876303	-0.30832731645940237	1.2888108459358236	0.7128365617874494	0.5124976622039926	1.5338088235277125	-0.04839953022896489	0.20019485005855958	0.48450803634387346	0.5099766837595823	1.2102503745994408	-0.2683939927000559	0.7511265258898427	0.744342682866504	0.3543147435779449	0.4448497284148263	1.2338366477332505
-36	1.8423559619164915	1.428339835375417	2.3264779985817743	1.278107282272662	3.0957004945797375	1.4362534248329761	1.4613572322189359	1.178948518637516	0.29309761450200406	2.949588052932034	1.0518759462502134	1.0653011771962373	1.4191620314053637	-0.7940289358118895	1.9327558230240083	0.7380824070415504	0.6571938378907634	1.8032318308125728	-0.358506321001902	1.3284499611693017	0.5300115333527065	0.5806328639629675	1.3018172946487132	-0.18503190530314118	0.17432479516362434	0.19718451748177884	0.36650305893871293	0.982754645250564	-0.3201639942192057	0.33051952636240256	0.40674310819929915	0.2324387127252977	0.010755567784274302	0.8544759728792767
-32	1.1624288529611453	1.0922055216870261	1.8549100113766779	0.8103849867387646	2.489660972031471	1.0153330538864207	1.1732763022364314	1.0268101666275242	0.12386575309951574	2.519801371888235	0.7002172452413987	0.9255731678482415	0.897660670398267	-2.2639713230193736	1.634971018477991	0.45080712323811845	0.6076288803971894	1.101466056903819	-0.6145687087755116	1.0691976520246564	0.15706388612669858	0.5124371634896984	0.818307755311596	-0.48008543131735026	-0.1504820134416713	-0.2157804513490132	0.13578142191460826	0.6031562074691813	-0.5619938359376694	-0.22462509515793566	-0.0755036173344724	-0.06787307543307573	-0.4941602634828188	0.18224541796924926
-28	0.4874446379752532	0.7224612813829003	1.1282237739688306	0.24240434108568074	1.7095091299765068	0.5743003473087285	0.8101447800209263	0.7830452303189909	-0.2343418145223651	1.8859641504355418	0.3237605384758724	0.7550435643206574	0.31419816533869915	-3.0175537986863405	1.1561021775620797	0.12849754062635005	0.5353269563510661	0.39236518641591306	-0.9951862667706909	0.6153556092938496	-0.24311491785657652	0.4086330224687433	0.2640114717970429	-0.8331376889174951	-0.6703327281240093	-0.6576321704473349	-0.11748979210992579	0.17118845836810656	-0.9612496470977666	-0.8321830609291827	-0.652497468731478	-0.5004211055518963	-1.0298455927596921	-0.7366816978928651
-24	0.14543934129711522	0.5377498851550684	0.4831317054948398	-0.11517306388148388	1.0741448375285234	0.3710192730596195	0.6071474536825542	0.6083873495000414	-0.6178219302791388	1.3061776128216034	0.16664721029645746	0.7652420978299124	-0.024223757846589113	-2.698099844796229	0.6597997529537641	-0.02045864792963293	0.6344368441776199	0.1292871382548573	-1.3408395018103234	0.12072873830116534	-0.4781011926977872	0.4276563812425828	-0.09601588522988086	-1.112104889922918	-1.1921454637946265	-0.9693049167955993	-0.24713143643927027	-0.1220480424064541	-1.3643442357902862	-1.3145873513410202	-1.118609187162966	-0.9034721828538397	-1.4672945700793119	-1.5913246829863807
-20	0.259855299531993	0.6542438848189877	0.18825386417066262	-0.04317562643713651	0.7712502460081025	0.5259042965008937	0.711352763764157	0.6424604638091567	-0.8252077081826641	0.943454799654291	0.3574400237118848	1.0658594342977943	0.09852372830073193	-1.4875848255746538	0.274140685104599	0.1326363977421364	1.0158402894121785	0.5173650370887068	-1.487305875837809	-0.25695380503629733	-0.40690776603007545	0.6911456567480669	-0.05120535927003759	-1.2095286815623225	-1.5128962955424867	-0.9973377560230714	-0.11102391006333857	-0.09962120627046855	-1.569632407040172	-1.4798941574879916	-1.2212756841342878	-1.0837496491726697	-1.6431683260439647	-1.9670491168903679
-16	0.7161563616791227	1.0423581573872196	0.338273375372367	0.4699310052451178	0.8158726075554457	0.9869207118866217	1.1160273523763935	0.9304923391691348	-0.7138382774450155	0.8374896028354932	0.8603845216962986	1.6047568280711813	0.6771217567514305	0.006823125743775566	0.0684694869577731	0.5804242477067804	1.6253712136239933	1.3605788911800418	-1.3521541322901796	-0.40435898201894765	-0.009879096386226255	1.1909272640677826	0.41768780245229087	-1.09165191374775	-1.506556268703025	-0.6812269074406814	0.31809848466669666	0.27349156072231146	-1.4383423292085005	-1.2386527030189427	-0.8346442559150342	-0.9362085437979523	-1.4684545956730017	-1.6145373542076815
-12	1.2482305733637185	1.547562118437752	0.8264040926095751	1.215814229756597	1.0858606072667052	1.5731271465638192	1.6654865699680244	1.388793703387554	-0.27670857240432906	0.9336431598932964	1.502924319287451	2.1882469598835326	1.4610683881110837	1.088293788069583	0.058339428009321403	1.1850997179628058	2.249655002636207	2.14426254684761	-0.9807609890971503	-0.281280040030803	0.5946778640038012	1.7630308821988603	1.0958776446330774	-0.81032293830371	-1.1709748476981747	-0.1024060172237304	0.8968794919258131	0.8311931469912522	-0.9715028976707871	-0.6749131066448546	-0.07661198060243363	-0.5138122426411948	-1.008270618754105	-0.6442461593574741
-8	1.583310600097984	1.9553387115702023	1.400730606357294	1.8573584509685797	1.3941903079118927	2.0614252038408116	2.1216223186332868	1.8230385734307173	0.3362518838499134	1.1281230421194144	2.054808849868869	2.5678551132219893	2.0587832875724574	1.3308280672805461	0.2132541680912313	1.7365832284951874	2.610731595123624	2.3140535296190023	-0.5322449193868016	0.06905600411146273	1.1938872307198554	2.151528353027386	1.6172697503265765	-0.48122727749442956	-0.6210799797589807	0.5352224694090386	1.354621049321915	1.2618041006655691	-0.31247794549250213	-0.023736488014135384	0.7147046905592831	-0.004514562420324705	-0.47451704620720253	0.49063068504438817
-4	1.5647041758132956	2.0715429730565997	1.7729951098500947	2.0861642308016672	1.5605847796139793	2.27177571676798	2.262637371072668	2.0037012049631135	0.8721692540083115	1.3011258807710642	2.318255180227901	2.55260967563841	2.1262474006376006	0.7578010539949394	0.4594542968593986	2.0350279756664915	2.502806418775626	1.59923350407237	-0.2124715591073063	0.5301420079197904	1.565280791145397	2.1353638118236904	1.6451497036405858	-0.2403603637110424	-0.03664663797305269	0.9887826417754144	1.423667069655403	1.2646546331901107	0.32333111681367227	0.4372905183718845	1.1440907687865582	0.36975511815177	-0.12905806270440262	1.2252687184869993
0	1.2021241157698601	1.79655825638179	1.736386294749347	1.7720158055389075	1.4687938653102066	2.1254155582172154	1.9780548761017778	1.7730536416111164	1.086602565882996	1.342579242177635	2.199002498796807	2.0988829082903075	1.5510157307566081	-0.23606133401398777	0.6919687968903369	1.9695314119204166	1.905212397533551	0.19672860155504296	-0.1802943046309365	0.9486975645908529	1.5723266561865068	1.656514998068373	1.0607674095074886	-0.18932096612338228	0.41432163014709944	1.0909253331297726	0.9941884254150254	0.7288917880729027	0.7567203025786007	0.532027302829276	0.9799533461624829	0.4783886062941685	-0.13914188707507685	1.2025593488849111
4	0.6328576787229278	1.1628127068725298	1.2465012042045716	1.021468636794819	1.0965607138604787	1.6559226471100907	1.3150531020341192	1.1273051471858715	0.8579270818030585	1.174690005197645	1.727769489694503	1.332009550546301	0.5255962596974721	-1.1487727136218444	0.797877369296741	1.5545515974850466	1.0067838404985814	-1.3018389907393566	-0.4756056654366318	1.1840772598889102	1.2197295396527177	0.8690574743263791	0.04797898220823331	-0.35610055833555165	0.6363759024765573	0.8290319421817979	0.19576147149252043	-0.17821291044063486	0.9248149371639681	0.27652236749452086	0.2946120493126336	0.35268157631522257	-0.4781734037247503	0.4777151632168741
8	0.02756646641089491	0.3195711068191218	0.43050372491863675	0.11711085558172296	0.5153824077945487	0.9778063272584492	0.45524126176337654	0.2294280672241327	0.24646776852369429	0.7735635022659951	1.0300661299448042	0.48446902510396644	-0.5337651358479597	-1.6530264574277667	0.6905028802604319	0.9105194188017759	0.11635714739986047	-2.2040781919144856	-1.0032364104690856	1.1532523602932738	0.6418585165030898	0.07148914021085706	-0.9808635686905497	-0.6850641352523434	0.6261754020140298	0.3456640830849542	-0.6499244554323101	-1.0733253928742204	0.8906741715832036	-0.13691727782490273	-0.563934265143433	0.15926335711800213	-0.9361721849647311	-0.517036079055022
12	-0.4968210744235191	-0.5251765833946681	-0.47316500425085356	-0.6289654954289216	-0.13710807229234706	0.23674349427055863	-0.36344888714581053	-0.6556503160135568	-0.5341089950428008	0.18507009697918458	0.2687830322155226	-0.2111322427425847	-1.1911777227844964	-1.7284300283662362	0.3441061666860708	0.20575816877391417	-0.4859475481162095	-2.085214132766346	-1.5774372776259353	0.8559042789784232	0.034780990244551474	-0.44044142850301304	-1.5888313014924318	-1.0580204698553053	0.45070087795907454	-0.13754188979708826	-1.1844938963548384	-1.5465455016190297	0.78520726959347	-0.45086368804586746	-1.1573771209106063	0.09348410344363231	-1.2369562356236288	-1.23238277124156
16	-0.9164018011798076	-1.183351275317379	-1.2171103923586102	-1.0240056488886333	-0.7112340313120643	-0.44129305966541366	-0.9473243331833398	-1.2743264404548151	-1.2170814245013224	-0.48298212763915366	-0.4175472547002653	-0.6239280088884478	-1.2132309644585537	-1.5950006206296878	-0.19036713194467741	-0.41517153277480595	-0.6810799223870364	-1.025189039503016	-2.004031414694335	0.3700354387954409	-0.4357489336456283	-0.5237827287801148	-1.538929458547438	-1.3391969170137503	0.20113018104317473	-0.4325719464824763	-1.1956582039209505	-1.3781017030254494	0.7209130507387684	-0.48449388024077505	-1.1959075897540612	0.2596472495199298	-1.1930025785843326	-1.330123182753212
20	-1.2821323839241818	-1.5594171246257775	-1.6514280992775052	-1.0732892724595777	-1.1134016485713774	-0.9886994932961627	-1.2268918721694246	-1.4957371912385802	-1.6081056554247868	-1.108670947136788	-0.9590852832421471	-0.7741633634095001	-0.6911449414923314	-1.5154449901466476	-0.8086979368773014	-0.8860114194434866	-0.557891605876005	0.4194927204984999	-2.1634082739568643	-0.1848569209676836	-0.7056065779990932	-0.2579419010325667	-0.9191006994884232	-1.4294594490200512	-0.05347467200368038	-0.4738749551729808	-0.7249112110909177	-0.6599862558867955	0.7290798407266942	-0.22378960195306724	-0.6891966444734773	0.6099076851704888	-0.8083100298500825	-0.8683018662464692
24	-1.665756579008175	-1.6829802947468548	-1.7801434948799593	-0.9509430503678069	-1.353674289146693	-1.4087254965501215	-1.2776552406478268	-1.365966674216976	-1.673991199081684	-1.6139891106864217	-1.3652933801512932	-0.8073616603494557	0.0070607615456531915	-1.611292119726434	-1.401633497514072	-1.23187267469286	-0.352231412236693	1.4983146152814504	-2.0573909230740197	-0.6988360268115058	-0.828095970447253	0.1046575528721138	-0.09703165268241731	-1.3105096783929413	-0.29213017151509724	-0.33765354667291264	-0.039675041933025644	0.2484178983853707	0.7521553616607132	0.1870584185169044	0.07650452832933609	0.9721651052725698	-0.2717730098061639	-0.23264877439411702
28	-2.101485247074631	-1.683393116515527	-1.7437016919934505	-0.8845000840743776	-1.5382026395108819	-1.7567237571232315	-1.2703455654496072	-1.0728279325101808	-1.545091744336628	-1.9964610287805264	-1.700087662219227	-0.9064310766223092	0.42906448136720154	-1.8100353433686376	-1.8984382104626416	-1.5366252621955285	-0.31212040703171967	1.6472984510793136	-1.7982503130334018	-1.109082815231146	-0.9274417734572322	0.281031190639494	0.4765539455302917	-1.0556501123478623	-0.5360771404083151	-0.1830490077880822	0.51653188336614	0.9111019945983397	0.6920813304593887	0.5445388541778449	0.7200567704140871	1.1543682784499412	0.15743501444645552	0.1399003710790899
32	-2.5565788681332715	-1.7164328054961357	-1.7339923338026322	-1.0216318343118018	-1.8019881202978294	-2.096768612336173	-1.3739331925989622	-0.8415551760407132	-1.4334737026262492	-2.3124065340787268	-2.0327146001993097	-1.1869846552444239	0.2741088860266916	-1.9315992544997065	-2.2812619151693223	-1.8812385750003902	-0.5622429237475568	0.7634782771861722	-1.5482673605929538	-1.4068289959674463	-1.116095301671266	0.11428341985697373	0.5046180473938696	-0.7990274409147785	-0.8181928375567592	-0.15251556000350028	0.7107831817801215	1.0460355255419975	0.4796610164452986	0.7086480242003682	0.9927718614308699	1.057809827041201	0.29764321371271074	0.06400889887146267
36	-2.9436254427023374	-1.876303191216159	-1.879440302872057	-1.3518964018068214	-2.2120876256406015	-2.453139298921165	-1.660342212299738	-0.8181231597271927	-1.5139489135665625	-2.6132559710327783	-2.3888821541554197	-1.6296110112054518	-0.45140474920745	-1.8418657733190964	-2.5629835064075066	-2.286543363520246	-1.0390640470973795	-0.7615137080993354	-1.4421938621348724	-1.6146371323827837	-1.4231220447849529	-0.3435418895154068	-0.007633213865856485	-0.6765940172279216	-1.1491711110665173	-0.29126477167978826	0.5367602692403611	0.6654295308478755	0.12030996351861135	0.6722948534204165	0.9092696882179255	0.732031522333164	0.138049870380904	-0.27255517175525423
40	-3.162263862255309	-2.141000742275157	-2.165103191631418	-1.7228031114950668	-2.694773190370424	-2.78254484427785	-2.0613415189197584	-1.0017669175605033	-1.8301385594891466	-2.8752880023841505	-2.726580851346636	-2.0880591816635823	-1.439790841282175	-1.5547294577446074	-2.742452614535934	-2.6907291344419138	-1.5335501393700404	-2.254695171385689	-1.5269715747427899	-1.7484953359327637	-1.7720607474409547	-0.8675212838204615	-0.7690559606208814	-0.7606850247251153	-1.4958256445312035	-0.5283530937206631	0.19876405546549994	0.05141341673268139	-0.30642467659833084	0.5420684800767211	0.710178313846468	0.3410103610488979	-0.1734088654908346	-0.44114950187883456
44	-3.1543319145672055	-2.384080165565859	-2.4352044997721096	-1.940901155339869	-3.0482494754124305	-2.9903669281800296	-2.4061505733775683	-1.2642656532792884	-2.275908464407692	-2.9855971260985665	-2.9553375169525524	-2.371771568032238	-2.245073789650337	-1.215881463795734	-2.7807092596419816	-2.9794735833283825	-1.8163531972802989	-3.0984415929767475	-1.750934000362947	-1.7963552429621976	-2.0249216505424714	-1.1941134899508514	-1.3730126584673752	-1.024439809120081	-1.7881979897174118	-0.7303099017778183	-0.025035455759736192	-0.41640126600038463	-0.6913051587770832	0.4468979526203941	0.6840040070430449	0.062348481110275876	-0.4357585597957352	-0.07826162854939477
48	-2.9455451890964164	-2.456574433800187	-2.490668290525632	-1.8985177230585712	-3.0551571768873	-2.9920279904164366	-2.526230805694634	-1.4460015260428005	-2.6652555398407007	-2.8115022111480994	-2.996069185322005	-2.3618380963776304	-2.5181403096518284	-1.0045912240414097	-2.625740998314489	-3.0582685393367197	-1.775272007274766	-3.0221176071159803	-2.0045545050555633	-1.7327115491989322	-2.071661943927271	-1.1782338589484633	-1.5274286231577736	-1.357282396704417	-1.9550243566744505	-0.7951034883451873	0.039137855073343705	-0.4830773460589419	-0.9550875997271548	0.43643507251222785	0.9596161818118212	-0.017039047511115863	-0.525305329427058	0.8302082398434704
52	-2.651038640004769	-2.295585149691265	-2.2315299454615096	-1.6482427078594613	-2.6361510687075174	-2.7889304090658054	-2.3703939854856673	-1.4688265286554611	-2.8459329533249638	-2.319034332142438	-2.850410215810608	-2.0996379799284157	-2.182754511090637	-1.022128221792238	-2.2737758102230132	-2.92740248894691	-1.4928522072294457	-2.2032258454963496	-2.185113424506312	-1.5587289293989384	-1.9134832572309919	-0.8849107004711986	-1.2107731073328012	-1.6230246979744	-1.9661999891230415	-0.7274056058638253	0.3476738324924167	-0.15935282368958412	-1.0866695615035544	0.4388403881437435	1.4056473934924023	0.049184124792613935	-0.46885874749063816	1.8894838047006424
56	-2.446534865878147	-1.9956718632856927	-1.7610028937701427	-1.3855458463019428	-1.9597924898258643	-2.5147631104873813	-2.0652608819317138	-1.3954836094909637	-2.7931523252538764	-1.6694626766016623	-2.6411211423949204	-1.7951831772302935	-1.4718310795817133	-1.2452548710854647	-1.8319278909207861	-2.718204968265366	-1.219046828053184	-1.1403869361695669	-2.255261177091047	-1.3437862362312893	-1.6935298400083059	-0.564721165661771	-0.6730238182241791	-1.7350565151277653	-1.8641850901267591	-0.6534736736011446	0.6546766145389644	0.29467290565479565	-1.1440649003707912	0.3009518377335168	1.6967163043099531	0.09746391301581768	-0.4203482557651234	2.5012142595084055
60	-2.507927888260376	-1.7917157366338843	-1.3799632752863744	-1.3484939302730534	-1.4115668499593907	-2.4075157581580573	-1.8750749779090181	-1.4000977242406667	-2.6332299642837405	-1.2003473013135917	-2.585250609546478	-1.7395944551416376	-0.8076482394808122	-1.5902898271464032	-1.5179182252707133	-2.65662240311323	-1.248969074910621	-0.3861378123547924	-2.26249884987856	-1.2280013530244724	-1.6464003282941055	-0.5236397372376597	-0.28919294403494894	-1.704054232109725	-1.7595350697916097	-0.7610176782467669	0.6476989968159501	0.5271823988955854	-1.2177081077349088	-0.11233393819580759	1.5067470035658246	-0.04844733315395406	-0.5573863373035197	2.2154302541111663
64	-2.9369604513403806	-1.9477430532870723	-1.4521127902561919	-1.6906659560433683	-1.4182349407628678	-2.7056965759629623	-2.0706531949216394	-1.6604554611245255	-2.5765299732006977	-1.280992862328243	-2.8998274729948017	-2.1574339812168213	-0.5901352152230035	-2.0106470534105427	-1.581379767240005	-2.9610052034006453	-1.765022631003646	-0.2897717349365791	-2.3086593092804484	-1.3717589343723349	-1.9839297482945868	-0.9561764573751627	-0.3488854161037071	-1.6310266215152933	-1.7862580969534496	-1.1936060160065152	0.12833201852822668	0.29894977732521094	-1.3774189914259158	-0.8207120874664754	0.713720617876526	-0.4706139850655523	-0.9649174189047601	1.015128490746068
68	-3.7112858201739716	-2.6079046660383542	-2.2048256341580816	-2.3991270004735483	-2.2149450723039195	-3.515370598500641	-2.775804274226509	-2.2381591740366913	-2.800937168679046	-2.1091523117220214	-3.68163918519328	-3.073609821188856	-1.0102812026265924	-2.5418174202640467	-2.1790468637763896	-3.721108904026734	-2.7260637214498704	-0.8712450243887577	-2.4879820284016767	-1.8728166771334698	-2.7731535364707502	-1.8315677596579625	-0.9050722695387953	-1.6481693941465725	-2.035920614824394	-1.956203813382288	-0.8626360275423598	-0.3817835142510093	-1.63111614769152	-1.6928808646376299	-0.5057753311739067	-1.0997903319248343	-1.5753680427831371	-0.6457754953292599
72	-4.674450385689602	-3.685909261934208	-3.5671899228632182	-3.294186345366451	-3.672299137380558	-4.712348449253587	-3.8677966497043568	-3.0166680736672147	-3.343519679211012	-3.5529174714984957	-4.816620814560393	-4.2620978247800085	-1.9615057657309625	-3.250715247530038	-3.256986371400313	-4.814026820426317	-3.857101669110021	-1.8566381884429324	-2.8246045041295456	-2.684797757046	-3.8630723855713867	-2.885890714988607	-1.7503610805188123	-1.8350827647607824	-2.49278044071256	-2.8750712798962943	-2.0362553545086075	-1.2588275639222908	-1.9050867509426819	-2.4852430757718733	-1.740391607658851	-1.7276051000846275	-2.190174097253545	-2.0726039357309234
76	-5.584004864899546	-4.868214594947709	-5.145316587808885	-4.1123943225029445	-5.304538713413968	-5.951333507770958	-4.999424921764873	-3.738893499471334	-4.06450604366267	-5.153617369037928	-5.984221443326351	-5.317279802248987	-3.0930943410981584	-4.127859105178744	-4.524950492878577	-5.916504368149421	-4.7537569879673995	-2.841358416059292	-3.2508971609054327	-3.595921030502471	-4.912471282000278	-3.729672422529283	-2.5286204751069357	-2.166335338845104	-3.0127749366988943	-3.643705597261099	-2.9731435700692175	-1.9607902715768852	-2.0603523202375635	-2.9394261762792238	-2.5353794033888213	-2.090425962892348	-2.5743415290686498	-2.702728741497799
80	-6.202896102503256	-5.742441162869894	-6.369790537964455	-4.624903667217284	-6.476749403813796	-6.792979700104014	-5.742102608488424	-4.129405011241735	-4.704060065790626	-6.309559329315255	-6.768065435487961	-5.8223585935458075	-3.9699525732898215	-4.996963965197599	-5.548491463957714	-6.617751104812781	-5.053198324796832	-3.483615866448856	-3.6346433070923285	-4.286797989512569	-5.511417375001025	-4.014229287502984	-2.914168350491553	-2.517984622320068	-3.3605637465507927	-3.9319138427645224	-3.3007917320837823	-2.1828710977755232	-1.9344557474887105	-2.8789772914678533	-2.593574994214792	-1.981534356836401	-2.5627853805687737	-2.3812775551755965
84	-6.396191580836032	-5.99265001691347	-6.754224760168902	-4.735973346197113	-6.7074689695764995	-6.897994024027111	-5.78422735661205	-4.037056435882851	-5.006936060661924	-6.554497702262519	-6.832661134635175	-5.539459691366992	-4.258057106711598	-5.540153012593269	-5.92678879195158	-6.590648157646101	-4.594537246548102	-3.6301445869346196	-3.847245921912004	-4.452551830494227	-5.348530279007245	-3.579249849819464	-2.759218924231762	-2.7369399001638657	-3.2979924595536185	-3.5131730944626103	-2.8452413010287367	-1.8220236255420446	-1.3975107634546566	-2.2607655468128676	-1.8824717950976795	-1.3401735987205738	-2.1235811656742394	-1.3882213795898655
88	-6.189147933592654	-5.566497788680319	-6.143669589743852	-4.511052597100678	-5.913990482657721	-6.196673854441572	-5.088731752899258	-3.520256748848412	-4.849457728539988	-5.787877545048879	-6.08529947651842	-4.528893459329804	-3.856495132246318	-5.45058296734822	-5.469532952804526	-5.743145451350782	-3.4944286258209707	-3.3325216686034036	-3.8276400469462453	-3.932860602939744	-4.347877968301228	-2.5141916211547177	-2.1409313624688133	-2.726027004988781	-2.6853079728039893	-2.3537771642385583	-1.6879868464767682	-1.0007023786075027	-0.400594561280695	-1.163439390106116	-0.603587685491621	-0.27219402721347197	-1.3487896885196822	-0.22043894175663944
92	-5.755179867519129	-4.717607486258132	-4.816010462999434	-4.128465642042446	-4.462967861351718	-4.9403576726159075	-3.9228069683215723	-2.821013920337341	-4.305158604242824	-4.3289809117693485	-4.737520682771576	-3.1331062237791203	-2.928766004797349	-4.626521575690982	-4.285196293502208	-4.272922028243891	-2.0984764046139657	-2.773389094026308	-3.610686293068952	-2.786483280776085	-2.708926670864475	-1.1078410120650308	-1.2968441215197897	-2.4974472459681114	-1.548503633404247	-0.6249689444021771	-0.10842741998476911	0.019944323176454927	0.9996030305420408	0.26897489956657017	0.9435921883601515	1.004448649731467	-0.3889247765258413	0.7328199129676176
96	-5.3363027437903146	-3.8908977410309196	-3.3694708262249597	-3.7858564758084525	-2.9912023468790925	-3.5998012928675522	-2.739973299738116	-2.2426812592150935	-3.612905731616205	-2.760472529117513	-3.228188029721923	-1.8302782727761473	-1.8242942048743855	-3.2890338814664957	-2.734997742423408	-2.595057480935903	-0.8339593389436494	-2.154808754248962	-3.303648225072786	-1.274165507914328	-0.8308522680286424	0.2810823612269045	-0.49683531993358443	-2.1614122336176655	-0.08101274797728239	1.3611298765149544	1.5461603364054635	0.9750397180735397	2.6455349855386836	1.88526367665191	2.508491509779949	2.255169147519746	0.6230415090089416	1.4020853007203289
100	-5.132858740245124	-3.5095775038802572	-2.451460593709949	-3.6100232510021444	-2.0942959732585535	-2.657319777455341	-1.974184865735572	-2.0019805380820817	-3.066528550988839	-1.6463817316449825	-2.0397145696640586	-1.0256894800992868	-0.9312654114099198	-1.9309687565688642	-1.2764201132019095	-1.1731868952694942	-0.03056539214881056	-1.609721537340568	-3.0250706596292765	0.24205668209474485	0.8444569089549874	1.3684608901759499	0.07343904655511616	-1.8563657952169965	1.4227387869200148	3.261203519216814	2.9956576748555146	1.7040525631796755	4.314183701113349	3.5564577489706366	3.966116418361763	3.320513955315849	1.6142817694915301	2.016049141562187
104	-5.2133221494658	-3.7659196758557365	-2.455173247814345	-3.611129036369226	-2.043179030028236	-2.390739911719089	-1.8432931853485734	-2.1278233474414834	-2.8802173064946297	-1.2723189560238484	-1.4915461502564247	-0.8795137979236367	-0.5194857107398163	-1.0961431237202366	-0.2746960215785692	-0.33084160005963326	0.20881611056058907	-1.1667728394614083	-2.8422877716782833	1.4368946515998509	2.0005407282865226	2.041977638811177	0.3698427369793686	-1.664877529709247	2.6727313927881347	4.809885489717779	4.110064496153846	2.187724107940883	5.772453770368582	5.172406660372325	5.299629198045504	4.159610737789008	2.565978997427776	2.8793666290065434
108	-5.485837445713801	-4.52025603106792	-3.333475819754559	-3.691915025926613	-2.6729092530476954	-2.7522354056489298	-2.255630487469143	-2.454753154279029	-3.0908987444087552	-1.5365557631798958	-1.6057819087494403	-1.2482285468058012	-0.633028922866935	-1.0979533167774949	0.1312908526920515	-0.12664820221873432	0.03378611049466577	-0.7714611868454301	-2.7397782733409035	2.1373159831444455	2.554636471974235	2.376536363323553	0.47650268553591424	-1.5668958385961533	3.4824821861080903	5.889327988060564	4.917538153630552	2.515037291852656	6.835501176742262	6.6269917320782685	6.52739952346741	4.825901496147069	3.4749095352177855	4.111828793634744
112	-5.745036110678283	-5.365256295963308	-4.624981868511032	-3.7047376539154797	-3.494678488491238	-3.402953854552288	-2.863302462024396	-2.7120006015970706	-3.544297447792842	-2.0408058114978513	-2.1098380035537865	-1.7616223052370847	-1.0763112279420601	-1.8403525306013593	0.05453738928972981	-0.3492708197358517	-0.2315459841604282	-0.3432575157559014	-2.6391460828906297	2.3658232629172513	2.6623592309490873	2.5764117175857617	0.5440064654920552	-1.463474150777434	3.8167159460979714	6.538089258853019	5.552813039111598	2.8152337003201966	7.4065298847121745	7.816068629558316	7.640785674831185	5.391986356473213	4.312140930732764	5.531335339886039
116	-5.7730579230465	-5.821149334515657	-5.674307808854902	-3.5262815863270975	-3.959733476178171	-3.8833377263252755	-3.231988898700364	-2.657534354175991	-3.9706044096834394	-2.319335693225661	-2.5748832160790007	-2.0000081011821544	-1.4948395452905292	-2.854363911097867	-0.22606719973231287	-0.6332546456561295	-0.24022127627281017	0.1665222342578402	-2.462467425804962	2.2974142970255143	2.6205179625152977	2.8716115879036863	0.7192393523177012	-1.2620307175244332	3.767944803261512	6.900984269838652	6.175740703249306	3.1957423606296462	7.481941681091603	8.654989220701964	8.591759660009552	5.865538105460716	5.004258620025373	6.750023347978582
120	-5.447634206369337	-5.564271435994289	-5.9363484232751	-3.1172788064454235	-3.7308876420238954	-3.8333957098498046	-3.0457391661994078	-2.189671034052911	-4.10997008239676	-2.074257845409975	-2.621399396000011	-1.6860284762729725	-1.531920190758128	-3.5417258650051453	-0.40830451146989316	-0.637674508869	0.22089689914245372	0.7359465938107062	-2.2016255799974602	2.1588427965971753	2.7174098423060697	3.41122459504044	1.089446661105918	-0.9675573682198417	3.481248369964355	7.146160584527259	6.893059236289325	3.7031111623729553	7.123957139148747	9.104856468101314	9.32644841700474	6.145776256303475	5.445417390426448	7.415581684463491
124	-4.799116599364108	-4.578865039709008	-5.217918382822116	-2.5410840447165817	-2.8281223702553073	-3.1551961819142664	-2.2465460243725723	-1.379250165318082	-3.8283483885429677	-1.3035993543137085	-2.0913424439081005	-0.7983732203353756	-0.9980455015733475	-3.489335289728483	-0.2951931349930818	-0.1995177412956207	1.1459122867262954	1.2737258640555746	-1.9470727394536207	2.1221394485300524	3.1049477975654236	4.206132878174481	1.6592177110742448	-0.7159509044691006	3.073374502051877	7.392187099866795	7.718852500500785	4.31838320595504	6.424212916367091	9.194608665140336	9.835772489510322	6.057857498133115	5.541480050401198	7.445732574737709
128	-3.9920151132884403	-3.1616213241862527	-3.747089376525837	-1.9400647829664923	-1.5864990909575485	-2.0440361448179427	-1.0510674688505213	-0.4262044120995202	-3.179116002639397	-0.2720248394297042	-1.1096354694961081	0.43338444719568064	0.026303348996390835	-2.6916744641056645	0.1364478912484816	0.6037566646591326	2.320967668395491	1.657865996943441	-1.8613781882020832	2.2371375504278204	3.7436590100183844	5.1298217643921955	2.351660484098639	-0.7243788224051281	2.5874569350719137	7.669199447342455	8.571834542567183	4.965949045994899	5.477306352137927	9.016097999697479	10.169106457784947	5.4530682426105	5.257657037812118	7.087966901049916
132	-3.249417058370107	-1.780273552214531	-2.047971481874657	-1.478555794797584	-0.47043371081788427	-0.8833327867140435	0.15350685974941822	0.42866119634166944	-2.380763524720351	0.6383880956744493	-0.013738410512689527	1.6381508070594404	1.2061837881152622	-1.5558314284144326	0.7446769457135604	1.5032415352061448	3.417045107797351	1.7882807209641511	-2.104284519604795	2.4266405044324038	4.436316478972717	5.968053802681136	3.0237841529796925	-1.1750352352993125	2.002878422448711	7.922585944200274	9.30000493562619	5.522738919619657	4.375638950744566	8.688467003820566	10.390188190930383	4.323893059304167	4.64392994661871	6.754890424840072
136	-2.7534217764955438	-0.8594238140342345	-0.689755378412191	-1.2749685016867147	0.15223552248189134	-0.05912325516317091	0.9839940642308943	0.9941987370185454	-1.721257086222786	1.1139612169751159	0.8116328695786316	2.463516705968939	2.094767326788247	-0.6840648037805623	1.2977935042993751	2.1725702230914474	4.123628605921846	1.6322096545018085	-2.742419712772101	2.5413458283157744	4.930844771333772	6.500425799170278	3.5018510730068204	-2.0934507793977724	1.2887741294747348	8.055388430284658	9.729078268283118	5.839398369351175	3.2228863157918273	8.314283349980132	10.512590381783456	2.8658838199738117	3.831080665452573	6.749878389482854
140	-2.5683057243353535	-0.5987752660892509	-0.04018338014470913	-1.3530751432589234	0.16585443872062394	0.2126351291533182	1.2225040166507177	1.1822521656704956	-1.4358686172472779	1.0425010893250302	1.1112937899188622	2.7113954952448385	2.3457300603770395	-0.5546218142811721	1.5785344799241905	2.3792915284166947	4.2627658736369645	1.245832320882591	-3.6923534776924742	2.444895738150962	5.040612208037838	6.580103380756221	3.6364443210343147	-3.2949578678864753	0.46512547017920197	7.9872846401734	9.721951460134608	5.780531391808149	2.148114914239007	7.952348212191538	10.46864316204578	1.4430342876240836	2.999335758266028	7.064511758134281
144	-2.6229681902465383	-0.9036526657177639	-0.1321476694585345	-1.6278570849327194	-0.2744949453099271	-0.03183041504929749	0.8971010423898838	1.018195507339887	-1.6064301688643807	0.5409681783369454	0.8668817855882809	2.39906954159613	1.8913276147774691	-1.274270054461	1.4770424328705578	2.0861854500551535	3.846119394128593	0.7604358177059386	-4.7266721606126865	2.090884203400224	4.730071532704934	6.189562781919243	3.3642454062399834	-4.4337868578548365	-0.36471950915760193	7.705006103135841	9.23587415270705	5.281913267151512	1.3025175300137666	7.621466617415361	10.143861745019095	0.46218344452516136	2.33135222800062	7.375515442346631
148	-2.7551519801197157	-1.454698797367888	-0.6916537863434943	-1.9381241749467948	-0.8465496876324123	-0.5427663312559895	0.25221198733548544	0.6140173062080866	-2.127306932800453	-0.11299470038495811	0.29029679225107985	1.7291125015471913	0.9920647715316847	-2.527717822368736	1.0416663858817028	1.461062308437332	3.056855194003374	0.3385654083287067	-5.545843587224898	1.5583822687858	4.131461609899873	5.451926694456644	2.7496869494633476	-5.137969480893841	-1.0324250433604794	7.2831878478226555	8.357104280352976	4.401655186030443	0.8293462970775496	7.329151611897283	9.465792632045995	0.20862211234349617	1.964579577254269	7.251356106570015
152	-2.7963390279741023	-1.8767378282847638	-1.3053570952836968	-2.1172213500927626	-1.2280324666489668	-0.9927733515469855	-0.3737051179510623	0.12377528069955572	-2.75314592620022	-0.6087368115314772	-0.29046985433674827	0.9904726718691089	0.11723899811708592	-3.7469680214693803	0.4623001206170146	0.7926130870834696	2.1714639608872095	0.1082842496283801	-5.891851410295404	1.0255666945313595	3.4856474311562513	4.592073428957887	1.9788645455943625	-5.1717400420268405	-1.3709520066934031	6.862689954597202	7.292361717886164	3.3302466785273603	0.8118422606951989	7.098246079643348	8.489739396595253	0.71652066526707	1.951161141237732	6.437217696149931
156	-2.650084250435035	-1.9189753483960197	-1.6308476883721295	-2.0671195931696964	-1.242464658461284	-1.1338419885618847	-0.6990798694126663	-0.29647394939910404	-3.205166570200579	-0.7278426271182151	-0.5866665825337019	0.44653588420662016	-0.2928693287130907	-4.399909962035826	-0.004760396654805972	0.3622885933312199	1.4643175564988764	0.11142678530693888	-5.652107224499332	0.6969321948575418	3.0429401320878227	3.86690472580219	1.2989805904017246	-4.541014183023567	-1.289556380830792	6.601631147883265	6.316885455395392	2.344571346085531	1.2322474686982614	6.976223451167247	7.424122791619661	1.7471185878512177	2.2452671471175	5.0427074305056925
160	-2.3247954786733023	-1.554252978215476	-1.5392889937638154	-1.797924037208725	-0.9117588973867508	-0.8951144791891804	-0.6050726756078059	-0.5199239836917432	-3.2886941349921335	-0.4148453463570962	-0.4656032014058706	0.25839203530877397	-0.04676499950999674	-4.232118119045153	-0.13916826213032338	0.3364117733091197	1.132641908647007	0.3002257041503739	-4.9072461004338805	0.720062015622814	2.9726862832356553	3.490292301902581	0.9282246208597357	-3.488733044399193	-0.8133930543390496	6.624016268218593	5.694439396786253	1.7162114338459988	1.9723851630957676	7.024405461696233	6.572201712227587	2.89448856576646	2.7271265914728215	3.524781933468335
164	-1.9116411160842146	-0.956730661360885	-1.1340875596977393	-1.4101009333294858	-0.40910252825445365	-0.3830618848666019	-0.15551759263351703	-0.46818119169286454	-2.968137256757883	0.22337341252197385	0.019792163694598415	0.4647448647209496	0.7048034650174173	-3.354394665832115	0.15207216105213564	0.7219818812261822	1.2641037670644872	0.5727559909664973	-3.897413243944157	1.1271475525054833	3.31607078668693	3.5778739362029426	0.9711414551057818	-2.380269998262857	-0.06742995215319247	6.983767014990974	5.594854340732749	1.608048434965947	2.860018246105564	7.290976029107925	6.207929595532539	3.7684831524117643	3.25278853548867	2.464551919436784
168	-1.5229604205781124	-0.38285484813349735	-0.6528299434391956	-1.0314677927678035	0.05070506768537846	0.2033053780429548	0.46570449949941056	-0.12493115631986358	-2.369985812879276	0.9792566870761069	0.6909854990679598	1.0080400679886958	1.559074755547052	-2.143212074590741	0.7957012633261304	1.3953757250841927	1.8386937333414481	0.836103496824741	-2.923113338719702	1.8255517436666817	3.9934625524785115	4.123135556301509	1.3834537232756088	-1.5396325549354333	0.7832919935477379	7.654168586479526	6.038728221905776	2.0076549002503725	3.739133825398462	7.783662776368648	6.44986675541365	4.165331829998685	3.7096853162565036	2.2692553939746603
172	-1.2277677028175429	-0.025584766576663868	-0.31487238327637374	-0.7423587422701641	0.3255098751909687	0.6906421763149204	1.061779257954641	0.4559673953465194	-1.7138543085696623	1.6383947092652453	1.3526030744734943	1.7794750883951358	2.0930690712535944	-1.0289111111412628	1.5905759294406028	2.1797645036976734	2.7515046527058287	1.0552539798796852	-2.2252025548067085	2.643174880030116	4.854630934856273	5.010236250625516	2.0034286925278884	-1.11786329464013	1.605774636982796	8.543127038367201	6.894153100727482	2.733270399822178	4.528409946452606	8.458465554816302	7.202418785984341	4.141756047282329	4.0548586743022605	2.9683031960885184
176	-1.0220311854307886	0.08245762416763468	-0.1981943542721751	-0.5334800468327188	0.4110871543042068	1.0190932724972273	1.5174177846744425	1.1556659907727145	-1.2069772451445089	2.0694422669614396	1.889172549246411	2.6574566297194	2.1021647400233547	-0.29999765678003903	2.3047041834817183	2.927348129511012	3.8433680437327076	1.2615904776192335	-1.8952543687653578	3.4046995553840627	5.742940888210429	6.057494625056638	2.6279907160212113	-1.0529735061763363	2.3445408285074834	9.523926710878714	7.92886970425521	3.508939257345614	5.235404478206435	9.228253341263889	8.197271326349778	3.9566247363331146	4.314504135682852	4.210889805652705
180	-0.8513002374136618	0.06234222262259026	-0.21516182964361247	-0.32846426880876894	0.42164841187832647	1.2490977017337217	1.8280584766010266	1.811517234043302	-0.9564654206923041	2.263249153145098	2.2941617907776224	3.521013012579413	1.7021777586876439	-0.009529489999791745	2.781086437833168	3.560343494963023	4.925269591294137	1.5178459844414278	-1.8597798300518218	3.998126973548278	6.538732512177811	7.067700368203135	3.092298261464548	-1.136624214163686	3.015820734039227	10.464746448798781	8.891821838817398	4.071474065037899	5.918084606487716	9.98349568707437	9.112045265080235	3.9157638450941152	4.54494808956881	5.456525788835902
184	-0.6686985475823284	0.0885186491161878	-0.1903511728010791	-0.05573188126917403	0.500102220703153	1.4904012642424695	2.057019228510139	2.254139179260628	-0.9408474540798193	2.3031775893235853	2.624904387522534	4.248110283616594	1.2385981051644663	-0.019649960051039406	2.9944057388998133	4.059368600133159	5.805181965476381	1.852461571784776	-1.940912599431637	4.4004373439314675	7.17030284978613	7.873867491869663	3.312210074645286	-1.1437916726798305	3.6606523898208514	11.250644655432744	9.593466734506853	4.260967720717921	6.61973284003727	10.616876575367815	9.704086279210475	4.205070961825843	4.778851973865955	6.240462287405968
188	-0.48383906361492585	0.2654200785611409	0.013919259386384634	0.2822363369491649	0.7176605444908767	1.80900370617947	2.2620973529923667	2.35972308516776	-1.045602438194153	2.2955920638300418	2.928799383398339	4.724019992345457	1.0650035116009806	-0.12562021581404978	3.03718661495147	4.427124012260086	6.329639895670807	2.213109964505208	-1.9558360527249525	4.661527621897767	7.607738952502511	8.378300645655907	3.283589831645035	-0.9493243670337284	4.295409668567975	11.805117577311643	9.963080381034604	4.06517647670541	7.323350887882387	11.051035853141297	9.902911161215814	4.799458014768519	4.992846953184068	6.379994376287082
192	-0.3728627851132232	0.551895020998872	0.3980392207586584	0.5872910007907923	1.0193295453085203	2.168633455523262	2.439783328572195	2.096656078767121	-1.1424916953805615	2.2989623488557123	3.190318814805937	4.868521678076816	1.3219659295084263	-0.1763961310701455	3.048936597755666	4.657884586018292	6.432064516994241	2.476226800388753	-1.8059942676723584	4.861612307671898	7.85431955261848	8.575946786209144	3.0540599745890447	-0.5724709615559009	4.894322859804888	12.11139103692656	10.064305280071029	3.6082096008754982	7.959003905228933	11.266873331234056	9.824944471349184	5.49944304031446	5.125102030212217	6.027939304391512
196	-0.4337074149625807	0.7819848040864692	0.8128037432176433	0.7132841330639378	1.2525092331734726	2.444611781623969	2.5256707604537385	1.5485316475872206	-1.1623924941279242	2.2959523143021547	3.3356401836101783	4.676506507510583	1.8547517014405541	-0.12331073700051037	3.129524938311478	4.737418162782821	6.171437247907388	2.514101975769202	-1.507720705040417	5.070806013656186	7.947335223160005	8.55853460058416	2.697226994380342	-0.13023403254052968	5.417216287287199	12.22860237848854	10.067435239169571	3.0989682596166532	8.463739373772714	11.325268716828809	9.712385153090889	6.073072418138646	5.137364374541609	5.565908894791425
200	-0.7070254069597445	0.7746913413515875	1.0446785662024671	0.5689755663811628	1.2744545904407587	2.509305232388368	2.4566223559344658	0.9053472257644499	-1.1184444399252227	2.236899370267899	3.2977375900932024	4.252997387638679	2.325391525119551	0.0026121938069523366	3.3010427868469425	4.677927482238441	5.739908203891914	2.2860093059044067	-1.1503708333535274	5.339293466439013	7.970010737323946	8.498269059659656	2.314490550873392	0.26570996575027417	5.866528019398646	12.294923751306934	10.19396683980226	2.7707440783164334	8.857673622656055	11.372562379734307	9.835818265877394	6.415894015326083	5.086112486395861	5.416916356715447
204	-1.1276591987749436	0.4555090356293539	0.9402883625132377	0.19557581792567502	1.0600126954972482	2.324019187781708	2.2394792977058438	0.4045356501856159	-1.075894949104	2.1141750759152727	3.0851805132220207	3.798239698357144	2.4350645480665305	0.13941770756807859	3.5303072840250636	4.547618377648006	5.40672205513596	1.8859492492743857	-0.8197455385492379	5.706424698727428	8.045463541698876	8.594626404997431	2.035918469057188	0.5950140341994857	6.322471125852481	12.49340435688492	10.636997196044554	2.815632813020605	9.274256682822546	11.605617493891993	10.389036152359072	6.632822019996898	5.142254339586636	5.857289299481786
208	-1.5433759650364558	-0.08486904927522439	0.4983572649294367	-0.23558449685698854	0.7354390006570806	1.9735574672462504	1.9733660171277152	0.24009790955959778	-1.094062683204249	1.999926323609729	2.799195044125949	3.5347869306964927	2.1174585765783696	0.23917718171291574	3.7742774391250404	4.459657180970672	5.41113327567536	1.5185439548299855	-0.5381464348557579	6.202852710321968	8.295787790334446	8.995736099419297	2.000915522291924	0.9402955150705926	6.916889173210362	12.978035894052457	11.481363267521134	3.3253078376737406	9.906349157117779	12.192715614052778	11.412939042840373	6.979628545305378	5.523498521210756	6.911717397405548
212	-1.7997242166856864	-0.6389712675174594	-0.1274480667472782	-0.5144334422474756	0.5171427713689005	1.617028113097267	1.7988367035272215	0.46914285302924275	-1.1887009113817533	2.026155943523364	2.5785379344688213	3.596110096435221	1.576765175653145	0.26916488937131205	4.023273934696946	4.513534534502858	5.839059814969705	1.4038270676455578	-0.2606970065210636	6.837053758525452	8.774529434938728	9.71571252277243	2.3030154646902057	1.4155296051526327	7.7510304255294065	13.785346950058626	12.647031752126932	4.2452921760187285	10.887109728982416	13.175569501036643	12.767013517571076	7.69396398509121	6.360630973015658	8.354160287745664
216	-1.8441301537683963	-1.0108450625647438	-0.72028195676148	-0.5297862277960244	0.5753743037955801	1.3825563157461362	1.7999777748439207	0.9631748175145064	-1.3337039913836977	2.2988116683141007	2.5036332544058624	3.9414529700902916	1.1420111627355956	0.18685361695797326	4.298433769817664	4.721632945537519	6.5581083132153175	1.6473165708912794	0.07424823921054384	7.565227966281715	9.410600638471962	10.597629520362698	2.9134087489004536	2.0621652551084746	8.803612686818425	14.780929528111427	13.888183558685707	5.361636148267369	12.175339668051727	14.405405008185513	14.158046686666477	8.819574333811817	7.57450244898535	9.794692014760527
220	-1.7840211346406771	-1.1427251071689126	-1.1287944288364693	-0.3518499127087713	0.8933399297094078	1.270652886997293	1.9223768662554737	1.44347345464568	-1.493126746222588	2.776256554269923	2.5208628113997156	4.349464405522564	1.0373831961189572	-0.06651692075624763	4.592875945893117	4.968893992276526	7.254813652795417	2.157880062377194	0.47640541075588644	8.26387594043943	10.003570531384037	11.35258099550741	3.639334192624309	2.782321922906953	9.887575124572406	15.67960067605002	14.861215553909702	6.341766818247611	13.516548122612278	15.556768378081333	15.221730193807595	10.121625874713907	8.839821793172318	10.811350795152693
224	-1.8432531310273856	-1.1561245889084586	-1.3475999798129692	-0.2083207661614338	1.243086096486143	1.1424891919854872	1.975858921784507	1.5959272344350266	-1.6608736473112138	3.236819735937923	2.4535491404576057	4.51324032597699	1.2211735217734005	-0.5339047299256713	4.827879893511459	5.050961004856192	7.569255809746888	2.6722416810278964	0.8660450555870365	8.748750664557036	10.296400044194518	11.67189690504057	4.166578759164238	3.359374753099815	10.70280358473339	16.15151973461196	15.24852844203095	6.836569768811098	14.523133241225679	16.237213093770603	15.641692122068582	11.155751200166955	9.683483099330852	11.085591288234717
228	-2.225652450664337	-1.2768384185978872	-1.5056446752681316	-0.3509492269238444	1.301706549219	0.8117047527800493	1.7374247268680019	1.2222442596094423	-1.8673428249896973	3.370770445896361	2.1103088802463232	4.203234661934239	1.4045247996155368	-1.1852807968731762	4.871238219360241	4.789185511895285	7.276756745086208	2.8755724357483006	1.1064230175694043	8.852286316456278	10.107945416679598	11.375908822902126	4.189402569684006	3.5707256703823673	10.978182764946327	15.981396634760715	14.898941956097167	6.620745642158735	14.855416260406278	16.16361995430797	15.275650939521068	11.47937104187919	9.698610281299496	10.513731929937313
232	-2.963016025691711	-1.67689024978695	-1.7596178010383492	-0.8788474776013748	0.8534871914295942	0.19364227305636544	1.1080402107873673	0.3612572243629529	-2.1402633136118574	2.962571851879966	1.4369544946630544	3.4200415524919343	1.2477513520209342	-1.8727693510456378	4.624641406780934	4.167034138649172	6.430832846617712	2.5588788921600574	1.0908791991348328	8.530599572578517	9.461881613684287	10.53190800868781	3.576140871555829	3.3285412704353523	10.63301083741204	15.204650840518196	13.9235887175929	5.715959534518785	14.4122781389665	15.322927436288913	14.239485704710376	10.894746752888917	8.769921280653488	9.261553740960085
236	-3.842445602252493	-2.3317804277676055	-2.1625277941464653	-1.6418994623691898	-0.028566719892022578	-0.5841531142745143	0.2246926868249403	-0.6960442644665646	-2.453828567031607	2.0716943688539473	0.6125475748809257	2.441019290483137	0.6069490298205978	-2.3482799470740927	4.132740963992101	3.3988871488588206	5.374999509592272	1.729766602917305	0.8281845429491657	7.934909323685762	8.62824151721725	9.462665533970394	2.4741783079622848	2.7586452891318918	9.85996625318215	14.13491150148319	12.682716337608126	4.418799389173194	13.417782749631655	14.020752871400319	12.893851247658557	9.584680533051985	7.179063302034519	7.725861053034359
240	-4.47710226835949	-2.9915952606964598	-2.5932879382462786	-2.2879238070897587	-0.957803902592001	-1.1947640150422878	-0.5569336400275936	-1.520691152547953	-2.7051389149078515	1.077970382829839	0.013151499409551832	1.7179993347661673	-0.33101734435430974	-2.3592584073582645	3.6303427127733525	2.8726098464918643	4.603627670109135	0.6162710770306434	0.4676847148054614	7.389358501851476	8.036156634068565	8.626721360360735	1.278452750792908	2.161835188175924	9.069083190908918	13.25309177867295	11.655649155752979	3.2028326907356464	12.345454184834143	12.77838894478845	11.72532078643645	8.061707476289211	5.519288049114453	6.41169784834449
244	-4.4975538140231865	-3.2891244805263256	-2.7915332246872855	-2.4351932940989203	-1.3992879355387928	-1.2564395634400387	-0.8164285996805067	-1.739506359476882	-2.740784399742172	0.5364576564596005	0.04521581519155088	1.6682120519481425	-1.1142573328496124	-1.777070517821678	3.4725754173342747	2.979476444351324	4.534534919734261	-0.4271716464701708	0.23601862728611403	7.265371304288537	8.087020853605672	8.4198236252874	0.46524396421271624	1.8664376688564235	8.70736978239833	13.00013443525643	11.244774790030084	2.527068131742325	11.706382721909069	12.11341091912361	11.160524340108518	6.943433267229038	4.4413852579516195	5.759497151138599
248	-3.7644183540669243	-2.9342818186109376	-2.4952228006307102	-1.8858627033303903	-0.9515671109970296	-0.541908322396614	-0.2900858514137523	-1.2172617881559575	-2.437646621271681	0.8958548284800663	0.924691793968173	2.4570894179297462	-1.2739472357057116	-0.6875423175619131	3.958216418763178	3.9071683785020475	5.299877153367143	-1.0707662078526055	0.3116148106336889	7.798502902368778	8.950887657454892	8.985388733112414	0.36073663739679895	2.047816748217211	9.035071350174478	13.56566044243457	11.594838113120867	2.626933568044144	11.800785034903148	12.300349204479271	11.382827730050185	6.66061256634397	4.348558891761423	5.973544582543982
252	-2.476718657916198	-1.8858457756113167	-1.6000119407311713	-0.7500992994443771	0.40943601624113	0.8676403142957775	0.964160082290156	-0.1326234933365751	-1.7878156855267877	2.231416219799565	2.528112643534732	3.892418613143169	-0.6025682076499567	0.6154875143724045	5.13884829177419	5.511592374237643	6.667195780133501	-1.1333714694972157	0.7111751419231749	8.946363426509283	10.457041714015988	10.134266827745956	0.9700059866256774	2.620728486120113	9.980128263071641	14.784108124599985	12.520003287176651	3.3967583093713976	12.564355818497777	13.234516110384886	12.241249053566474	7.245611172502489	5.198079096068007	6.925879937805582
256	-1.102250096399215	-0.39992669123767294	-0.24869395729695096	0.5965575560766921	2.271172517764376	2.580061906022591	2.5586976940403976	1.0984841557425242	-0.9324008798900242	4.1495766534942735	4.409739483190209	5.49340771241832	0.7048058492032023	1.7438920692283824	6.729404909309935	7.34777401022673	8.137097338159418	-0.6377065165631636	1.2601368395461214	10.371811840573946	12.146344154208917	11.421174020541748	1.9625207136196354	3.2720429814697205	11.15578076407069	16.199331242669956	13.58099457172935	4.430195797225475	13.597481693269756	14.476005517650819	13.304822888161482	8.323134401288351	6.519998057116468	8.189901331251198
260	-0.1495961394109337	1.0797690125860402	1.2074390619310627	1.7000746684066987	3.9656696219456546	4.058989037756188	3.9458403487718416	2.0213942476735696	-0.11293486477233529	5.950485691305814	5.992024883400644	6.709004862059194	2.1345887130249883	2.381567949004209	8.202715853008394	8.858410812900775	9.17324349948383	0.22282738927372625	1.6726957517354064	11.579512566894913	13.470222439135489	12.345109908406789	2.835143320554964	3.62312411347212	12.040604560970024	17.271938280367156	14.281064951126394	5.208379732333504	14.363441431020952	15.456708869056616	14.046800577938559	9.30263326203557	7.648494224311235	9.203457809099929
264	0.09418898797096642	2.1275677627253318	2.3556477964054663	2.253399604830122	4.895339953460767	4.87308644018077	4.6766648174467065	2.357798331983533	0.4409181166484007	6.966171723897703	6.832037908470977	7.170991402640837	3.1194543759742324	2.4188241897548726	9.032890297018364	9.625864004627694	9.44449231624284	1.175182458771536	1.7043561892393948	12.143140762188196	14.037861788593451	12.57328411742543	3.1667628208315968	3.435104599862961	12.22976872217456	17.62607760747597	14.287080728699097	5.344568715906896	14.453431092964161	15.74750228720671	14.075526201950506	9.675147985826506	8.048772791568451	9.494501089920291
268	-0.2861653559135493	2.526644938765488	2.9028568194532176	2.228630775546954	4.830541598521828	4.89703987792547	4.61260031489239	2.1227321571162023	0.6211083515698221	6.898997766242593	6.8251309222518435	6.855950815057332	3.330259553130599	1.985667819731849	8.9608688128252	9.558659529394536	8.963288284559814	1.9540482710140732	1.2864637342397842	11.90654370162832	13.787068332195393	12.080528228776942	2.8230431008589516	2.7379667689814635	11.62587639734426	17.21181292956681	13.570168460916841	4.76038168658959	13.779026950379759	15.250372848154225	13.304203953531696	9.260081267819272	7.568654041254755	8.87486169481725
272	-0.8845806099492658	2.3476991594168677	2.8022317815602986	1.8516082716923261	4.015302171106233	4.354911316366967	3.977330436201492	1.5895250995558656	0.4864426540967863	5.972681030452657	6.235397323124323	6.073799594803069	2.8301296162676954	1.3724654878297187	8.134199121919176	8.913835503007425	8.054517725635977	2.362375491853568	0.5652410969768341	11.051989527455296	12.990961995704392	11.137338610186587	2.0070674368729495	1.8098252966009796	10.469746563227076	16.301975209085608	12.400411574526931	3.7082772161318847	12.591218916574485	14.21907993541375	11.98022934749941	8.267108896363885	6.483549578509761	7.517996769043785
276	-1.2041802375908406	1.8774884891791699	2.2572050037615545	1.4417433702307976	3.0168726368075673	3.6804931070864324	3.2187971987519806	1.1238006325005057	0.21550878827997402	4.799235331816201	5.53430365118836	5.288981424329711	2.009399885826411	0.8776794053806607	7.029139977828079	8.142429331248982	7.172872048388042	2.308921569716798	-0.1795357014176342	9.994424794712792	12.098735778779801	10.157283757314309	1.1330705852511491	1.019225833226873	9.19820878567568	15.33060928288817	11.203913660372505	2.632604353933757	11.32494256021342	13.104888882928961	10.562664958988574	7.152006608072069	5.320478902735295	5.885359749240016
280	-0.9299451685314781	1.4541667663099662	1.6126815039926405	1.224160548934133	2.4149467884127334	3.284598342232089	2.7700512339273136	0.9894450281911309	-0.0005475186612603359	4.045024384776309	5.148909078949717	4.886142718376566	1.3542340959690102	0.6765542609299567	6.19906900748118	7.654007892357616	6.682786447818748	1.834478016036418	-0.68804335420463	9.16682527135062	11.507518739256854	9.498339629034135	0.6044391974447324	0.6232306345463364	8.217326143498852	14.670864068184239	10.365776989514965	1.9525419424351127	10.366317722851	12.32133099306155	9.515375113305089	6.357380850953551	4.56984852590731	4.535574901573677
284	-0.09263427532173159	1.3081772294394796	1.1978883713042359	1.2337999312721617	2.5038700040543125	3.357496968375552	2.8419704365503002	1.2362093894264787	-0.05639313892193299	4.080086697767619	5.258059488372625	5.005555140255255	1.1920294731561865	0.7782945017238075	5.986959919118998	7.628314475827027	6.715865595074098	1.1329324216849086	-0.8528792836590647	8.813534714381264	11.387507409908975	9.32261369258815	0.6244669540851462	0.6395568235462544	7.716091613361759	14.47151943367777	10.080162976564194	1.8839268636822626	9.872425054420226	12.056281059343531	9.120820976117649	6.085084422960613	4.445879924993494	3.9084536930587386
288	0.9627534126770083	1.4859064779913056	1.1963074177102049	1.3522132600976473	3.1711854854627646	3.8080346488176438	3.352560273289139	1.7157851414276415	0.030114553792738658	4.807840335151409	5.740498051455122	5.5219702581225745	1.5511686762747157	1.070167538801993	6.364211066390408	7.967156390102149	7.162590008771668	0.5288271890640096	-0.7586213331142673	8.900323845326694	11.643178910423135	9.571895575198521	1.1295528383346767	0.861240980834914	7.614551524964559	14.628000222467264	10.30832574149107	2.3775019585664765	9.733848547201738	12.220527618071914	9.392230963835724	6.220993979960004	4.817867743725945	4.166932572334731
292	1.7843629076729564	1.8801810693954553	1.5986711938549787	1.4342416488675964	4.008149136914088	4.3592557797043865	4.0182518857594305	2.204254144825418	0.16244614083284387	5.762711987251088	6.289085849142337	6.161777003943741	2.1989042703424655	1.412325736294755	6.9846844496810405	8.397744157569706	7.783447245973685	0.38416695497794767	-0.6079203471094052	9.179698920915285	12.01468178576692	10.050077412980485	1.8672048998420352	0.9996825431379704	7.660459022254659	14.885595284072759	10.844051333705387	3.1874892631163037	9.685763334615622	12.542264906688317	10.106694195979632	6.444948180139203	5.3312625750408325	5.149932371488638
296	2.0661156125356346	2.3275628031139473	2.243908876475788	1.4332208597237504	4.568684566407075	4.728189456446258	4.536143768301977	2.5460281307789283	0.2509633296352384	6.401844008495101	6.608683569435283	6.673481924374222	2.8084130216264795	1.7126722292574612	7.41128824270187	8.651558854194512	8.356875398517618	0.9432718133952925	-0.5860187396512737	9.359237647268634	12.24499985464343	10.547636959148585	2.5525197918343157	0.863738475049342	7.600729923131779	15.00026699093656	11.433903665285	4.013433446287953	9.484148001567524	12.73631283405484	10.926919909545969	6.439169867470686	5.627954468823008	6.450993998452796
300	1.7989876224874117	2.6993737152611526	2.9120113776118672	1.4293400013122228	4.612945544994057	4.776399600367508	4.74258755440185	2.725180857453686	0.2769578390281504	6.409487708121798	6.574031813236149	6.944952947248394	3.1440825382960855	1.9392932604464677	7.371418457493694	8.606632210936358	8.772130944039022	2.1726007406694956	-0.7514784913163528	9.265071845504426	12.209740607906278	10.930642100393504	3.0038688106990414	0.46399620058213853	7.319605332014158	14.85954090181432	11.882031410735618	4.63076304220249	9.03728768928021	12.646643606681135	11.54490181869128	6.067911609588443	5.533490166998519	7.587710838234229
304	1.2430223195163945	2.9363913461935023	3.4144446763616556	1.5501198729478958	4.20903300176335	4.551475513410972	4.663808334019693	2.831576101783453	0.2894241504514489	5.848983749881173	6.263730033318903	7.011044484557115	3.156912557260885	2.08037805032006	6.895672780746838	8.318632104851964	9.026212669471747	3.687841406094369	-1.0170322630953874	8.911820389181946	11.943799942378984	11.15408036276883	3.188048116264307	-0.01353375330875706	6.871211988267092	14.503142320255645	12.093086212143673	4.94864891710181	8.425178506560501	12.289609878029335	11.78017804032627	5.4322585922418964	5.1109442581837525	8.180727938024846
308	0.7450942974352239	3.024311296456755	3.6444203761594407	1.8458222104200082	3.6430578139833156	4.209110249382784	4.444786537392495	2.957287065668944	0.3386725774797423	5.078320967250494	5.863933071590256	6.964581471979111	2.9517149850708293	2.0860392994665333	6.2611574968568915	7.936021784773041	9.146459556375182	4.850567328604325	-1.230078932517518	8.448418595918328	11.565223664648274	11.213813753426123	3.1708156982475115	-0.34425762208806265	6.3996162252976	14.047730410394706	12.052939384547281	4.986451613234395	7.807631472902371	11.791023224625059	11.60466763427525	4.773931014405723	4.569772708799347	8.078317621816122
312	0.5260410295556631	2.9474816247909903	3.577621212509733	2.215684408315847	3.2101383128180316	3.8826935193261694	4.22095726854843	3.1034378927077855	0.40747132794500396	4.499073970879699	5.520048604379867	6.847408754226847	2.6803486279526187	1.8581246090705883	5.790858730954438	7.572159271195856	9.11147401416615	5.0332498423337695	-1.2890948024628168	8.032581309065385	11.165728540840007	11.093592615729165	3.03452967831267	-0.41632446541578544	6.016426548072922	13.584544147526053	11.789168328084333	4.816976535079514	7.299583416628917	11.281451196797835	11.11471650178423	4.310659397685967	4.113280762777806	7.39631937066935
316	0.5736524448216558	2.6768526963360793	3.2514414705201475	2.448500150220719	3.0415091437796677	3.600106230229453	4.030651559190038	3.1691696563815506	0.3980930437527547	4.317171562739105	5.245969759094066	6.611188395021	2.448404067533584	1.3115023341445244	5.65007351402473	7.231380921226161	8.843914963328	3.9545164008434424	-1.2142225473265336	7.729508857285404	10.75254723695155	10.762150737293513	2.8310966420220898	-0.295978247372081	5.727703556858518	13.127547230955251	11.35246178621816	4.527102458968114	6.905980092732533	10.827273341499211	10.480553600553305	4.119286526770211	3.8321792982622993	6.458528025533384
320	0.6920734030416535	2.2035884801542474	2.7451534201931773	2.3530113637644177	3.060134164713479	3.2940623677056307	3.81785868634472	3.0287461204354265	0.19451400588516582	4.449489105434821	4.941729056279437	6.169949039140394	2.2889606894876535	0.46643996120943726	5.762510285133677	6.830820543209159	8.279322603303262	1.9006967496567684	-1.1305367918081446	7.493166427767364	10.27258488922535	10.219557736344093	2.5936429435096646	-0.174252748049434	5.450621591157937	12.637201277298235	10.823544474931477	4.211648930406648	6.548602564490538	10.430416080843464	9.893885587508134	4.125142563895319	3.697075357639659	5.663428769117965
324	0.6631276590771064	1.5891029794626321	2.1690654699875034	1.891895408622166	3.0756359022689455	2.8880538867513335	3.5113716036834672	2.640422337541338	-0.2395430350216234	4.618156421445745	4.497804153530611	5.501684174952356	2.2023475114531568	-0.492393522211492	5.889362320335867	6.294528945289483	7.458668689969941	-0.3203022173900909	-1.1794787615560989	7.231152993065115	9.69239327844654	9.551345801080483	2.3795168339733768	-0.23616686403729617	5.09824656153002	12.091845481861162	10.322810146972078	3.980813016377636	6.154620631891497	10.078972791020325	9.52084443549587	4.188192833816699	3.6325817016440425	5.326075540446995
328	0.4118119765851679	0.9874415372713541	1.6580527978996955	1.2324261634228468	2.9467596933352933	2.393675798094733	3.118040076966573	2.111481422815384	-0.7956914285597674	4.562134731218533	3.9112322231725734	4.725476729860089	2.2100491467944297	-1.2499448029431308	5.810852989784573	5.650517926255054	6.574546797365708	-1.711692924946274	-1.415542122128004	6.90111492321967	9.070631004320537	8.938286758744031	2.292194599086422	-0.5351704941589257	4.668681132927069	11.547316522054324	9.992699597878769	3.9495153327408348	5.738648400123122	9.797395681440712	9.457847571336075	4.21799992450072	3.60425256772814	5.551323399833133
332	0.06170975773847541	0.6024288519908236	1.347599383766523	0.6664243919713098	2.6871781281337404	1.9388526629134002	2.7525877883079524	1.6635855394323575	-1.2508679596790813	4.2137803924984345	3.323064795687216	4.083838452518889	2.3609530866142396	-1.4905807934320798	5.477292523860375	5.051241861941665	5.917408928236248	-1.5673190315729901	-1.7646974280625727	6.558367235791568	8.557631471008804	8.59101770139326	2.4414882598270458	-0.9597254967300632	4.265590180117871	11.12868115476411	9.93865105980722	4.187242497362799	5.407832608874611	9.644572233645402	9.691396688788412	4.223210324115251	3.6407024768463176	6.190453990565675
336	-0.15014207325221432	0.5938878640439428	1.334357377498076	0.44860726481662483	2.4498741564886126	1.70452379750008	2.580458157700057	1.5155402383687582	-1.3855813706701394	3.731496324654805	2.949418537322721	3.826977004879438	2.6826796463946097	-1.0574926111225071	5.034316527053977	4.699193465766292	5.737233147441148	0.14752460978931747	-2.0699984975050794	6.322851165066608	8.317290285092168	8.638742425088687	2.8607742714179865	-1.3099236455269891	4.034781445806808	10.95713517283638	10.159561131576137	4.654550063779396	5.286488996510076	9.66229340974812	10.084999059010482	4.271313656513333	3.7816281223187618	6.904442769738368
340	-0.03891069804738791	0.9855931972415358	1.6342139202819654	0.6549785716686343	2.4078447757963866	1.8089616253003646	2.709584706141134	1.7549357369937737	-1.124519941351839	3.378882876448389	2.948016397662565	4.065771569477345	3.1158759515295316	-0.05387543500768679	4.711742866064198	4.72152947187445	6.097785934311601	2.7333331039083233	-2.1929564420646357	6.287663920740165	8.418076493944154	9.037088371348585	3.441239348306335	-1.4297116958761038	4.057613362558246	11.057766886449498	10.513694736639065	5.175093637752016	5.409964547803555	9.811017965341865	10.40968606228008	4.3936457523043275	3.994683494019008	7.307304363875049
344	0.3933593024812895	1.6312980610669152	2.1553258841457277	1.1451508969958568	2.615862362932936	2.215396398673019	3.1027378957613108	2.2763373794304127	-0.6076459869301968	3.3374133025784802	3.3069476997806424	4.683876502609163	3.494290343045441	1.1786308258816651	4.6566958309858935	5.075870977937831	6.812634450878365	5.062016951178376	-2.1053469127905893	6.436915381392394	8.767701126850499	9.560330366792662	3.940714826171257	-1.3074629273782947	4.277891625094138	11.315407724422064	10.75713154937894	5.481754289138417	5.668474659913331	9.950854276329144	10.42363641014525	4.520341384919022	4.13937710670606	7.131822091216292
348	0.9520341729923103	2.2766597213485444	2.7221198013243297	1.658608909234046	2.961348049316528	2.73805474543693	3.5819668679400456	2.8362181115068403	-0.12725847927388756	3.5905990509932026	3.8409480951609365	5.381262288812301	3.6103072075291376	2.2062509004203523	4.838709819021225	5.5630402424549175	7.522833328327228	6.11794327144943	-1.9014344167386463	6.644159777078869	9.151046729825515	9.905454610611248	4.089105118917946	-1.0730297538368807	4.525462615985194	11.5258683867325	10.657130214487376	5.3385100229900635	5.8578319401664505	9.904566739824915	9.98198315961237	4.514696109817308	4.02934502537986	6.346405013273743
352	1.3713134492584085	2.686466448676919	3.1438343445558674	1.976614231841194	3.235303155360087	3.1435928265358473	3.9233968158847805	3.186414472164427	0.038706663898256284	3.9495227237167683	4.295665253284127	5.826782688688446	3.3403580104415287	2.7010090282910815	5.084637629069262	5.938569530752403	7.8766240874742754	5.50644444029068	-1.7315332845839873	6.751945001721288	9.349731421706696	9.851798986357068	3.7401859665853805	-0.9040603018823536	4.61935995843001	11.512736291428741	10.120624516684208	4.6762804866981655	5.802960857999079	9.566131567644714	9.121438957073119	4.277102936436461	3.5573148637603427	5.1719994414402475
356	1.484940286701936	2.7662248541609733	3.2982339775736387	2.046127552588541	3.278757802314584	3.2894833004869675	3.9884061712656917	3.2098395743391714	-0.20010094294095304	4.1965336693669295	4.499383915031749	5.838432774108251	2.7479963233232065	2.58919429125344	5.216520773114952	6.058853610954086	7.716207007953753	3.638898363462811	-1.7002299981105913	6.6824073622789335	9.274129844138784	9.389078116553646	2.9759437962736954	-0.9043133235987864	4.485462177396	11.239869089358875	9.264833426925927	3.6617097762164974	5.476666913510392	8.986507393082734	8.06884572852949	3.845627775019727	2.798489801970747	3.9875323671754908
360	1.3403100933567649	2.6146721773890658	3.1988148608507707	1.9971122691276981	3.108308545847954	3.219094745137948	3.815582981012941	2.9825119896927816	-0.6705760342833682	4.251212109322873	4.473589885861033	5.493610845047202	2.0937342590876082	2.0707645363977987	5.198753820645161	5.976397022417151	7.173349362382198	1.5082611999578757	-1.7946104958047373	6.507725699206779	9.029994941801064	8.740977265223634	2.0967922157754444	-1.0323271725340053	4.215195168343251	10.851031276009541	8.385465600776977	2.650485747321228	5.036848532357642	8.378918626611377	7.161230546037062	3.4156229409766006	2.0179045149400707	3.172183982469521
364	1.1801074713476025	2.4741415915011955	3.002794019747165	2.046984428959669	2.9335567877137203	3.1489500919947337	3.6117095856078723	2.7280275752809717	-1.0162196133705714	4.242778290527029	4.427395332602419	5.094754683029315	1.7235932306642145	1.4998584947865246	5.185947405119632	5.916688427292022	6.605686647903544	0.18019446685118978	-1.8930242013820724	6.423604472154761	8.867893196604863	8.256198862211741	1.489721890503035	-1.1321163148907045	4.018232335435993	10.599318477572789	7.8227128785039435	2.0316035696235017	4.744325625839112	8.0210075175907	6.700065119039772	3.241958133141747	1.551522012608052	2.949229471389971
368	1.298163291514628	2.6038613253655796	2.9495804235375225	2.3538803994830486	3.0493748111029486	3.350652447823985	3.6433026698634348	2.691304438471833	-0.8975593425024047	4.437033165219687	4.636106479383823	5.008137690297563	1.8886377763748365	1.1955559223507741	5.428977952601742	6.146059974411889	6.408420546564434	0.25980463558406186	-1.8493927670516184	6.6326756309896995	9.039319015569026	8.22632024595417	1.4345183336279452	-1.0446253988594616	4.091561307113649	10.700931522055011	7.792543868417759	2.037919516186535	4.802652346883257	8.100230196528866	6.807474119165319	3.4708373458970123	1.6182546574743584	3.297526112814073
372	1.8566452217909981	3.141948215181357	3.249432078740553	2.914584867748192	3.653546085670092	3.991312970574759	4.086378564054224	3.0054385586198826	-0.19775487432619454	5.05443333303346	5.272019372980934	5.461005673925909	2.594779961710529	1.287299629776004	6.093216403836078	6.804982168182841	6.800758344646142	1.6144088465938704	-1.5967973430372608	7.205946904108979	9.640902494885136	8.727362610716993	1.9542607019675162	-0.7248756271180766	4.485482204556594	11.198303194383252	8.273504236313558	2.625043385553799	5.219418035680879	8.594388940093246	7.363028030879136	4.015430440301466	2.1794147436430147	3.9734747309499965
376	2.77951931251669	4.030385007219276	3.9732148546994317	3.5691695123205003	4.704133975549961	5.023372160626531	4.919315325714688	3.62707923927085	0.8906056858465295	6.095555290091159	6.285087092743741	6.406620963133919	3.5749227910382744	1.680314178992783	7.108991128139169	7.802725295394007	7.699473838440336	3.4905126006691143	-1.1992534368754355	8.008925417706653	10.535222026928952	9.569084143320854	2.796625845524037	-0.285368978256716	5.050170885687044	11.910941093890166	9.007157303003742	3.4844925315619992	5.7757630202381565	9.257600760928563	8.051573733028665	4.564483631053911	2.9320561811806436	4.6226191403981005
380	3.785578956583079	5.041366087583054	5.000179754984402	4.102604378832593	5.908068165167791	6.190730079279577	5.92092846329206	4.365795124475474	1.952998275594361	7.291452389427766	7.408073883426538	7.536376934097477	4.415617454824538	2.145671362227964	8.161255815881626	8.841719605057175	8.75483129198309	4.944120394621788	-0.8204997757223215	8.747967697945244	11.401905031027411	10.386277172568676	3.5590655713822654	0.062351319781476136	5.503359780722051	12.512046782374963	9.62000749066543	4.192102421666935	6.134368880996583	9.733430837852207	8.507807710148269	4.743939387741943	3.4594149502196743	4.9326691502964515
384	4.542600620244903	5.889750465781665	6.056709751096217	4.379394043355934	6.856172544335336	7.150992375439132	6.77630327421228	4.987120615765664	2.571069949334478	8.223036745291074	8.286832788526	8.432750680613648	4.771644103400755	2.46703147265318	8.84165666255245	9.562844252284362	9.5279998538738	5.340005384314413	-0.6279095395447467	9.117589927541822	11.895221680172531	10.820969554283682	3.893135776227296	0.1340257522060206	5.583792672364681	12.692502943418377	9.803570722623851	4.415629375753463	6.026523574872381	9.737140630933661	8.486709573299681	4.3401336560344035	3.4560637386802835	4.759698855780767
388	4.847537505308752	6.366088374277513	6.830611211697236	4.4181151278529	7.23016546331297	7.644564609300404	7.230265599115939	5.323386655718676	2.5438156063704516	8.540480592145855	8.661330201215739	8.779281594045383	4.545247066466249	2.559285872673556	8.873784996516745	9.730226492157172	9.715250944404454	4.642397868833271	-0.6924802643458632	8.963229156752346	11.82136437292492	10.69961259047875	3.6717555430215785	-0.11296074808926365	5.198492037045968	12.32225128877456	9.460439658121523	4.070809830878199	5.407680497821529	9.206605888010438	7.976862410432868	3.4464197071799743	2.897056572275479	4.182794560362311
392	4.736155974828244	6.428011877996904	7.11072633855349	4.372241486000946	6.971933347265725	7.624617557348812	7.2118415650438035	5.340900884495258	1.9884304950102132	8.1633386405834	8.502880074967837	8.521509149017485	3.938389052937993	2.4944236215555793	8.284060457295206	9.359052634451718	9.304619765631628	3.3789100561663377	-0.9466673707902841	8.37219808372063	11.243910761101601	10.11818024941743	3.0435638350891776	-0.5483713136179369	4.482058513769339	11.525938004957421	8.74905679401183	3.3543696318813727	4.493628490546769	8.343387582694737	7.20691440670053	2.439803355732789	2.0587961621756965	3.473834029010174
396	4.450984943596327	6.205193503925678	6.884162408614034	4.431112755078385	6.318332179329727	7.273368340248571	6.86088655646943	5.133886801155613	1.2652627197745738	7.342199307024252	8.027088145016753	7.888598898997997	3.3446469222501585	2.4237816272576147	7.408276062381106	8.710393883648019	8.57663533906385	2.3158216417971556	-1.2286908595534933	7.634763221538285	10.454871151277327	9.387363410137077	2.345330947676631	-0.943369624617122	3.729619970442013	10.625834438199202	8.001421908204113	2.637111418741714	3.6497607138992536	7.514090995890805	6.535855276772478	1.7846126511339346	1.3716223205268547	2.9846694394096245
400	4.289195526737961	5.921113476108975	6.344168647007416	4.701620566895419	5.674925312973216	6.8972072427180615	6.446674807484697	4.857884394778478	0.7736639956968326	6.5340618922250036	7.5750555800874695	7.267329197655176	3.1400935570592083	2.4531807837538238	6.718399507726392	8.154130915081744	7.9532618321843485	2.0383708425556346	-1.3849616015753297	7.091922742104382	9.8252248515975	8.871889091980517	1.9232749890406817	-1.1043992014658104	3.2376415647780115	9.98073384626103	7.558051090231721	2.273330682736954	3.1939439692920235	7.062695962240428	6.280282481549817	1.7722425416070606	1.1849383085851617	2.996971122804469
404	4.4278812296654015	5.777247414307896	5.797608360911762	5.143819319135908	5.400855527593398	6.7622151204087375	6.226824267878634	4.649550426188259	0.7361924033651392	6.161041721047648	7.431788425755581	7.000356179682977	3.487154951828104	2.5666375095415916	6.5638460947254895	7.976769427187254	7.777146796618254	2.6633531980028526	-1.3632078136358678	6.953883153524676	9.616348242322617	8.809093453100974	1.9616273592059974	-0.9851118897361897	3.1446356693982045	9.80675218013535	7.6035995291426	2.42772006375585	3.2252156653037685	7.133922082055717	6.5608978105837625	2.3471627176152436	1.5757734735758757	3.5893263726211715
408	4.822294699891526	5.855158314227156	5.514280782128805	5.588417515950416	5.6164650775251115	6.953993302907943	6.315714343337802	4.567070472630633	1.0908520194168838	6.3810686904018015	7.675573806457221	7.210031014358678	4.252170075171285	2.6422130994844486	6.972881776370996	8.232751825527776	8.132735231847189	3.81842278470145	-1.2434278695184222	7.1868796167120506	9.847675298623338	9.193832374248743	2.398021691943624	-0.7125638109336458	3.3571901236650232	10.069282506315787	8.078156450857056	2.9989952965359308	3.5705015569185776	7.596717815292788	7.236459236948202	3.1223876397455133	2.303355449583146	4.573148715870902
412	5.239014135484919	6.086927398572415	5.599050507714343	5.82591913659712	6.145656093339911	7.340497952048079	6.6350631546347945	4.580831516144473	1.5499052962272462	7.003167611560645	8.142621973460411	7.743859748362452	5.078691946558639	2.5422608788200556	7.633897762098331	8.72168538752576	8.806425072370406	4.866425978771805	-1.1861506670568323	7.5338673401401905	10.29235074305728	9.787593816841435	2.9670131131602573	-0.5111608492343452	3.6036167053792814	10.503807995025845	8.706786133718161	3.6742336657265033	3.8795564076702718	8.109341600924806	7.959477404525833	3.5820455460709506	2.9340159818959104	5.53913115056582
416	5.401310430241176	6.303944094954432	5.952757820358915	5.7153558586780235	6.621244413824957	7.65534685109447	6.968241197159079	4.609025466726367	1.7803907349458634	7.597261886488924	8.525583245686885	8.265730836980158	5.572885499235481	2.225398058041078	8.069725016246997	9.103707290552947	9.40247628699101	5.241112218975716	-1.3308839764372042	7.658184032178616	10.60321137612253	10.243122074968682	3.3413786803760854	-0.5725640044061605	3.5854549317434947	10.755453082586302	9.132254577468176	4.084096898257982	3.8155324362742995	8.293683984797765	8.333000162066666	3.3578617488006564	3.0672242564009005	6.015699848245656
420	5.160312162722197	6.337462886068536	6.343038542945328	5.256874548037482	6.6998719999911875	7.6570262715614215	7.087533932911361	4.573408115284309	1.5972138602938997	7.744166831491559	8.552785851819378	8.44346044315985	5.4998783926388	1.799654836879343	7.914078692482251	9.091928459100751	9.553987478930258	4.718267905720575	-1.7049720244276592	7.335618954257662	10.504301044646182	10.280673954756685	3.2958097374674544	-0.9448202228533583	3.1455697933887663	10.567066165947676	9.087817169133103	3.9805598158472693	3.239664307998002	7.931327799799541	8.098867395934162	2.431013101162087	2.544331544174325	5.684040055229256
424	4.593649852598927	6.11421059018444	6.541039450343373	4.590976703496788	6.268149836927129	7.273890953772642	6.8833832566994975	4.444318760141479	1.0595562431287107	7.283236008375512	8.147615412168506	8.130611399149913	4.88762472826052	1.47323155031182	7.132384282224394	8.615830399694874	9.11726281725212	3.4913740069932335	-2.1988165323055777	6.589225275569616	9.94496915213746	9.826498006806688	2.81103491073424	-1.5053802690645757	2.360453599692283	9.917576764816483	8.526212670734125	3.351506463172171	2.289381259860127	7.079810124642288	7.268169861562965	1.146319148030505	1.5287839135672547	4.55292986673982
428	3.9715549845559175	5.700363144787654	6.452771170536932	3.936876525475992	5.516536221881411	6.654866678602129	6.427605612739141	4.257306088189324	0.4260685135097754	6.412246687912196	7.481931190674149	7.4480032732793395	3.997161139886776	1.4369351827581958	6.057533248866355	7.8695368568097965	8.251642206339458	2.0537488408688596	-2.6213042669871895	5.692382321290958	9.137924171264897	9.051508880650555	2.0762121624979364	-2.0301532694104885	1.5103597602858292	9.043632484491242	7.649173240422802	2.4258940158631215	1.3144465651704162	6.054674133272988	6.134514793166624	0.03642391776783116	0.4254105378377611	3.0048265381288743
432	3.6150329021735783	5.276756273298565	6.173610671668991	3.5092086703393184	4.8482947227140665	6.102566703647676	5.94272850443575	4.101404179708426	0.010223779801543776	5.592844472115997	6.897738916148116	6.726932985488051	3.1893861213268466	1.7397197441046393	5.226853834307125	7.222180348281861	7.3458471112752965	0.9670956706425772	-2.7963893342941657	5.043498980186311	8.463855722039021	8.294010141413153	1.4004358017849792	-2.307897800340721	0.9496211981639604	8.336009958201645	6.823554975447961	1.5734431703896206	0.7135652881726334	5.29007481193071	5.158199297279533	-0.4359248567542387	-0.3081900171605089	1.6647551017691875
436	3.728813400390949	5.054881559961039	5.933064445774847	3.4405903729356586	4.669558513295947	5.9221191256730865	5.692040429049389	4.078569878771204	0.02073821606466546	5.307049737882726	6.73655317513051	6.343903048710968	2.7637760569412038	2.2500188293869976	5.104352461325395	7.035668355344555	6.830481035153375	0.6318179353020908	-2.647985213269924	4.97401808436564	8.28871915631909	7.904211501192466	1.074142691761317	-2.2386765423520356	0.9414852237773057	8.15894792404175	6.418670161254132	1.1420447797551638	0.7531858663616331	5.142573820481825	4.765514361747529	-0.08527921118663008	-0.36609867122725526	1.1293823690510494
440	4.29589985716537	5.170987592993096	5.956179603797541	3.7372226620732087	5.164969431234608	6.260832770752975	5.843727573899571	4.251929272407001	0.4694471943446975	5.790231690092984	7.161795121230949	6.530889494619488	2.8407320904535736	2.7245075633880034	5.830744728625953	7.4803404619183995	6.96942661433138	1.1496204108777	-2.2332494202496487	5.582056985113204	8.781585671188003	8.08216188297585	1.2418621747134153	-1.8711515617812287	1.5350757798538595	8.676007248908176	6.635930521423377	1.3045594659293265	1.4510760270675864	5.72672604068667	5.149763571135059	0.9324979758561182	0.2780570678843229	1.6730661349971054
444	5.09441374446206	5.61727093232044	6.325835688832267	4.2888746153313	6.1888246380002085	7.0293655218033395	6.385214312644753	4.612188804425899	1.1893713444244942	6.896497232191289	8.073086718203841	7.264027577180113	3.340373984486288	2.945264808848101	7.14477155788892	8.449221589690715	7.739843348989047	2.3202395380567533	-1.706568117601425	6.680928213417922	9.829843496300194	8.79042432473014	1.8469017697434544	-1.361296769519904	2.545624488125528	9.771102880603774	7.4147586635305105	1.9873928973565829	2.5782077247375996	6.863688451603958	6.173787578254237	2.220345014688357	1.3764096463738378	3.086878053500938
448	5.825165257051904	6.24819753976681	6.933037740369297	4.921373354884297	7.337194901061546	7.9493922986553	7.134524327385007	5.078473555140733	1.937612171049467	8.176705339768402	9.15969846320211	8.28756997877072	4.052335252067421	2.8542165684163545	8.519916512913106	9.61620805219846	8.860608078520228	3.7490355873821293	-1.2391078440852985	7.889955023872503	11.095673533082309	9.78211877260477	2.6672511033427426	-0.8840866066546147	3.6446311381828345	11.103754015544817	8.460796334839715	2.9099082873309223	3.7715265655663117	8.16639898145702	7.4260606578257065	3.3415260230575985	2.5336477692531787	4.751341807767199
452	6.274110778226776	6.856041890954319	7.536756973311606	5.470166192549021	8.159216860198297	8.698458649608327	7.8373260300173415	5.533379063940938	2.515048735944424	9.120195365767666	10.060134862295914	9.251721358782762	4.750115859436554	2.5970749789471665	9.435088133832501	10.601973506862961	9.942139600447828	5.013882624365089	-0.9429979896578857	8.817646004348912	12.18108364844494	10.72371861611369	3.4234671506278165	-0.5528072700848561	4.510367382106069	12.268410651703464	9.383521056325977	3.7167155648807215	4.695961463516151	9.217653251263796	8.410407998785292	4.013581265806623	3.387924901037987	5.928583607010525
456	6.415792925848799	7.277464371427194	7.902341345862715	5.844368919875735	8.392746904164355	9.074653602576984	8.298180559188268	5.877182468834636	2.8389503884164458	9.42710969452159	10.542636844720292	9.88876149541902	5.288602338789897	2.4473605094154913	9.634192442411843	11.15907475515124	10.677029582723268	5.815881237605129	-0.8361460545410032	9.240511870896025	12.81534859282746	11.351412744472762	3.9029548069642237	-0.3849996616656799	4.961666571487888	12.976329770704714	9.87682912240227	4.138292779011044	5.174645887661593	9.751143430886101	8.776722885860924	4.19752358330486	3.7538053894635923	6.1285610044243315
460	6.401382906964282	7.471016864987593	7.934617499345679	6.056553825345879	8.090710619526533	9.087764717045834	8.469506242349462	6.072125896382002	2.9419636652101953	9.15613076759344	10.605843517229166	10.128144238650085	5.636230931357043	2.6468586854865137	9.235068297911722	11.274780244971417	10.966535540549463	6.057239517177644	-0.8578817822731436	9.187307334592365	12.965133634258372	11.577177972174244	4.038806905086196	-0.3238367430140253	5.012486922006552	13.167189564839537	9.848733877111876	4.09940766253207	5.230049120096177	9.746769880482104	8.473295190398979	4.056500901470966	3.6672792342102483	5.35249899466495
464	6.442195876069003	7.522796135028982	7.724473456907491	6.201104148467252	7.568686466181431	8.928025223125408	8.450423219326353	6.148832305642683	2.914040796552056	8.661006905623294	10.447382900563811	10.0929507954406	5.841672405752904	3.253992549310093	8.631085374021593	11.140072794444821	10.92223832233855	5.836247906254881	-0.9210666394820864	8.888540245502929	12.8131780300888	11.49416348416362	3.909166326189874	-0.2942332617960423	4.8269114372455935	12.997906652058928	9.436568236367826	3.725173702371574	5.02817438763467	9.398819899671139	7.744617442604924	3.8292896650908843	3.323352805330044	4.078662385179662
468	6.6647534202153516	7.581225852899039	7.489056568311188	6.390828593331261	7.212379914194056	8.838218666650487	8.405584314105088	6.174315436987036	2.8350028920122274	8.364404657226634	10.32826516404815	9.993184064430281	5.969812378116149	4.09111927906911	8.251807191995779	11.013790102808088	10.757908793944848	5.374703393717776	-0.962925729704619	8.627002694283366	12.627686468667473	11.290041895018334	3.665906658453826	-0.25493943626887644	4.607152450373674	12.724345175088471	8.906262375279962	3.2489919580446425	4.764529216181169	8.981872535916702	6.978060704733164	3.691643705584281	2.9477295801126298	2.9887943192362463
472	7.027544480700759	7.759918670135872	7.441813450144332	6.685292703915936	7.2552213485646515	8.964333511607956	8.454357125871597	6.202781184748418	2.7398378779855284	8.5030069136516	10.413019154007506	9.984243367736545	6.048950656877526	4.831328856668034	8.322875955549257	11.062995882713151	10.64198586638108	4.9093136663466295	-0.9685052012786669	8.57615564088391	12.599477736133712	11.121537180477947	3.4388675602874206	-0.21789656524480883	4.476411331318998	12.545715300356363	8.494087197792773	2.8754274772525727	4.552521217296272	8.691020943633454	6.485772593335692	3.6712455656821676	2.6739649705132917	2.5877995425692175
476	7.347735386417013	8.063580492641904	7.669925670332565	7.0443134130009515	7.6506595418411685	9.271560645536873	8.597591378439652	6.237851603971397	2.627983086626699	8.988764740183969	10.679071399429539	10.076599095652783	6.05678079983261	5.173604475310707	8.755271889516157	11.272778482586334	10.601500484403218	4.591031062932687	-0.9632542705057914	8.713704087191907	12.74074455859199	11.0261764247983	3.267650595998022	-0.23117849172399338	4.4187340624826845	12.500892607598436	8.282855966636626	2.6757852963601363	4.373202789709457	8.546186425566509	6.346653922269696	3.653680076911209	2.4902014669489296	2.9347298071199384
480	7.423129062984475	8.385987260626734	8.094984987801874	7.339583378380954	8.117171267042734	9.57748124565561	8.728586174861853	6.234089835639831	2.4961793359676503	9.475451445498171	10.948898287786376	10.151064847112725	5.951057419057055	5.0060186259718575	9.224428153590441	11.477555245985338	10.533607456315353	4.44771431753647	-0.9849843954013371	8.8571452870861	12.90260979255832	10.923134776193708	3.101693622387482	-0.34107142600731616	4.3069724927880495	12.474235503173551	8.182563761079294	2.5743172103736427	4.110794057004055	8.412339189271139	6.3951606589026	3.4698500545634454	2.282452339131771	3.634715071084457
484	7.177669983861768	8.581906296997321	8.535979249383782	7.425685863820305	8.32877729220428	9.681241011018642	8.722412087353026	6.143918498739806	2.367712253314704	9.591361975295857	11.022730799501822	10.067426656100746	5.723581776473417	4.469746578375619	9.38837811960717	11.491003007487029	10.313549015708839	4.413835037531675	-1.056468364909273	8.797906853397771	12.897360769134071	10.70144650618457	2.8705370353703885	-0.5574275837176002	4.00102185192842	12.304411857056905	8.026405314207931	2.4340746341286	3.650758257231696	8.122065523622174	6.363477214005786	3.0125212593313706	1.946445340964299	4.104487408765584
488	6.732440454651392	8.561436631521657	8.825166679989104	7.2270636376066895	8.127081850513806	9.501082396361195	8.537316300772009	5.971451267424755	2.2893543185607563	9.188070274043563	10.820959063866228	9.784199689957916	5.43347214280646	3.87432073568642	9.105128265280804	11.243951769097102	9.914293264153386	4.393616665237751	-1.178102967148867	8.44481752170867	12.639373747385523	10.327839825304105	2.5669665271799214	-0.8461917021367952	3.451482764112992	11.918200462768324	7.711539725861044	2.1791589205082844	2.9763140603261053	7.6162681387297555	6.081337436580913	2.315187209959768	1.491171237041734	3.9468438525687466
492	6.351369364915262	8.350928285495522	8.901382423815232	6.792259675996945	7.623150806253883	9.134448982064686	8.260321596271158	5.794183716450194	2.298099512020122	8.4492749954523	10.445548984857993	9.410815215192612	5.193642603159286	3.507906189644975	8.515770890670156	10.840941401767438	9.458158469162438	4.321548927840358	-1.342015143820905	7.887017706985388	12.213223426501001	9.899675344268418	2.2833931388425306	-1.1500911683609474	2.7449932029084256	11.400545091455648	7.28943536825366	1.8690379810828295	2.2049753610253795	7.010691625060936	5.601501450701319	1.5561908444215207	1.0658581229956123	3.19533180383747
496	6.294160827004279	8.080128649338405	8.825133301388114	6.279326899887191	7.134926301108357	8.804022766773445	8.064482668542947	5.729515061217959	2.3845164715645133	7.795698623048466	10.123508427809739	9.15365693642293	5.115507112939079	3.4596702965172472	7.954289893094839	10.501325580786506	9.160295463322672	4.186623562733014	-1.547736402418635	7.343699913557328	11.827692955672614	9.603895163130426	2.1707222406894973	-1.4190535509521462	2.0678346104866168	10.956931086533185	6.946807843789121	1.6738698440252278	1.5432660540717673	6.545331461593523	5.173342214874357	0.9826956366523854	0.888443884990629	2.2877671660836842
500	6.656301004770383	7.905358294555049	8.71841046993149	5.878832802235011	6.990374070638356	8.72096536341869	8.10088250975964	5.862332806091366	2.4837162431951616	7.63119504909246	10.064687703470943	9.188209510493408	5.2436160908871186	3.577527275589804	7.733427505041623	10.41955086938408	9.197345710421512	4.0143074887967325	-1.8025793983725085	7.028901082412422	11.682602852889516	9.603164648605903	2.3409533441568	-1.6302691656914001	1.6064113337966792	10.788448306502021	6.886404496926244	1.7629735425307311	1.182206031675556	6.443423254911119	5.081368910358033	0.7934468368524827	1.113018748334307	1.7900111630069013
504	7.297649841957285	7.9186863699303345	8.673854805981481	5.719004139766225	7.323531609164889	8.95514962796415	8.396825769205327	6.180370315206612	2.5039358075819784	8.09274194581535	10.328286144883057	9.540639853231536	5.519640908610633	3.578516474271999	7.948407629926097	10.637997600399938	9.58594605886666	3.8333365820423366	-2.104121918134258	7.02039526120587	11.83704373232137	9.922767614107576	2.7747666765728787	-1.7854056313260243	1.4459508620948693	10.960574122412659	7.184618931750718	2.1769704763762365	1.1951146095619714	6.767283899387639	5.449920640537148	1.0430835459123047	1.7164000229415919	2.0372669645371815
508	7.9134850302217865	8.102719286488401	8.701901413881862	5.808711037275333	7.992592791405116	9.396817183611743	8.830776192304043	6.564346296903182	2.3846802651279426	8.95971200588232	10.786396953052611	10.059710477226185	5.807950005172762	3.2494382776235935	8.422848680211402	11.018507929639437	10.155425999750639	3.657906284633693	-2.414490455253485	7.2180170830641	12.168312995706186	10.417481396122705	3.302433482415331	-1.8897536945315039	1.5306936463810366	11.353806467000899	7.723274688294795	2.7712347437509854	1.498115535768403	7.3647970967316025	6.143721088156808	1.6110633571003636	2.4782044824974077	2.9200160429664135
512	8.20439145877809	8.355891206625571	8.749947525821105	6.048553451525746	8.660100915024996	9.830070470786927	9.20164582790333	6.8467616862047995	2.148378366768249	9.771532987719388	11.204860658966306	10.501048061561132	5.970535740083317	2.620570891439725	8.819446541453742	11.329919786458179	10.63800236877151	3.4998369128556557	-2.652172558764113	7.412781696677592	12.448135344548042	10.84641358498116	3.6813249495068177	-1.9336043547448882	1.7061463551360592	11.73039624113555	8.245808580560729	3.27813076145313	1.8976410579454281	7.946126917804169	6.835144979385984	2.2567100467925894	3.08025454697164	3.9541540046041233
516	8.050192812621994	8.569860436737205	8.766578652182924	6.299802287408737	8.995904899772874	10.073928807573587	9.353706336247443	6.908874017438362	1.9078652810565162	10.095678303978636	11.393997163615735	10.67503354238407	5.950339302298615	1.9883530089722008	8.854758240278162	11.399723024196982	10.824690791456904	3.4038028631103256	-2.719101660539103	7.426367740954814	12.491334883623544	11.015430422628166	3.730782737849356	-1.8921813917070762	1.818579430757039	11.878766983558801	8.507153489568866	3.455851546145419	2.198505157642057	8.247238138357412	7.196017723988784	2.7344508102043297	3.273004285178231	4.580306518434617
520	7.585301380079912	8.705178238824761	8.761952378085716	6.469062788842968	8.875834442617528	10.098834965957971	9.27800462287656	6.759228689294451	1.820197577649316	9.783476804827904	11.331800432205384	10.56592938616539	5.8109569402847985	1.7559071734918703	8.482043244881286	11.231807680382646	10.691675159163342	3.4661073597181584	-2.551646226162693	7.231704216818606	12.281702964291974	10.899572344917749	3.447008839487447	-1.7452143386647412	1.8109829380088844	11.746543854620171	8.425694444364373	3.2367696680364384	2.3103418291889204	8.18428514321606	7.098311406333858	2.908495657253312	3.0176205558883207	4.509087074339527
524	7.119514447356985	8.804717041674035	8.808005310708701	6.547813398995704	8.447036721837344	10.034235928950658	9.114562011594877	6.531437857350037	1.9987635562023864	9.052842117341525	11.171149225640775	10.336564991602877	5.697357163349931	2.1734595243892514	7.92078779128123	11.003811808460721	10.407742474028153	3.7960667514326984	-2.175965780486439	6.970160943553158	11.983489959978971	10.656826946055524	3.012648813270868	-1.508871193890967	1.7485963062007583	11.468491525305096	8.129778841473794	2.772491924915414	2.282954925495248	7.89492605123422	6.686058981227234	2.801774256308158	2.50880121551342	3.88547109576569
528	6.951514226528704	8.940294243174996	8.974665619125815	6.587977869566906	8.02810094713822	10.065986607886607	9.053838706999652	6.398856146869344	2.4314911304119784	8.352951982389827	11.12880513242493	10.216426823571236	5.739103779608056	3.139631501854076	7.518039684387915	10.94571015455468	10.219193432756146	4.4363679773856735	-1.728678102897165	6.855562192774377	11.83084771030332	10.52234170164409	2.689916365507808	-1.2541006771849574	1.7618937447887064	11.272612543255697	7.869098643462514	2.3427538812616286	2.25348257449544	7.642261962669255	6.275186522852966	2.5572526390361117	2.060641045136127	3.1786355892037204
532	7.185477238633316	9.131174064470416	9.249601340782744	6.640707476062195	7.905991057462387	10.291237805132845	9.198263145111579	6.455646498593637	2.958716861884206	8.094993570870699	11.328082056055104	10.34326073896146	5.954744323954974	4.201214302900033	7.530500392974619	11.177028627786575	10.28321549680349	5.291806684484931	-1.4092037642185917	7.027833444017901	11.966114967652233	10.647052738011354	2.6580793790464408	-1.084610221031764	1.9479162643843524	11.326502771391123	7.846876601434879	2.1823682729934677	2.3457646310709217	7.6450872228244755	6.1479143941154595	2.344139808458447	1.9257711123482835	2.877871982937929
