time	FP1	FPZ	FP2	F7	F3	FZ	F4	F8	FT7	FC3	FCZ	FC4	FT8	T7	C3	CZ	C4	T8	TP7	CP3	CPZ	CP4	TP8	P7	P3	PZ	P4	P8	PO3	POZ	PO4	O1	OZ	O2
-200	1.580032702271482	1.7282108024833058	1.3529553379232275	1.4461164437976375	1.8326951219063978	1.7234777168629314	1.102628109055426	0.9628152226934844	1.5147993526360706	1.6791429477259037	1.207117554477956	0.19545343468909893	0.1161627617525775	0.004106411234352529	1.4746957980116753	0.7135265451536273	-0.6410634501484381	-2.699099533895878	1.5940738876150597	0.6920627934149104	0.2118140900747713	-1.206895705990662	-0.5739756808094567	1.17070388498371	0.32533502496596156	-0.7258907538206834	-1.7865096285537667	-0.9910178755534929	-0.21077963656614496	-1.358948346521683	-1.770013685525957	-0.8496066310412898	-1.466343637578966	-0.9701019501035234
-196	1.9419168184842774	2.095767492725053	1.5348876675954233	1.8850353908629967	1.8666125488837528	2.0983283466767175	1.5194677076123821	1.402721043859898	1.615666623804745	1.787709827677934	1.5515048464704	0.6236565097321813	0.667855141860886	0.15487426480291927	1.4022725785137402	0.8642523862952979	-0.04964482771737126	-0.22453890684180805	1.5349245032658014	0.46192684653005117	0.28689476775214656	-0.6168825610798504	0.1458655145061833	1.1693360775988577	0.23524951875419658	-0.4476452160500565	-1.146074411359675	-0.2426352941824411	0.12607656387445917	-0.8278357365688207	-1.12083637431402	0.00830640734870159	-0.697530446675642	-0.3349950603133527
-192	2.2366537991320445	2.2728784026935407	1.6347151953432608	2.068246597790264	1.822604651617848	2.2979059161343804	1.771801705655415	1.6232716996217258	1.7024806694916275	1.6976027445848147	1.757827754350974	1.072959181937645	1.207394835284751	0.7278591972094208	1.214761969360389	0.9565615629840841	0.5701528773217939	2.003195519158116	1.2650150028715128	0.26233166389990153	0.34689626010096253	-0.06164598821930734	0.8636200406204724	0.965799984877721	0.1827362622177353	-0.16250751871564637	-0.5547668919861891	0.4053590585487866	0.42748826634241827	-0.29064747617773046	-0.5276496397048	0.799553511508238	0.08234743753146496	0.2508925789220686
-188	2.3040933550836025	2.1243672317275526	1.5635658463102493	1.8285957528676755	1.665128584472407	2.206372732313966	1.765326018644787	1.5494106968861487	1.6690767961323607	1.3801149095023002	1.7074073509977434	1.3785420621399382	1.5411132535172052	1.2775853840043263	0.901007053961443	0.9157195068127864	1.0202000115386225	3.1252496163618226	0.776068804688869	0.06918267143187122	0.329736291529709	0.3073944739687003	1.33793842454714	0.540066777296283	0.10137873862420076	0.018050240307177348	-0.16140724677819296	0.779780505118951	0.516293345578351	0.055871378489338035	-0.14805187247566937	1.16030513947316	0.5549826607997312	0.6129180773519142
-184	2.0394296594627517	1.6189742047442701	1.2911590305154663	1.1827335327804864	1.3450069393532074	1.7905129149053538	1.478148695074796	1.2011383741570534	1.4200276100546065	0.8723599888711111	1.353036281030628	1.414138671165666	1.5349765977252037	1.4141342604219638	0.493697969859108	0.7020996791279425	1.1667685479269954	2.839893095475833	0.17485529140194714	-0.13113720681936966	0.21010938233733792	0.4282596398508315	1.4172612392882755	-0.009226934961030591	-0.02790408388185666	0.053872987491966874	-0.012733970736599529	0.815619883862236	0.3514026692578283	0.12781174448645707	-0.04212247569654938	0.951036629659868	0.5650025591890452	0.6332757457003267
-180	1.438349243347277	0.8493016936793888	0.8544039108639251	0.3220678857778144	0.829763827613147	1.1092863054878954	0.9641616320109163	0.6775717718183485	0.919988212646888	0.25849980050625576	0.7344294171864238	1.1391394109575677	1.17382955254784	0.9888440941640226	0.04958324494360287	0.3219384542920114	0.9882603262745664	1.4994159899048292	-0.3666968932430331	-0.3391081682226611	0.000610398534541249	0.34074735555449054	1.1039435835622977	-0.5132702576076206	-0.17834944978030937	-0.02296447375579248	-0.04669394704831357	0.5703188762570742	0.028483230548709392	-0.02309137576948919	-0.15800857504051982	0.3030494443871564	0.18052229239662676	0.2994474761078289
-176	0.6075812562861341	-0.006469779631552129	0.3313544086196636	-0.489937721445979	0.1430167552198195	0.28897893355842325	0.33133059656413594	0.11572322220195232	0.22113802973228378	-0.3616436710763784	-0.03766196956662531	0.6144081934675367	0.5656924829505785	0.14431649410051015	-0.3754183640538382	-0.1752712126121397	0.5782780632677714	-0.10946730496663691	-0.6996694785572959	-0.54677224021194	-0.2598744326229176	0.1597987707395065	0.5549038634595371	-0.8209881761803779	-0.30818512957964966	-0.13799162174194432	-0.1250693943919099	0.19572387586292328	-0.293305634711745	-0.24846854743214072	-0.3532839408538018	-0.4731029260134767	-0.357293157867529	-0.26885059408020495
-172	-0.26322615080178746	-0.755803523539625	-0.19570240328969715	-1.0495313379492481	-0.6141458138218979	-0.5172439800554737	-0.2906543307118623	-0.3552589705557703	-0.5420042858744601	-0.8991738535113595	-0.814459083408166	-0.016490822616307448	-0.10232484314833185	-0.7773376683636439	-0.7386260014005295	-0.7049788814865484	0.10702495994964803	-1.1681977480958112	-0.7731762508898671	-0.7393202763011203	-0.5166658746072567	0.027058582684626686	0.017772031903100324	-0.8757894613088942	-0.3925447752101679	-0.2106915260002282	-0.08804760851087834	-0.11732391238393468	-0.48590957995758344	-0.37621429467583684	-0.4419763971137159	-1.054683205802757	-0.7610846142626807	-0.8328663089705179
-168	-0.9604501103947682	-1.2575688330371022	-0.6589677317194451	-1.2986259427662066	-1.2778292862101315	-1.1668324441060332	-0.7789194564226997	-0.6448206885270136	-1.1915188997703294	-1.2873024907989459	-1.4455611669283117	-0.5719552621706063	-0.6327508075951153	-1.41028141619341	-1.0051957343471956	-1.159952518395559	-0.2405318611747894	-1.2164320915027789	-0.6541532857591578	-0.8913387633707712	-0.7050844413121791	0.0601739323110061	-0.26985606483038244	-0.7391125541146025	-0.434629886245118	-0.18007978751493148	0.18673741770327698	-0.20563484676418525	-0.5110062943908329	-0.2820242338212672	-0.2598981552714783	-1.2503746716401656	-0.8289067724280856	-1.1104316683390076
-164	-1.31497668887971	-1.4519575797615887	-1.0028202508403146	-1.3195347752634656	-1.6677367645119037	-1.5505635699224836	-1.0360656950541685	-0.7104145866577611	-1.5630400141353684	-1.4750539027165817	-1.807251448836787	-0.8860730506460288	-0.8787412621246533	-1.5269204339577016	-1.132169959070867	-1.4262124263994649	-0.325009911431855	-0.3291459969316663	-0.4769366967557505	-0.959455249271334	-0.7526763062547348	0.31867101708064116	-0.17220227376853153	-0.5436665402037595	-0.4463116515335413	-0.010045837585596705	0.7429496031123307	0.015002806633085319	-0.40938326613063697	0.0738476587457616	0.27521201898708697	-1.0460934612565729	-0.5133209215555518	-0.8894857145740276
-160	-1.2600748507157116	-1.3547314371237604	-1.1748405665299675	-1.253984448127939	-1.6571450191620583	-1.6078573424752793	-1.0068340276093557	-0.5562348947786558	-1.5625362356789987	-1.4262022936098786	-1.8268679334292888	-0.8592315294506746	-0.7825170735629695	-1.112186429076765	-1.0679210397460803	-1.411293503059141	-0.09452091133572135	0.9816111897480799	-0.3570412686393442	-0.8881084896553246	-0.5933165535252131	0.7889745811569869	0.2938050918313793	-0.409313260475525	-0.42042198671052444	0.31105610649729737	1.527209278065554	0.5231840001248577	-0.24470680890289614	0.6449414475370236	1.1221127481740176	-0.5571845755814644	0.08850875474518007	-0.13798877562016346
-156	-0.8598378875004437	-1.031892297046822	-1.1248484821530116	-1.2054895132146712	-1.2355793683327936	-1.342329141088789	-0.6968342644264232	-0.23166362882775662	-1.2028734653620843	-1.1350946397733217	-1.506396409046141	-0.49740612381283483	-0.3834162940835416	-0.3441976002109254	-0.7786625007997217	-1.0850088568950154	0.3948596109911429	2.0624883122823414	-0.3257443300606008	-0.6377001984708334	-0.20088952729050166	1.3819727862752584	0.967782018125433	-0.37690836096017155	-0.3249996892353018	0.7611354570245458	2.3927104412703883	1.1931300133145406	-0.05226692171609741	1.317420002472174	2.107654566211887	0.05887792989647538	0.7980005124925361	0.9455684995619793
-152	-0.292331694818574	-0.5785673842127808	-0.8291997888610616	-1.1859122484783324	-0.5318593369407231	-0.8353153446088659	-0.18993785929408888	0.16779765444352387	-0.6086649283300596	-0.649924157409087	-0.9375249123744932	0.07431445252014153	0.19355992923981616	0.49595370763493746	-0.28779855297859397	-0.5143392669089683	0.9849351023602323	2.446992629548866	-0.3234730950771688	-0.22152090016703185	0.3723255982535412	1.9435406874224381	1.60587095808851	-0.3963534821993769	-0.12748603490590427	1.2676765886725931	3.1269595544068216	1.8255331470175589	0.16971526997155745	1.9368784378741342	2.9657432958111682	0.6642432792105507	1.4275861942487797	1.9851263711400762
-148	0.21324379688306655	-0.1047926989532202	-0.32500314630469007	-1.1294424505328313	0.2213806951417129	-0.23996257721397696	0.3571443250699006	0.5116329776244192	0.02222250210098567	-0.08204665014294596	-0.28934377358817226	0.6435357315981899	0.7713971118524583	1.1379202575564098	0.30256554407976916	0.13729687000419644	1.4594773017274665	2.0534708448063292	-0.25175765093183217	0.2750056677073956	0.9841260885187384	2.289634221971915	1.971840853481053	-0.37138840462378153	0.1678343112999682	1.7039501624002098	3.50711726256872	2.2073740903436643	0.42635753643156155	2.3405888021502737	3.421455374662437	1.1525307864654446	1.8313335134045867	2.5791120464058483
-144	0.4612472641743603	0.2773673229367235	0.2715929143724298	-0.9595416164013955	0.77179807229685	0.25372227962331356	0.7519513945668067	0.6637396795681149	0.4872882651900798	0.4155366708277781	0.23682257473281473	0.9783694719408653	1.1683757275646611	1.412022348653614	0.8302490690250385	0.6566212756744966	1.6101437766430908	1.170921084308723	-0.05120619000977205	0.7113335710685879	1.4350327217110581	2.25760769274064	1.919936532895241	-0.2321011269193034	0.49543097490157706	1.9120728921298775	3.3664657984615505	2.1792290155703635	0.6796742660528473	2.3915467201887317	3.2888114369327552	1.428187605113045	1.9205622624545131	2.480189794000574
-140	0.3662244966320584	0.4724065947526463	0.7798311690668822	-0.6569848640067084	0.9448550915704639	0.48132753250668864	0.8311527350421966	0.5314962254456682	0.6525160057759564	0.7012135964809486	0.4788497972319537	0.9165712571844762	1.2420006959075236	1.2903687921370295	1.1355545492112475	0.8646513201817724	1.313755985757792	0.2632832520513381	0.24861936208420288	0.9489294266584437	1.545343156727656	1.7672131016936112	1.4373433553645871	0.014806431680787997	0.7448127846986605	1.7588421061932007	2.655697815865808	1.6901371436362562	0.8361111858238977	2.017028803501242	2.5444683964383836	1.399545189184994	1.663357611271312	1.7098772482617104
-136	-0.011464906827471548	0.43251651416297515	1.014181730570846	-0.27843218971526973	0.7145611625750263	0.3737016906839964	0.5339437709679006	0.11868643730715707	0.5050936328533318	0.7112731915635828	0.38534259698852924	0.4422482837001724	0.9323013401335006	0.8745648242804309	1.1416661710525065	0.7035994511959942	0.5948083385708851	-0.2897066466646487	0.5421103821418924	0.9247636175649461	1.2462811438566164	0.8706485011053516	0.6415657980933368	0.29157367275055684	0.8188829401322264	1.2068132131625011	1.4784887991770257	0.824445305173267	0.7920246700317325	1.2468017308227703	1.3480802740393567	1.0168280575829025	1.091045853721204	0.555130003481244
-132	-0.49359491342855155	0.18252894236256875	0.8596378543130825	0.0775414852330367	0.2102023804841139	-0.006584135798877868	-0.05998602121824552	-0.456791936197938	0.15524390300656063	0.4977259027312474	0.04382750380894763	-0.2953657500439155	0.28751444743998933	0.3457935145707572	0.9011737085478142	0.2732568674341009	-0.36673533823881616	-0.3797768046804227	0.7099430543141335	0.6946284753427893	0.6294479950271601	-0.24463491080031735	-0.26851814917480954	0.4993651496677215	0.695208368930345	0.35562339335300697	0.07332818191611383	-0.21862801854248448	0.5065250383939988	0.22432847264395983	-0.010432810496275596	0.32906240141757986	0.30587351244948435	-0.5647172913598705
-128	-0.8625654556431239	-0.17584308937499335	0.3310013107049057	0.3348440221438732	-0.3414874962291203	-0.48420384404003025	-0.7490721326035562	-0.9936072801299326	-0.2122232312566378	0.209638297028545	-0.35326793700672005	-1.0324538920084778	-0.5390251861314629	-0.10343132141940682	0.578252552479872	-0.20721933193341022	-1.2883719173328059	-0.19582000325354207	0.6947911364179706	0.41760426654284905	-0.07725944350525223	-1.3062525954645414	-1.0809838744527849	0.5822672829232269	0.4526087928311954	-0.574638424853041	-1.2548115221767542	-1.1863589256851517	0.054896965484300404	-0.8212390521296041	-1.2133762805821493	-0.48482265946052605	-0.5208744393549319	-1.289509173952249
-124	-0.9573598479895454	-0.4955368029481086	-0.41328331723773365	0.48518389340927526	-0.7155082803781161	-0.8458750226599031	-1.2862437931011184	-1.2842005458833767	-0.4167883683649011	0.02061230870347593	-0.596854744834792	-1.4979515037863953	-1.3251110281867038	-0.33187800562037106	0.36769339349419455	-0.5019432293616825	-1.8883398723610012	-0.08351565131321018	0.538348077368524	0.2797590189069424	-0.6064062103219988	-2.0498442598087716	-1.630820270235602	0.5605940804632981	0.23838704764260688	-1.3222252097125446	-2.231220478146617	-1.8513444615352161	-0.3832398941377742	-1.6431189733982152	-2.0229470678753376	-1.1564137906441787	-1.1801885336642923	-1.4669877253687829
-120	-0.7424761038154305	-0.6461676342862471	-1.1226332159308823	0.5798826799057185	-0.7835602740531946	-0.9399449801555536	-1.4848686419190968	-1.2093383043273906	-0.36267414597497605	0.03534532701986006	-0.5649175629658101	-1.5339815577878355	-1.8508467627525982	-0.2902375154320004	0.38811740181207466	-0.47864523409160104	-2.001252884580501	-0.3242865196623649	0.35433131366915066	0.39082693954975584	-0.7793081383102987	-2.320395940644249	-1.8399769021309331	0.5102248178951557	0.18470086110689446	-1.6962755875675966	-2.7032740047868278	-2.085124725799409	-0.610526262172406	-2.0676276631604793	-2.3545396268526	-1.4396418296706126	-1.4938900433016544	-1.1957045763344687
-116	-0.3187732986508175	-0.5758330211406133	-1.5512565335208928	0.6764655692187549	-0.5620797858352184	-0.7497717123175186	-1.30178761153569	-0.8017826060079201	-0.08126092681633933	0.22640912177620365	-0.28698503898643096	-1.1686816186008762	-1.9748798558918983	-0.03496685987823366	0.6085690244568581	-0.1820268179350874	-1.6496049124077188	-0.9616203879873335	0.25360765989169987	0.7102093678663175	-0.5986752494955704	-2.1325044578117445	-1.7253340439151295	0.5020197021207362	0.32064294734108917	-1.6662569003951566	-2.685840361489779	-1.896315808276838	-0.527885137655713	-2.0654113240547467	-2.2827713431898036	-1.2402321068922135	-1.3925214970716846	-0.7373892050245627
-112	0.12692293492697165	-0.3410538128348295	-1.5591665466997744	0.7774218301218543	-0.19651830146764512	-0.40289372104013366	-0.8567205049819167	-0.24300868747869378	0.28277712988984666	0.43844655045438446	0.06624355150425608	-0.605612455269529	-1.6864654975273623	0.3000751428180514	0.8508251883960013	0.18120115949658208	-1.0378795835993935	-1.7716975167366105	0.26740053228577026	1.0459591123875884	-0.25477918918180237	-1.6629189210868727	-1.3807637656636869	0.5415360317862868	0.5325621353054953	-1.3809710706176923	-2.3441338479939846	-1.4218022787436684	-0.21206316298349762	-1.7685532525233576	-1.989929790241108	-0.68726312940649	-0.9645131206002694	-0.3696496179307839
-108	0.4108859886285977	-0.08284974822346075	-1.1702952355401617	0.8094558695383516	0.11065939785913498	-0.1055545357184934	-0.37427323962130454	0.21637223606317155	0.537281333043672	0.46606549502958133	0.26941230825115003	-0.1294276562045605	-1.115426775977153	0.5572395906684532	0.8749915339313006	0.3456432512616578	-0.4650531399429496	-2.384511464774365	0.3212866775030381	1.1381410331601005	-0.032638337380736605	-1.171915528199645	-0.9431510543852825	0.5525453076717297	0.6061151608422954	-1.097736236661771	-1.917482252048166	-0.8739128090728792	0.10186723593980473	-1.415683385135765	-1.6824041562519105	-0.091529503233609	-0.4392393816348626	-0.26130413943121283
-104	0.43719214090593106	0.04723042610284059	-0.558811186333278	0.6658989770289413	0.19592311928874317	-0.03165771059149683	-0.07206933927221645	0.37779009246810774	0.534188269220152	0.17114315883819162	0.16567330020560886	0.03375767162859911	-0.47954654572529654	0.61681270443635	0.5095423447142007	0.13173176314950308	-0.18669597757410153	-2.478543990553191	0.2808531515659994	0.7926638106360454	-0.16005800624014135	-0.8822757579462654	-0.5461196885625865	0.4218304146606886	0.34044963035458914	-1.0478895876177	-1.6111665923448542	-0.45784178260603875	0.14136429095339983	-1.2385584084711463	-1.5055233202116753	0.21048968977236712	-0.09097284055629588	-0.4205279339663452
-100	0.23656049311039903	-0.026717998019949698	0.03292319915326989	0.2898673407865574	0.01153233458170347	-0.22466619256040454	-0.05126956464816948	0.19678811679270092	0.24335806010316266	-0.42401340496775336	-0.23891247748613656	-0.1679687346747585	0.009627475378942225	0.4427696753290287	-0.2424907231169034	-0.4449383903237058	-0.2917299859310856	-1.9489479015735203	0.042746927481252465	-0.0016458380227333269	-0.6752440316318121	-0.874264476476166	-0.27527660061953807	0.078981928327945	-0.32440763630024266	-1.306885119953301	-1.5058278999457086	-0.29176300690420787	-0.2408686274169201	-1.3430994715159212	-1.4918198547845423	0.04371924314785736	-0.10412470225032833	-0.7317850571276401
-96	-0.05841956645401959	-0.2590842240468029	0.40196186202606793	-0.25885370308371614	-0.3566373577650435	-0.5703527912998658	-0.2504563027257366	-0.1930323387279188	-0.22822895588473005	-1.1256638736914801	-0.7664548139294506	-0.5877721890868491	0.23849908947334053	0.08873727895267194	-1.1814266413424408	-1.1638587683856967	-0.6632848365249823	-0.9618959998640791	-0.38517144225148886	-1.0385795805458684	-1.3884967530480326	-1.0531905862920603	-0.14223186635823762	-0.4378904391200341	-1.240792628970266	-1.7393200353577845	-1.5287792644049738	-0.3649619510496137	-0.9549363827437415	-1.6448419052557428	-1.5597671230990149	-0.49356093878111534	-0.4685728240103725	-1.0398402187796851
-92	-0.2845536165205696	-0.5018203841891106	0.4687494921770407	-0.8038907030790137	-0.7332146745289684	-0.8533840157897484	-0.48245912668489244	-0.5438078032115204	-0.6832166892921946	-1.6487367111541125	-1.1483035058593574	-0.9518286561776437	0.23371024370791962	-0.3317202023237266	-1.9888296077106216	-1.695141907226831	-1.0339512798907446	0.13152337041073325	-0.8687248804093721	-1.9668252418451566	-1.95896207791695	-1.1976561516087771	-0.08431488254240492	-0.977736291801015	-2.091590876066897	-2.0488438554533874	-1.4926602802737534	-0.5451142178124091	-1.6848727422136955	-1.892809267033555	-1.5496784409498037	-1.065349218539805	-0.9632523631571634	-1.211907741347881
-88	-0.3337666085876334	-0.584793387367075	0.2961169473801232	-1.132337567331552	-0.9399656033625938	-0.8728495218174155	-0.539300380775696	-0.6227837785255835	-0.9275322533077728	-1.7540371373714088	-1.1606388062737703	-0.999959585526187	0.13757790590360286	-0.7007690054366915	-2.3712830483648926	-1.7589122012552796	-1.1194765539515474	0.9688327288008808	-1.2129416435135445	-2.4410829482435963	-2.0559861608095003	-1.0723676654443874	0.0031101643029307377	-1.3440731729905135	-2.5254940922870706	-1.9179245185112828	-1.1895873516566149	-0.6380100830182382	-2.0294687696716163	-1.7817423298673778	-1.2879903283979173	-1.266996499677423	-1.2487207619611138	-1.161916610645239
-84	-0.2122366721040007	-0.41928180946349464	0.03304391345979647	-1.1154721947163573	-0.8908483363547975	-0.5607187733798534	-0.31408858219955627	-0.3403838566292456	-0.8681486823097833	-1.3784669602877109	-0.7492409925617786	-0.6282306893699857	0.11865840822302222	-0.9447596645344194	-2.202713722389732	-1.2726114956196675	-0.7689751963274146	1.3353282179497263	-1.2724711862862204	-2.2842307033087996	-1.5294638833531355	-0.5548098669349636	0.2072935546171294	-1.3986940348597503	-2.3289112985939413	-1.1748621434113218	-0.5018707501138185	-0.4795027959161418	-1.7100018219689763	-1.107340452259471	-0.6611562354561377	-0.8482304194015454	-1.0359648439954632	-0.8419720509252198
-80	-0.042991846691306485	-0.06490766985718102	-0.1805978114813665	-0.7997737506701269	-0.6439908726645457	-0.035653326570378674	0.1283983883000165	0.19318433057171233	-0.5695390686914467	-0.6865712982963288	-0.0741079671299997	0.04604474816022028	0.26340296798006724	-1.0579042407982868	-1.594021554737079	-0.4072398831099254	-0.05069445433334494	1.2271250455391973	-1.0465016338629642	-1.5809634884019446	-0.5004844056844879	0.29017376826457403	0.5395821319308379	-1.148409840545368	-1.5475748738317017	0.09682569628349653	0.5241530524371694	-0.01961632626766466	-0.7374773602939629	0.11011303933476138	0.32606083072355896	0.12558519808533264	-0.24983844097955488	-0.2348021113904809
-76	-0.009809143816500925	0.2798844866838778	-0.2989947192272581	-0.4083254028978342	-0.38040441178600065	0.43925213702881233	0.5708371982467324	0.7118232232241815	-0.2382527881805893	-0.008474623763026505	0.5520933852561837	0.7290087323856567	0.5123385178028441	-1.0945841046354277	-0.850683806178951	0.4787144946886552	0.7680200915019452	0.800789771442403	-0.6968494636108025	-0.6514813883545573	0.6765974742973098	1.2247596948219026	0.9081242061575242	-0.7582032065322236	-0.48826143022287055	1.5666605194591743	1.6767419534311232	0.640628395847321	0.559742210882319	1.6002047021518881	1.528630014374833	1.2781031099475384	0.9036860443187539	0.6242189987635066
-72	-0.2694805257669232	0.36759143974956365	-0.3887811293322953	-0.23811632334672056	-0.32165256061406805	0.5774674997055174	0.7470343094084754	0.9221152639949723	-0.13417898084619004	0.30696403902754155	0.8050854781805199	1.0878524752807803	0.6805732233030801	-1.133734223364403	-0.3373951605384637	0.998814520698298	1.343097444958004	0.25641873414149957	-0.47203308224710433	0.08579502233063342	1.566536303379776	1.939364547601439	1.146544811215055	-0.4766276764756927	0.40820762412005535	2.7861082483521056	2.6562452249220434	1.2832250562694456	1.6706415372630536	2.9363365099204475	2.6930057934480063	2.0921065754521915	2.009373659782776	1.6148568351028711
-68	-0.8697817303632164	0.027462012996480056	-0.5718545899258348	-0.5023391830159257	-0.6204851850102687	0.21089646166960976	0.4786010074452894	0.6491755230725983	-0.44652986413751306	0.05601396397515167	0.5030711280519194	0.9138647890859932	0.5598058090381338	-1.2390419213483435	-0.3118860117667322	0.9166731811267848	1.4187955820502096	-0.27096187999978594	-0.5750275239731524	0.301733701659384	1.8488303376249378	2.1916193906764097	1.09183466158817	-0.5097593652252799	0.7669268827148799	3.3812434587941134	3.196724883591643	1.664806957810011	2.1396324580531476	3.712717285319283	3.536005488051204	2.1667630617749327	2.6288950376894604	2.518670314151833
-64	-1.703968401421465	-0.7296413164790608	-0.9232810712391908	-1.1980799406320604	-1.2667697636092698	-0.6111431702442738	-0.21796643678947036	-0.06731745583704354	-1.1851898401854788	-0.7115870696221775	-0.2941260926450068	0.23538029134450364	0.05500434697688245	-1.4227936231930698	-0.7985596040591176	0.26348617606396363	0.9599805450044132	-0.739913044491915	-1.0395423147658498	-0.08678485431217746	1.4692327939132244	1.9237267922469385	0.6815645677524815	-0.9022296048273444	0.4614293861660117	3.224193326439162	3.1834289947244554	1.6331036049618928	1.793727512599264	3.72902773869302	3.8527436159136266	1.432070132454622	2.5171894963607717	3.0706925314623343
-60	-2.5303430493365955	-1.6868765311566956	-1.3881140912295407	-2.075428480630408	-2.0656473584474613	-1.6209226805770582	-1.114157435465221	-0.9768160556926511	-2.1436433737992466	-1.7003775792106823	-1.2942492929206892	-0.680805085370671	-0.7238044720495225	-1.6261848170231232	-1.569072123380698	-0.6662676317559463	0.1786520029564254	-1.156521794260239	-1.6869122939434704	-0.8713263847286707	0.6688271744054289	1.2948180404397	0.015324736906639855	-1.4932444057910774	-0.3166148654573382	2.4948027070953938	2.705948822819015	1.2094396322232528	0.8370673635329704	3.088252536605988	3.605716219381549	0.20560564048831906	1.755699391700708	3.0692801398033027
-56	-3.052098743362307	-2.5016639169474555	-1.7810456707810018	-2.739032261608778	-2.7065665653559074	-2.4371540484885013	-1.859898800922493	-1.7257145599664148	-2.9651970788478255	-2.4945449766120356	-2.091636175596812	-1.444046612908393	-1.483364101479475	-1.731557603278994	-2.2419097366950687	-1.443421479395567	-0.5600181803869323	-1.5061570367933272	-2.197212213690854	-1.644802446981001	-0.1287217434971066	0.6079547389893538	-0.6679346544568155	-1.9803686091968273	-1.143866297694901	1.5945081670557968	2.0143232294724283	0.5865053519699914	-0.24432697830502395	2.1495096629232293	2.944122545438509	-0.9474215483587229	0.7237920742834405	2.4841260847316025
-52	-3.0283176822498628	-2.848988048989858	-1.871166582151674	-2.8314094471970814	-2.892616741506659	-2.7241060665018098	-2.1360075419856392	-2.012341732666518	-3.2840976632172394	-2.7382728984362568	-2.33884620076002	-1.717327709630534	-1.8736143064878403	-1.605158086538796	-2.452963346010232	-1.694107885851878	-0.9105229950804534	-1.7176520781065827	-2.2582597675528366	-1.9873238751781073	-0.5154030310015889	0.16743899839565468	-1.0904087992794531	-2.0589330144397553	-1.56503879628822	0.9547175740933235	1.40028631333626	0.042978934835164614	-0.9188429094004206	1.357750531583301	2.142195696190597	-1.4819326363341634	-0.07935262451402843	1.5038144550502794
-48	-2.3761048256964687	-2.568533414077821	-1.5184169969369345	-2.2094991151338315	-2.4787933763863017	-2.3385577142800353	-1.803733463501736	-1.7216860012455069	-2.885308735238489	-2.294342988897282	-1.8993272733418667	-1.3777352536702956	-1.6654984908969492	-1.162361857340587	-2.0251631685624916	-1.26987635768712	-0.7207518201750581	-1.6992976622593685	-1.7227283672707072	-1.664357896417407	-0.29507586285478227	0.12724260953725616	-1.0740618678632057	-1.5731283386567116	-1.3140805926524193	0.8252181986001181	1.0524263355386798	-0.19389040719193892	-0.8721058346664305	1.0249354813447817	1.471279736618933	-1.138454792009406	-0.28375053334121597	0.4747198212082165
-44	-1.2216192453059056	-1.7415164665122123	-0.7795948962555891	-1.024121401108495	-1.5495165547350025	-1.3960369790116613	-0.9777066086879918	-0.9772962307097492	-1.8129286720280198	-1.304079648540096	-0.9117912031041374	-0.5796467051176485	-0.8885864593005717	-0.42451223623861917	-1.0559920045894307	-0.3200449637438898	-0.11521846026894632	-1.4150679075753683	-0.6948093754392259	-0.744155643491671	0.4153119315152199	0.40783515469579434	-0.6474227888927584	-0.6045986994737487	-0.4509162891447489	1.144633647889802	0.9558781957334597	-0.07201427203116362	-0.16717913704625126	1.1674576968281485	1.059960601037846	-0.08153555521644858	0.1526438888033777	-0.26385772161623294
-40	0.12799598244299265	-0.6541315896685144	0.08929521567926393	0.34434810193860327	-0.3910611858031317	-0.2215012455354668	0.019741317207443085	-0.08247823992409431	-0.3690232625227431	-0.11969524591743357	0.26783060959906124	0.3142481140308948	0.1581483181298429	0.458227335249795	0.12156481265131885	0.7727108578246359	0.5592041001506454	-0.937559602277665	0.503277002494454	0.4282946277772263	1.2360478608395453	0.7310202103278133	-0.05005606996296078	0.5512809143453016	0.6624473912680023	1.5679907759179128	0.8983622170655021	0.25056421693483	0.7890592197523544	1.4952044449249229	0.8264699557418856	1.1710829705235244	0.9127824879488943	-0.5519349561107707
-36	1.2894880739080519	0.33331096088179835	0.7474604826175434	1.4598686658240736	0.6326287372829235	0.7927964309703358	0.8033323863728122	0.6171391590749605	1.0042233441747848	0.856454608662245	1.2213404147783504	0.9032307840431089	1.0393720839008012	1.2362451522132536	1.0888932915852203	1.5652310808717798	0.9032195187652747	-0.42836868654817273	1.4687347375027389	1.3910267317937812	1.7058618025626198	0.7614428381768763	0.3780445148936891	1.5108213386538045	1.537029262476796	1.643465276383486	0.586808143564686	0.4834870385837712	1.4560799561931363	1.56404721342024	0.5271571265262645	1.9947740981283524	1.4778948984979832	-0.4896570729767627
-32	1.9487339208993169	0.9514322256862434	0.9496895646913451	2.0298240133535805	1.2471368281348516	1.3589212860130233	1.1033358546057022	0.8866413213278826	1.9102861833026015	1.3556944097623203	1.652081723810462	0.9427667832413857	1.3986562455150582	1.6517614084502477	1.5369048079788192	1.757386799190039	0.6723508817863639	-0.04931030782528486	1.9002314758008265	1.7853947832807027	1.5101757011432275	0.29014956877885634	0.37197121883892387	1.9758557031336974	1.7987917616251743	1.0544456216892821	-0.17851458444824267	0.36073923019884013	1.4387346469794215	1.0189634535812342	-0.09420990175064918	1.9591126392492728	1.3970102036490968	-0.3730868091700459
-28	1.9838148305397498	1.1369259328747772	0.6906533223834652	2.0241563269054876	1.3923282588138106	1.4122960531817317	0.8901999570305679	0.7013123017724475	2.166394943489729	1.3561210598085454	1.5117714366891255	0.46731543422968785	1.1375509471783138	1.5577659567603783	1.4092991316499917	1.3302217688354216	-0.0822817606636689	0.13392437960667478	1.7319313244007923	1.5281516274970737	0.6451100690766675	-0.6324326976067521	-0.11078191520616147	1.866860265786814	1.3751004899592962	-0.1949050123539052	-1.3611063922849722	-0.20353533276191765	0.6914905292218666	-0.19689837048409584	-1.1313006849336573	1.0359505388807533	0.5304819928127308	-0.5128609525129814
-24	1.5099630317712058	1.0364850733337494	0.2187281543454543	1.656605716337492	1.2370552985429955	1.120224115404433	0.37948527836356233	0.24371880231359375	1.8688312721752702	1.0698209973981438	1.008629438714747	-0.22600154521625856	0.4601738143269881	1.0047862504386225	0.9214413738828432	0.5504033551624892	-1.0220512125913828	0.1890527750248925	1.1525951594816395	0.8484571554696986	-0.5672262892707111	-1.691626306077565	-0.8564418532682953	1.349591728617755	0.5300984369245696	-1.7497959092784792	-2.6597835950455564	-1.0475939485803603	-0.45732980851103316	-1.779122586526824	-2.413720363244931	-0.3864289214391404	-0.8591451623206131	-1.036312219864337
-20	0.8251817801622523	0.9031402445879236	-0.09492133533831144	1.248148199744847	1.0778787108864059	0.7812021354978995	-0.08242341855220056	-0.19499856184364397	1.3271155323854393	0.818617461045067	0.4967802154396287	-0.7228730302679691	-0.23903979300705536	0.2514502101748569	0.44800922161478085	-0.15868481953611166	-1.674948926511517	0.26296028428443813	0.5086131083044984	0.17334143773660268	-1.6202914673904805	-2.438250535531021	-1.4965906105403195	0.7492561321415132	-0.26576161317484165	-3.0492463034891375	-3.616827955651102	-1.8232477857333507	-1.467993255723605	-3.181001893595329	-3.5412351995705933	-1.6838911729260126	-2.2193808499569045	-1.7853088333831535
-16	0.2747610204435327	0.9416437125273633	0.032688286072932275	1.0498267385680091	1.1693574160616333	0.6648341400527173	-0.1964204455423322	-0.3586966386321893	0.9001327134294402	0.8608458616456954	0.2986268691629555	-0.6985045057781022	-0.5892968758963542	-0.332131146546093	0.33276766454604234	-0.42005640162271757	-1.6643739896714558	0.46599167467721336	0.1350237574744588	-0.08480788000867807	-2.0578010030290392	-2.4967992242717494	-1.6966186719020575	0.38998421928172666	-0.5698106274523577	-3.580911627311606	-3.820436468015458	-2.1614067499903604	-1.8570696068607273	-3.863031854413042	-4.0532293217367945	-2.2911326827377847	-2.972562067156257	-2.3787558018708057
-12	0.09059503651634093	1.183923003068621	0.6199761613451721	1.1169573040418312	1.5715118606944845	0.8685564376836622	0.13202121820496276	-0.15032806954576633	0.8130776265596946	1.250782963455846	0.5416845069560475	-0.08773528017304386	-0.44594645387592446	-0.43552601227473114	0.708717821239224	-0.08761597402624653	-0.9053513980895737	0.7698013167019158	0.1958562577786352	0.2639813714515073	-1.692681427496715	-1.756969209049797	-1.3364077772731726	0.43694576510737404	-0.18859158408710733	-3.125996343349683	-3.1108708303110895	-1.8652921867960222	-1.4347834550872367	-3.5529522806109566	-3.661213865573218	-1.9655370662655234	-2.8017244268252517	-2.4236154495084006
-8	0.287383168210203	1.468269582856086	1.3886145318258114	1.303117152738693	2.1045076793942705	1.2696682182680898	0.7434106450385043	0.3252023450270265	1.0536843511681329	1.8090459062678643	1.09712779244944	0.8740153886662786	0.04167041544526267	0.0376230328325241	1.427965160579305	0.685138104616323	0.33972084436476047	1.0014286015976124	0.6163784846002576	1.0945787402174114	-0.695208368930345	-0.4436386514430152	-0.577234922382191	0.8249466994438517	0.731448350490154	-1.8645609570157637	-1.677598472174383	-1.0217771504353974	-0.38700109622521717	-2.377352946954914	-2.415950769046795	-0.8883287884218583	-1.8044329836110538	-1.7507735446596167
-4	0.6666486246443887	1.5346510371562623	1.9004949283300685	1.3687244619144812	2.4372796950793703	1.596393223546704	1.3081747260444052	0.8195942619611799	1.4001096451695918	2.216255659229932	1.6511925417219477	1.7609244540578162	0.5298098908399403	0.9089805460868502	2.136471742957978	1.5268789491250427	1.576528545213984	0.9484836435212941	1.1382181615702451	2.034434074987449	0.49465682977718883	0.9744862293435528	0.22233596387995508	1.306916233577795	1.7867252781580196	-0.28677025364952513	0.008503215365995015	0.03135525799821862	0.8335108735974917	-0.7969905713940117	-0.7126544695981203	0.4396072316991652	-0.43637838849518956	-0.5352108465033367
0	0.9257240868084318	1.1807553738346752	1.7939149096019649	1.1331630916596072	2.266195291519618	1.5775142868267906	1.4985263309791579	1.0679413053252529	1.5575979908718254	2.1798496191301977	1.869916315126022	2.1633205359199765	0.6834495050340994	1.7933583214304574	2.4529282984791925	2.03591012440694	2.3101010264246358	0.5098320232870777	1.4592051469201093	2.652312272051114	1.3828719819440698	1.9944437691878412	0.6923053843185337	1.5879048068963824	2.5220057900650428	1.0399256918400772	1.3956011498501641	0.863995907509477	1.7373633340840382	0.6130205973406689	0.8708070494600539	1.4432519637862538	0.7153078299582425	0.7621904592344065
4	0.8225077369904452	0.3978127529114061	0.9956621502533761	0.5886815175452467	1.494744416277708	1.0989543171793255	1.1661627263190277	0.9245542264483788	1.3326789107054386	1.5964386422859083	1.5802372654118346	1.8940011215074746	0.37805387282289526	2.2834885062739305	2.1672027056336858	1.9860231826231025	2.2839169444594942	-0.2005247766677196	1.3896716798028788	2.6758656434210906	1.6638027387573708	2.3117010535049465	0.646900831019778	1.4802004061520744	2.6561613015824115	1.738080974005322	2.097165579269375	1.1671290368176868	2.034750456441118	1.4341356718094533	1.8379698945371234	1.742312307727244	1.2214163510956024	1.6223087269831657
8	0.30749827545731456	-0.5980518445174385	-0.21924321298081925	-0.0918668506210248	0.3103381387504681	0.27803280879396053	0.4265450824458738	0.4379924524693096	0.744509993103966	0.6156831368160635	0.8673533775365532	1.0823023291918878	-0.2238136822294957	2.15365218572466	1.3490533794675028	1.440023776233369	1.5971908529010745	-0.8790359474876788	0.941736874586912	2.120920891175341	1.3613957132299814	1.954362149072668	0.1800679708941346	0.9946801637331808	2.207628006129766	1.7825213625726253	2.058388704825041	0.905584929087214	1.7541477635918326	1.5847772319836244	2.003431076713673	1.3093477454506235	1.0074517701462482	1.7392113164859888
12	-0.44839939361849546	-1.459313865791905	-1.3540271486428725	-0.6538036449137882	-0.8882775284274809	-0.5861591085893654	-0.3939870884008013	-0.17039570169343418	0.013614023069937932	-0.42618605386897573	0.035585444330731485	0.10908447178479173	-0.7620944361519157	1.4677013121742322	0.31092870156941166	0.711943743815613	0.644976673881997	-1.1866573065361439	0.3066942982082916	1.2674281565137966	0.7979719618677608	1.2545250622546869	-0.38818296692116205	0.32186287560262705	1.4593750201572901	1.4785182438714704	1.5609403809238116	0.330791025518669	1.192018744320154	1.3230873312923992	1.5682393272859987	0.4491313386544893	0.3615101268700963	1.182251808042628
16	-1.1440373630249745	-1.877476091413088	-1.9374861668307297	-0.9030017233938153	-1.6800191360018897	-1.159920451096751	-0.9206416583659108	-0.6131896361128252	-0.5630906210034122	-1.1689728468945135	-0.5457034097245262	-0.5804818853981326	-0.8825036265026664	0.5376790152326094	-0.5533916340207586	0.2012194091961782	-0.08080913106066315	-0.9415023899149577	-0.25895020300336385	0.5025846349424911	0.4139519919434581	0.6775045377792116	-0.6811556798903546	-0.27907344628446673	0.7933956364627499	1.2797458139534006	1.0721968385328924	-0.14788633547638486	0.7372677903634618	1.0880464287943896	1.0117725108351074	-0.3708832552605855	-0.23085509182341982	0.3724906137121853
20	-1.513041492456793	-1.7444156364267676	-1.7666948989132425	-0.8143095353548021	-1.8324854327666076	-1.2485040394732576	-0.9239122248211239	-0.6801007372851385	-0.7842745165097348	-1.4072132075066985	-0.6369099004877518	-0.6979549509546605	-0.4431796360747588	-0.25619625980543714	-0.9711762046135981	0.1796429301733144	-0.23717969596108485	-0.23686307608883736	-0.578089831800046	0.11350179434968506	0.5279378281615614	0.5881189093046323	-0.46382155897338756	-0.6243518575163755	0.4831417786797814	1.5379916390689097	1.0083320115380687	-0.173730626263681	0.662639556642273	1.259088751475037	0.8445322492257933	-0.7554495911598423	-0.3446197799088036	-0.13316172327753797
24	-1.471104618173025	-1.2117648094100704	-1.0087307666106093	-0.5450406060762973	-1.4226355516755245	-0.9009294487141414	-0.43853390106108225	-0.342318533986803	-0.6606035811911756	-1.191362139554966	-0.25729846889384084	-0.24777002570062032	0.3958724131126093	-0.6768548471528001	-0.925354120779245	0.646936593806553	0.2120480979095687	0.588998495045362	-0.6457162483125027	0.14263385498274914	1.1671717137432382	1.0785018178413146	0.23714365005224794	-0.7004078012902646	0.5577457533106078	2.31931208978639	1.5337343177219314	0.3753111054958357	0.9954066251418692	1.963076944163275	1.3493438925054047	-0.557204185509546	0.1757439072463375	0.06131589397208434
28	-1.1641043395215513	-0.6205316170284315	-0.11186487199435134	-0.3497484913578757	-0.8050633052527194	-0.3929361989114196	0.24965166982562273	0.2293635898998097	-0.4128677834577311	-0.8027170876263493	0.3177463106239304	0.48383360978994266	1.2468380896559914	-0.7508012633441246	-0.653769014615261	1.3280088867990774	0.9972339843367795	1.1236937017680486	-0.6214793308779675	0.3791598370039103	2.053978437959955	1.9361681889287838	1.1490417689876813	-0.6598001105816319	0.8053489307097619	3.376966467914409	2.4928030904775174	1.3257316317465384	1.5256185493098045	3.022297374724169	2.444333070305703	0.08885656274772753	1.1570368975990875	0.9807331537281104
32	-0.8874192215448823	-0.33059820449330746	0.42811718475017796	-0.44494449979977985	-0.43038022409497395	-0.08937503374899726	0.7476839404302421	0.7449821810986845	-0.34824430854612165	-0.6052176937081782	0.6961705667085248	1.0813702317592435	1.693932171359524	-0.7305151801739065	-0.5091804253120382	1.816441531363633	1.6967184500771597	1.0991007061865243	-0.7250885349086768	0.48901748533761513	2.753880493840577	2.7635884215199242	1.8918023061672617	-0.7198821884099807	0.9065030194283714	4.286566723491425	3.5007531554528297	2.29571151153787	1.9329411934687917	4.054706086412021	3.728433599595399	0.8660581090042093	2.2003502790210656	2.2556741180690083
36	-0.9166004038556977	-0.5390278087358263	0.32054051675930123	-0.8956630207336633	-0.6092075094100801	-0.2552519434206448	0.7560764532073624	0.9370341873352964	-0.6808581335043872	-0.850867507693685	0.5751858935139207	1.213368055141191	1.507865782745434	-0.9179046726893799	-0.7568339090312557	1.7902779533962425	1.9579243610540307	0.5333074317818851	-1.0936664315267826	0.21148909574995403	2.9066362307595934	3.1829886356099664	2.165056700008611	-1.0227481100963371	0.6229580625064668	4.668205249444384	4.140966404950338	2.8844587730061377	1.960327262697439	4.668643462791666	4.684319484328015	1.4503474198916915	2.889664642667677	3.30847357868304
40	-1.343832847063386	-1.1844693392412529	-0.3788154115649453	-1.5810670812743026	-1.3484061922361656	-0.9167754030923165	0.21894654576335995	0.6899092776046126	-1.3987632954568046	-1.5427554806859105	-0.09741652732334088	0.790908751875065	0.7602826337692526	-1.4523028098632562	-1.4212198221563939	1.182619687909253	1.6631981092422958	-0.2775617234851676	-1.6841195779242153	-0.4870930003742886	2.4134700237375064	3.0143368168066456	1.886627550130217	-1.5377485713281294	-0.0635534225289809	4.373091686651876	4.161662568075576	2.8644416259924674	1.5404723843781982	4.645297515584984	4.9292249555114465	1.6602393346831155	2.988847248160673	3.650638571105289
44	-2.018509621292303	-1.9846578786333244	-1.311198112038359	-2.2557773533134986	-2.3451940954125723	-1.8476639939389177	-0.6552644355442553	0.08924684651015082	-2.2536649647079923	-2.4257774291782352	-1.09579777440928	-0.010768979760637478	-0.21817780976047144	-2.1992292348649602	-2.264337533955949	0.2128305578818821	0.9548844670982732	-0.9168937183118969	-2.276474708531629	-1.3869869673996837	1.477782722556799	2.334369415111533	1.2131592004664253	-2.0625317044636287	-0.9370166039651321	3.5354277998354995	3.56772517257195	2.2744874896798346	0.8145329335628563	4.016227712027969	4.377896774682958	1.5118348560310064	2.529287093452421	3.1238386552142616
48	-2.6279148989132484	-2.589826100486464	-2.0179765173507778	-2.670524590425542	-3.1502952496146284	-2.6904256275914835	-1.5141613445200055	-0.6302061661067889	-2.885685675011097	-3.118005744691269	-2.038852448084204	-0.8725263454342592	-1.0200870011324137	-2.809444897234226	-2.913373701369414	-0.738321302457207	0.11720114171716853	-1.074177977710935	-2.5835416251757928	-2.1302154010395697	0.4801314461030007	1.3962746823344254	0.43769669422268087	-2.327554935300857	-1.6609317022350785	2.47143792482101	2.570925944513064	1.3723424638432127	0.04525261360902618	3.0109209938324812	3.2438526071665046	1.1653532952450216	1.7588816836772316	1.9667475173885658
52	-2.8738882469097793	-2.766161434819092	-2.1856179182184174	-2.6873443058829545	-3.4091474923845513	-3.1458563725201225	-2.0527908750204484	-1.2108113735146504	-3.013423435232413	-3.3104891693456757	-2.5950930053040993	-1.5169882736052756	-1.3719967569043883	-2.921551935449108	-3.063697807206313	-1.3388485874705622	-0.602642057804647	-0.7109943014313829	-2.406050675993177	-2.4113917289887254	-0.23931112825054907	0.46905493617842103	-0.17165556506687077	-2.1446807330342983	-1.9547839115380337	1.490527864507653	1.4417310916740047	0.48275074240871974	-0.5202884064889798	1.916074509551415	1.8919082832254048	0.8100398758463865	0.9921769474728688	0.6731203777484714
56	-2.6498324804161393	-2.5138533051918266	-1.8089827253445618	-2.3370153844957215	-3.054434768594446	-3.1318240086639495	-2.174335712665237	-1.5045738182228006	-2.590679877416071	-2.9362277910486516	-2.661349289850563	-1.8559768153061744	-1.2677005497397325	-2.388775342632252	-2.6523046426566017	-1.488048311291257	-1.1285819978830263	-0.08258026817453099	-1.751072402347766	-2.1450180953228752	-0.5709044918905138	-0.30923902910358486	-0.5057355748759419	-1.5199803075561564	-1.7410016015919423	0.7262754421970925	0.3542538574334606	-0.17342072681511497	-0.7666507940009772	0.9283199882911356	0.6336456521248689	0.5540637359935491	0.4474708724645287	-0.27500966121858544
60	-2.1157214588154214	-2.066246504335231	-1.1927438944266604	-1.8019127800270236	-2.348239892752905	-2.8297355103574358	-2.037353272062598	-1.5443434676280072	-1.8464728547207336	-2.219243520855689	-2.4218881069071707	-2.0232760855136673	-0.9623376702807497	-1.4031864369251292	-1.909895653671019	-1.3746881450277812	-1.5748733242327504	0.3865291764513995	-0.8502911903848068	-1.5227342805564055	-0.6963745338024312	-0.9853413676179956	-0.6543023569753647	-0.670040546156058	-1.1894082993041617	0.07722028325373366	-0.6880403739723987	-0.5788770899462518	-0.753228304868606	0.07437115888892155	-0.42078590286828177	0.3761634519139718	0.1502065505765373	-0.6583580954142216
64	-1.628278728188796	-1.7748060181630885	-0.7982058504932689	-1.3393710817853441	-1.754441018443387	-2.5951399737640637	-1.9667713592464158	-1.5226434430779971	-1.1823052138042118	-1.5789819915960344	-2.2564587536108505	-2.281398767433381	-0.8248121121562886	-0.4315057087971037	-1.261235710774426	-1.3791167701234115	-2.147469991984165	0.3143095068148585	-0.06417114271413166	-0.9296563244236259	-0.986716625583426	-1.7270699695851852	-0.8350386002438726	0.06954718363607482	-0.6390633566934049	-0.7131886464232488	-1.8071382000119995	-0.8969584084752964	-0.6711580736381304	-0.7671471814814135	-1.3773829902205623	0.15646606644227196	-0.05516017959496398	-0.6267739518553531
68	-1.5593674143521603	-1.9350521515628272	-1.0102360223059665	-1.1814973324509659	-1.70156180429009	-2.772608988437457	-2.27043771170544	-1.6814882712826043	-0.9780858134370953	-1.4330974781093768	-2.538234227447776	-2.8520977425092284	-1.1318474979434463	0.014473755807394677	-1.1213480205834803	-1.863882060113486	-2.9841139241217203	-0.45267215256843163	0.280560194737668	-0.7600125651244571	-1.784724946284408	-2.677881949339462	-1.2500535218149265	0.3972721089823359	-0.4351202238541248	-1.8771392059616678	-3.1095366399458055	-1.3394961323297674	-0.7381564360101744	-1.7551543668302578	-2.4284624992092976	-0.24210406778722163	-0.3970464159954637	-0.590197263658058
72	-2.101090664327214	-2.643156283380993	-1.9405596207261684	-1.453369256164885	-2.3587088525348228	-3.512206307126794	-3.0606779974910365	-2.1734874193629357	-1.4060109818246143	-1.9924156615498343	-3.4282531651726176	-3.7669303322099963	-1.910517926160903	-0.35897245912519105	-1.6883983569432586	-2.963185302882446	-4.031095971420362	-1.7617870524748278	0.03995199863956555	-1.2216930358559512	-3.187508575021162	-3.817112913031173	-1.9466205786194961	0.1836351896656458	-0.7592495064639692	-3.440778962031252	-4.53629730986653	-2.002550596903274	-1.080885645998443	-2.9471733495689905	-3.6564090159607154	-0.8810589291262481	-1.0296405527821824	-0.9509065127206519
76	-3.1630105892431697	-3.751663913791509	-3.365803710069057	-2.1330623572854335	-3.5455942064413017	-4.681352603537166	-4.176507939284432	-2.965681306980758	-2.3443934858259707	-3.150373212489798	-4.772126662603638	-4.823218810301791	-2.9094409869170628	-1.464241024135178	-2.8345513272245495	-4.480200279368513	-5.033364760088606	-3.207879058368169	-0.6828007084773574	-2.222148651234707	-4.943213927186332	-4.910568224906695	-2.756834738446766	-0.47272100925304267	-1.5311971864188276	-5.137529360197931	-5.798909649513213	-2.7632174422117792	-1.654282565708592	-4.203581322547378	-4.890465724041921	-1.6847001271628619	-1.9163076829211876	-1.829010124357108
80	-4.418550957014397	-4.942908751405853	-4.828257548539802	-3.068577281833886	-4.822790610534806	-5.919105991678008	-5.250085817433284	-3.8424019716526274	-3.4382553013778336	-4.52483557512374	-6.1551322781609565	-5.6702566003690364	-3.7157449628476495	-2.8643557953042076	-4.153430451397141	-5.949642166375082	-5.644033894594179	-4.300199974647189	-1.591022725856711	-3.395329943667606	-6.522666437847036	-5.58582829018791	-3.3579733286953943	-1.2978274789468114	-2.4299991069477276	-6.470591528768307	-6.453529818453718	-3.3058204567414964	-2.236989969327729	-5.191470133071997	-5.711666092757164	-2.4456741748097635	-2.807474367682927	-2.937403433059233
84	-5.471677766336708	-5.873858437013195	-5.841911778005717	-4.032794942210749	-5.709326252827768	-6.801868898384793	-5.879919514115812	-4.501387107928303	-4.270176876731047	-5.626570687393396	-7.086130601158312	-5.976171955279048	-3.953184117826787	-3.9777481455510233	-5.136256204988743	-6.834569436937486	-5.591066346357548	-4.653078544312897	-2.333339685270993	-4.252293099157791	-7.333066921793403	-5.49486969514168	-3.4203901204537006	-1.9714961002165425	-3.021714679718316	-6.899020177588973	-6.0852231825733	-3.266229859688743	-2.5031557019931276	-5.491402612173139	-5.617082581643425	-2.8877484725522757	-3.324007502746604	-3.6863415148170278
88	-6.050888046246413	-6.323146327266791	-6.108563407734098	-4.800340640346125	-5.9146928637899805	-7.0375056089104735	-5.8238749357050645	-4.695020186968235	-4.554900157872541	-6.073514446183184	-7.219297867667801	-5.587517247398002	-3.4733114154861027	-4.349632252201828	-5.392844663355811	-6.762283784959346	-4.810424315705188	-4.137243737265646	-2.6568927697812486	-4.386651504885463	-6.9731216254609665	-4.483101356631696	-2.7773435045693025	-2.2661678733830906	-2.936991922592743	-6.064264759011713	-4.515720356030543	-2.4268293319465752	-2.143792385410809	-4.764852034936458	-4.26987599248498	-2.7590224673230783	-3.1106045167589054	-3.47613882140853
92	-6.1249689901206565	-6.275860770592963	-5.64436100488388	-5.223083482906732	-5.463829980406816	-6.593157274766232	-5.1144771446799595	-4.3487806210394275	-4.263288010323879	-5.748851284771434	-6.506035788322373	-4.601456630533318	-2.4406914649377	-3.857989778314932	-4.8140835640479995	-5.686850056595453	-3.477507105630539	-2.923305742512551	-2.503831618663174	-3.643536320070364	-5.409610734633062	-2.6782696179481023	-1.5289589128038734	-2.130420679435658	-2.0239295908373345	-3.954173078090403	-1.9261146735199015	-0.8559944608057407	-0.9944503282235072	-2.911365263264133	-1.7049217181075957	-1.9272319029787506	-1.995444411961804	-2.026521439204204
96	-5.883232101845485	-5.904924377791694	-4.754685866749234	-5.273132310905371	-4.656240451500959	-5.69415853970078	-4.036616792024098	-3.5919995217233094	-3.613521328385891	-4.8304819938772035	-5.204090105269139	-3.3135006344107043	-1.2652018038277673	-2.749734394760469	-3.6017479805610013	-3.9013671776499947	-1.9209387253899641	-1.3914152348674464	-2.009763474158623	-2.1766917650579702	-2.991889707640907	-0.4499585021102714	-0.016469662967465607	-1.6846177535439903	-0.41164675251026767	-0.9269437170467465	1.1786476343914494	1.0899018021722737	0.8822749830858854	-0.14195561373156235	1.6269737440993786	-0.44096204527148924	-0.08499015101194103	0.43864250072358885
100	-5.6059226848210155	-5.470319734113575	-3.8797047040260986	-5.044068323751768	-3.8917531868905764	-4.704941737693918	-2.9863295479717173	-2.6926422051157943	-2.9464700147624163	-3.690364828329209	-3.7505254650791735	-2.077190155506942	-0.4159526516426153	-1.5058550796636576	-2.1648752634703725	-1.905014271694818	-0.4739228177026146	0.02649410248564197	-1.4192098343303527	-0.37907129430432	-0.3070249251720259	1.7353788570458968	1.318917867191598	-1.1437547178001632	1.5357546767561372	2.4109835563823343	4.150465001117763	2.9043586180791867	3.1908359447027026	3.0644521635886854	5.006849753136508	1.4634251557595523	2.2482631149749266	3.254076472649725
104	-5.506837830945204	-5.1919793951556725	-3.3889424715310232	-4.707284915483412	-3.4677920253938366	-3.959169377821441	-2.2876746596752264	-1.9333668898407026	-2.5569610531146063	-2.7228116920391354	-2.5678815776842026	-1.1529827088809907	-0.2049948567936865	-0.614670990345688	-0.9407196617217435	-0.1944714332677425	0.6545990092916628	1.0074412797287942	-0.9671667789836147	1.2759544817180999	2.0521459527656067	3.492297640566341	2.1276450103447653	-0.7144182306372159	3.351485005500106	5.419050679830175	6.44406030935287	4.145496357941831	5.481502042282364	6.11098478681734	7.728506068744234	3.4146354112244555	4.4870734101495	5.607637868074741
108	-5.632734284484767	-5.160716520631332	-3.426612130096805	-4.439822662588133	-3.4546215446989397	-3.6252298263574283	-2.0610661454615915	-1.4945667944367256	-2.5677301818868554	-2.186232322895211	-1.899612302752463	-0.6216683968107177	-0.6443480832997827	-0.3710136106183802	-0.22705827596081346	0.9199776626247894	1.4268522226548686	1.435472127151233	-0.7859289030259436	2.4089779792999955	3.697210779392247	4.642166602812127	2.3005835951895097	-0.5174725042629655	4.62627886557807	7.634314040936392	7.8115963738628205	4.620844829336907	7.286470394811438	8.477817513995959	9.376038527658345	5.004966246366361	6.150056823461857	6.911115628913415
112	-5.868156418289798	-5.323423849016923	-3.874252071135812	-4.355283726186583	-3.704994192305945	-3.665473213478114	-2.2016916219437044	-1.399920340818263	-2.904252760230333	-2.1270689910591103	-1.7454278425017877	-0.39613515038611585	-1.4431061708255013	-0.7895318249795852	-0.09699537580558247	1.3961580956495392	1.9299946974664042	1.3979364598265678	-0.878877816365489	2.8514320778380573	4.545121181456801	5.2346186505717	2.0001196810768924	-0.5685369954060128	5.133427606973423	8.895191170168754	8.356828668476231	4.450902450768167	8.264674165840246	9.882560705029402	9.963294004080941	5.909176334720656	6.956659299452725	7.057277184788289
116	-6.028540596046488	-5.535696969361111	-4.437757480861169	-4.464011181051233	-3.977440585584759	-3.893647660915334	-2.4652812418684147	-1.5379110535893767	-3.367590180477755	-2.4056396423638438	-1.9093835305644018	-0.3064950100789882	-2.1468162482419193	-1.643528814934656	-0.41750517382116015	1.421184178578908	2.2825045528004626	1.099697587097798	-1.1585905522658801	2.6690280370083004	4.784832465489039	5.472347722542293	1.5643818338951643	-0.8102617243336804	4.8780064459666885	9.341285681981928	8.436708429016742	3.987733354037166	8.305356004726793	10.348571751216118	9.879885648578636	5.986528858329071	6.915171128933694	6.444156153621427
120	-5.972406849087382	-5.645319924406605	-4.803004252705123	-4.675853717442651	-4.085475911316024	-4.085487832244949	-2.6033818656042165	-1.738282795332022	-3.75246309286664	-2.793424599270523	-2.119812483203896	-0.2020551855231086	-2.343297475620608	-2.5967385703329033	-0.9442852115632052	1.2887252536661424	2.5559260780653394	0.747799633045459	-1.5151399335754572	2.096849197815706	4.7444553255458155	5.588494286732693	1.337484117945809	-1.1650592059284424	4.06205557751285	9.304239249580343	8.46574208983211	3.634732237222109	7.550874214181725	10.15634438811502	9.673838590993386	5.3267617091159165	6.297070487336288	5.750238880898302
124	-5.660477623953296	-5.55543945817235	-4.772643077244668	-4.8404908058026175	-3.9806251425377783	-4.074326981748225	-2.469386809790178	-1.8508959961890583	-3.9374959369429336	-3.078798524712743	-2.1487142985453547	-0.009450906863789243	-1.8371981335985201	-3.3441636477915395	-1.4323877060011834	1.2650291887769336	2.759496681875714	0.4769872414943924	-1.8699580383772596	1.4286763631989692	4.735976684057213	5.744891152182555	1.5142754278098176	-1.5721784790399693	2.9927947445648915	9.15072820260464	8.724045731452906	3.6627283003838476	6.334313853483713	9.706230139068344	9.782010053732975	4.221895684073404	5.511395440491802	5.577113614306593
128	-5.137868391416557	-5.236124025476347	-4.315307606292396	-4.807683932563913	-3.7253334428191685	-3.7875134849290246	-2.0464065023253855	-1.7845492317920537	-3.905664195690293	-3.1260862271537775	-1.8768436861336175	0.27688428689668326	-0.7185091358164014	-3.704417696183133	-1.7088252262840808	1.5033813677024348	2.8854753898248604	0.349790005992857	-2.1928710882135327	0.9134422517602473	4.947206484701887	5.994569763307549	2.0768470711724807	-1.9950009534057949	1.975791568536081	9.147271133216396	9.258207297792266	4.11085843002025	5.05869673405419	9.356037116270855	10.341635677930407	3.0685560625803996	4.938159930159298	6.152696593963005
132	-4.467528331921259	-4.695487010544937	-3.521504154851122	-4.4820613747922815	-3.3949322614786688	-3.2263109602533957	-1.402859922681874	-1.5022711715916515	-3.6995918657357225	-2.883970968594528	-1.2942180600869058	0.647146342550988	0.6968065482666725	-3.646523466440386	-1.6930439429453237	2.0274748750996237	2.9729459210676414	0.4068215181093032	-2.4801478323307578	0.6942010504361841	5.41246651236633	6.311041339199209	2.8398969101730893	-2.4011864601546278	1.2321695058230921	9.393989539270738	9.909072850958559	4.809325682895461	4.065192212331591	9.301380133986976	11.168489427979033	2.2337908688414214	4.790618884389225	7.2494001205520044
136	-3.675405254621251	-3.9445691009112815	-2.517648213705805	-3.8514306448018294	-2.9895098133903235	-2.4261343417902492	-0.6244459732502382	-0.9980582569672972	-3.3585288439832985	-2.3622782170735404	-0.46400552870902234	1.11753749565261	2.0147666880284376	-3.2564084447660298	-1.3817015851422152	2.7635004450644582	3.1271078507626484	0.7107818704779397	-2.7200028827658316	0.7955817560136575	6.046438201897297	6.641441328446816	3.565634718475665	-2.741833918324727	0.8582276680259019	9.832056020708672	10.427399608988289	5.4916348318685975	3.535445681228887	9.535556769137925	11.887425392655594	1.9298722695263446	5.055911051383001	8.333707788407652
140	-2.7515375544696616	-2.9908053799458907	-1.4017648661508253	-2.9873733445083888	-2.423601382812269	-1.4364205562565044	0.22562110367077895	-0.28677758502081396	-2.8882851527724784	-1.6077427823483104	0.5128271566794791	1.7228109793081574	2.9228246138211387	-2.6794862679541858	-0.8244636634038114	3.586284389978095	3.467294922657665	1.3305480446600984	-2.8750612663159973	1.1479095191583866	6.7049469778531305	6.941245061515568	4.077815045551675	-2.951177112757734	0.8296540954623927	10.303893063279604	10.606051418229619	5.925901398002404	3.4627458961798925	9.894896482280972	12.135932891722996	2.1548623984291244	5.535301671357959	8.856850601723075
144	-1.7053052143911125	-1.8715504360630584	-0.24142718254170006	-2.0250525423420678	-1.6084649522225858	-0.33615836416249695	1.0948044034019613	0.5791639671008314	-2.2846491279140664	-0.7011879068791153	1.5097562036543575	2.4636778769280046	3.284719220451388	-2.072114223970685	-0.11197390379053145	4.352062691191053	4.035082806890032	2.2643599453023278	-2.894484989487782	1.6254596669166166	7.23687122425185	7.174354535109153	4.313300598698586	-2.9707837029792286	1.0343803141227548	10.629032108174039	10.363117191853222	5.9977202264038425	3.689617624504191	10.155057881465435	11.734041184363651	2.711413376638226	5.951098427052558	8.526887872148436
148	-0.6310454591077521	-0.7012485844073435	0.8752438403919979	-1.1330937118532636	-0.5689132795275298	0.7353728395015469	1.8985948514687159	1.4804843626790674	-1.590636606968831	0.22954279126387447	2.3711140095927363	3.249226085088729	3.14608716170411	-1.5665868481184178	0.6224170311472065	4.913827406874784	4.723870742315317	3.3577754412752396	-2.749142163011476	2.0809407181653192	7.512994270429706	7.291330319115574	4.3000960241469635	-2.785465233445892	1.3168895211350125	10.666172000658396	9.74832150859098	5.716964230408582	3.9894957441694348	10.131561253717141	10.745388957550677	3.294169894484534	6.069055541928084	7.426885586107315
152	0.2775420837547637	0.3103288106235843	1.7879761412301178	-0.479269026499923	0.48858904715205137	1.5726176460615655	2.493220084571313	2.22296332751744	-0.9354339218364071	1.009111521080473	2.919846050519943	3.8855004212508453	2.6694433621720464	-1.2476713625878477	1.2114665477683673	5.136456953431839	5.288888441084096	4.290542114869327	-2.4620361265964563	2.376951926905878	7.442213993356212	7.219285469901719	4.094384659920241	-2.4431202349968757	1.5265306195818549	10.351738903612906	8.89308164258619	5.168521868054253	4.163128365496191	9.750128721416006	9.421768164688885	3.6186902431677623	5.790866837186107	5.938382133749702
156	0.790331302077939	0.9035757161215532	2.2754337730178995	-0.1924263830095009	1.223609802017799	1.9532234619417537	2.7040283611692004	2.5834159785849233	-0.5117846714449895	1.4469313584989492	2.9988086147889654	4.136190403985834	2.045326227746204	-1.1384192676412095	1.4902667961641958	4.927372919993661	5.446772084789482	4.681720721822369	-2.112857574850484	2.4172317920690736	6.989312154289718	6.8846831147894765	3.732098569984095	-2.0443572946431816	1.5620332916876538	9.71478459766491	7.946820715867603	4.454266536910796	4.113264550314468	9.066813446041602	8.078974703418467	3.534604302065362	5.181046472819994	4.535123813623155
160	0.7541611771616304	0.8756803848092306	2.1483852809070254	-0.32567253626615006	1.3181699481108446	1.7349926189487272	2.4084155498733146	2.3977217613718715	-0.4908485102181699	1.4052282536314	2.540837043069256	3.8371851347364774	1.4300885164394224	-1.1972442835144192	1.3584665025745353	4.281141747156244	5.023622500133955	4.280774582545354	-1.8076907350676725	2.1779901926364795	6.198577388372313	6.266119941149783	3.2249588884947245	-1.7014387803035842	1.4062865937013598	8.872880913267075	7.0368494809824425	3.6610569861485653	3.875598182430021	8.241982439212967	6.975435716183884	3.0806553286020977	4.42818974330598	3.569134941626618
164	0.19101451289110966	0.19397209535739734	1.3728208507209723	-0.8331775644247492	0.6563615186332212	0.9470313167503637	1.623518582059762	1.6511601167952716	-0.920285997451434	0.870508787818351	1.6262977082200427	2.9989764614682293	0.9173878408158374	-1.337964173753618	0.8373474457580627	3.309140673865682	4.065526475178648	3.1327207009376865	-1.630963917429148	1.7257653431236353	5.204361902448628	5.439080701447085	2.5922698909160853	-1.4888913593848316	1.1367536754518113	8.005569437795693	6.257279857096174	2.859403126173035	3.595623722535082	7.481080990023219	6.241828902697928	2.4588642058280974	3.7618253136071624	3.1486494461672456
168	-0.6822444183290731	-0.9473927593153691	0.14849294684589365	-1.5687895973651758	-0.5757836088902193	-0.17956489279233925	0.5433484302153964	0.5186271058339945	-1.6663156705747566	-0.013755059766313893	0.4904210257069201	1.8377114487980297	0.5446363673764513	-1.4603080712642484	0.08891621954641649	2.2313117924621824	2.8470604347826884	1.6084324080866206	-1.603864784959725	1.2120219438469821	4.214188088267669	4.578916538121964	1.8973013114710662	-1.4104702437075818	0.9070908404336622	7.311542492526458	5.676825032206701	2.1189432090666864	3.467024794408225	6.968722325850492	5.879952892716802	1.9452021072867127	3.363641491980644	3.1549079338528605
172	-1.5350072345125407	-2.1729624216530796	-1.123525855088785	-2.318564409124215	-1.9400271128310893	-1.2756895986773866	-0.5119469152876585	-0.682077584928768	-2.444417947319649	-0.9765869354387129	-0.5414491282144238	0.705721197730707	0.31400740067357713	-1.4856094084424951	-0.6245859249558174	1.3176746335140117	1.7638944342901859	0.26544502310491647	-1.6701443153175928	0.8359631278866494	3.4567332180487105	3.908418168690542	1.2523301808210194	-1.3990447485887232	0.8995650983986773	6.9565014663537585	5.3453097208488725	1.514496561041376	3.6556773093433	6.817146284057891	5.810570225350473	1.7759432747825317	3.3102328693737886	3.3602254305879016
176	-2.0703177399816903	-3.0681986731312287	-1.9947515675726841	-2.8690419124646174	-2.92958735680028	-1.9765645215675767	-1.2217757671026905	-1.6111209351870714	-2.9385425970273045	-1.7091506676437327	-1.1738389700816907	-0.05261284472175861	0.20266242274138596	-1.3839918340072823	-1.0352281305878994	0.7946234325373783	1.1602579325946172	-0.4117377390002876	-1.7220560268793383	0.7792859653824982	3.106962911390902	3.6102039722846473	0.7783566693681513	-1.3526788915814572	1.2573379246438252	7.02428196087257	5.287458406450256	1.1087936134954262	4.235255707538208	7.040331822740008	5.932872280400576	2.0546333737950935	3.5608115106326177	3.5674712567858475
180	-2.154639953895384	-3.3534972583026423	-2.1718027536872575	-3.0794131678081147	-3.1935772815182912	-2.070938820378682	-1.3992067540128137	-2.0423507638865286	-2.9453194067025774	-1.973067755486012	-1.25471365135028	-0.24235647855604694	0.17246006385653423	-1.1795864075442914	-0.9703496074019399	0.7660020570488798	1.1850852936388065	-0.24732948777219765	-1.6464849668894728	1.1448280782405684	3.2302088655932857	3.756523838095645	0.551871179141022	-1.1803657978774067	2.0319006391723122	7.500538330214573	5.499796376647796	0.9325126982033405	5.168799387279626	7.569703083000153	6.177673801083781	2.7297258308156245	3.998777617849003	3.7084722425290977
184	-1.8606798601856578	-3.0014703197993353	-1.6527296262975346	-2.923440687427982	-2.685408108606959	-1.581852789699748	-1.0603104803017942	-1.9420251797282053	-2.463676684835112	-1.6806718068605324	-0.8254519084116924	0.11844317585128168	0.1883971537363409	-0.9243254638223084	-0.4116580773927464	1.1886335581333272	1.7544447139313537	0.5515797124288062	-1.3670676912124873	1.9267708014479323	3.774938335424641	4.298642147655273	0.5806719050051968	-0.8337373116424216	3.169758788689023	8.298439958601676	5.963537677967197	0.9845670436796735	6.3404302436965425	8.302794435519393	6.539933664976292	3.6424012092181277	4.503745544506821	3.8610465429098757
188	-1.4044382536715414	-2.238606685708535	-0.7257040124690736	-2.487399094977245	-1.6624129968632966	-0.7403340917015453	-0.39666694302545924	-1.4566692077098982	-1.68664383462408	-0.9133987999743157	-0.08492500313536601	0.8367472865913347	0.23836836158651697	-0.6666575653410824	0.5116851316884659	1.9106662225167297	2.6279034548214804	1.5272887906614836	-0.8679458477041246	3.0216143054967675	4.613952148232483	5.1147246231644425	0.8199780562679198	-0.314614205758181	4.540589797953837	9.30967423949582	6.666078550674652	1.2508995501407325	7.615900974118866	9.15750215125697	7.078929883250467	4.613826263223035	5.014043795324155	4.189884175212575
192	-1.0168067191201267	-1.4290760719458238	0.1780633921895933	-1.9221812438118149	-0.5393577800484698	0.1352754231852263	0.33397442018111817	-0.8201553800856788	-0.8979022480229317	0.12300060658394642	0.7146036010819993	1.6601457553910544	0.34793963940512146	-0.4369369138176472	1.5902885158442215	2.7527358462452005	3.550494900322361	2.23051452073568	-0.18988077294569936	4.274699677165184	5.612259373800378	6.086408122908443	1.2175637452856272	0.3416054240185107	5.993804916507722	10.45563504440284	7.617939452965038	1.7302550033753614	8.902867294722128	10.108278249015184	7.8914093772013505	5.5279984334613586	5.552799210834046	4.857819068087969
196	-0.8251337388186846	-0.9020934082143764	0.7011960131107843	-1.375944014890028	0.31284201066187106	0.7865771631408841	0.933384535340269	-0.23454056620986682	-0.33084499752437685	1.1796507805604863	1.3809283936921408	2.4014916359351073	0.5694307670521631	-0.2416696840383565	2.623113148742266	3.584254732619328	4.377433765803511	2.457423680776803	0.5914090260832823	5.536435113280146	6.679895860973019	7.152782898963665	1.7500610307377706	1.0889410945102096	7.412975292563333	11.706405610092604	8.842494942274456	2.4405674872768803	10.177608464294243	11.181015940093403	9.05845544435372	6.368536456241547	6.200792296966575	5.943122848764588
200	-0.8098567703780988	-0.8146172741350005	0.7192157488784297	-0.9434236860297968	0.715848503689635	1.1104154558756696	1.3318533863773836	0.20527322538524598	-0.07057087850634639	2.0432047792347143	1.8430230570991335	2.9981930180192795	0.9392473673948637	-0.07438875716024705	3.4804339321002002	4.351167667847365	5.1048583855489715	2.3221313894771476	1.3912399972122491	6.697587473172004	7.776422957813929	8.300316789651625	2.413759463891805	1.8856929493024985	8.737153984898814	13.051589932868216	10.327057812366627	3.3843719873811855	11.462469072012196	12.403141944087908	10.574001285559072	7.1950411614912495	7.028626424209991	7.3797530941608835
204	-0.8566604831047794	-1.1106778355213085	0.36760365870171174	-0.6560562236434525	0.7160316091579227	1.1609094113603673	1.57208776077085	0.5079871999312923	-0.04739028948501487	2.5817992622041177	2.1350007003286358	3.4837751300592936	1.4286634885957301	0.07204323988845132	4.114305008991041	5.046455847396863	5.800419792789429	2.1355080550636827	2.1310632175047144	7.68891714062153	8.868213631174367	9.498709654667966	3.1751320281926687	2.6891424588019985	9.937443708125699	14.439181291364395	11.959453552568954	4.488908279529634	12.762483564579584	13.731757129332111	12.284788100697758	8.064186075831294	8.017241457724719	8.938093162858289
208	-0.8635923244607218	-1.5905929763689655	-0.07448594998388854	-0.5117456900074048	0.49672287577149954	1.069490430039054	1.7286163524853337	0.7200324517190801	-0.11822181165172538	2.752810948097428	2.324202054831417	3.9028291603733543	1.912116522729743	0.20255084284664815	4.524564731618565	5.652521119151608	6.491504175962822	2.167732471715112	2.7411699225836057	8.456740357982278	9.875087713104909	10.634667369695457	3.915000667224338	3.439367285627956	10.972078295662422	15.727274855006803	13.498193706765063	5.564770207660511	14.0041694287542	15.00688549067571	13.88310619663798	8.949801422411248	9.015875793582317	10.263491604641374
212	-0.8283569195814209	-2.039405102349166	-0.36472424772684964	-0.5136931525612343	0.24181573031884868	0.9423723793079027	1.8257411672272996	0.8491212108154645	-0.1774871791888432	2.586042159227097	2.4379348693330876	4.234296311178326	2.19839667718884	0.3222237221211862	4.714327323455134	6.103731139985068	7.091533166147114	2.457286828512744	3.160504333145982	8.941845871283872	10.654125186723967	11.502601594493878	4.426730144768405	4.051225652003084	11.75701901328513	16.694068866542935	14.619450532242267	6.334065898162073	15.022051773291226	15.973839719496592	14.985771141363784	9.716163610722951	9.77698800479546	10.98384568302285
216	-0.8559148290005218	-2.3342575967982166	-0.4298903633231242	-0.6845872980953442	0.040365517037521684	0.802956459879163	1.8136557294831543	0.8382734635169553	-0.22398212495520567	2.163819307586198	2.4416103301392376	4.382157314680745	2.118610853568258	0.44706600791591405	4.673199641826794	6.3044309456917285	7.4222307017806886	2.794399016000851	3.345805398123088	9.089611984192048	11.046880694155206	11.878980606605136	4.492839325051935	4.431673038737859	12.18413922094699	17.118799166373915	15.04086872118073	6.536949618047791	15.614039381659882	16.380107838282875	15.285374602826597	10.166964505275706	10.060481046071896	10.861394854779762
220	-1.0829908820465945	-2.4791665014616537	-0.3807566156310892	-1.0431475613006318	-0.1254288253001592	0.606551884073462	1.614688392377161	0.6090546234966172	-0.3474908164310959	1.6024572808815525	2.27874683758473	4.240044583105951	1.623006578162434	0.6094861611237015	4.397940624577419	6.193942054369124	7.320891838663742	2.875054113758642	3.2895162022508004	8.888431526631134	10.968394251787448	11.64484021107812	4.004826535604117	4.517660129585216	12.18226715826861	16.895734744329676	14.663819276026732	6.066986068666708	15.643268545709622	16.101943929073062	14.702842675281234	10.150300000312898	9.757298444908647	9.916274999377874
224	-1.567038770533964	-2.5582408840439923	-0.40954741732193395	-1.5586879214034364	-0.31579965273280336	0.31102374117526604	1.206859347157441	0.14183858001184135	-0.6457692964462189	1.037001726393358	1.9448400686752612	3.7900142573989073	0.8348920324227399	0.8401126244315013	3.9345965286098	5.81899260005455	6.769371969298139	2.523094409294472	3.0360870284674295	8.412161805848735	10.487264606700913	10.887000056436307	3.058855525876986	4.314743507935666	11.785228699493205	16.11993404133233	13.658121074525349	5.062425600621924	15.131598434391602	15.23547454802094	13.46506115374813	9.659463858058487	8.969803787473051	8.468428590374645
228	-2.211106056352919	-2.64942716883269	-0.6441382749507031	-2.1195015853775327	-0.5493151531655722	-0.051422301550020796	0.6834807378678829	-0.4639640140740411	-1.1292277546028924	0.6007209405037417	1.539604183124592	3.1651234546858333	0.018615186167448193	1.1429693670025853	3.4054667863696744	5.359270559131496	5.957874283053517	1.8271560622814056	2.681663744831623	7.832457045807223	9.839173292114042	9.906882261059303	1.9565187643244861	3.912481536523911	11.160344095663172	15.085898361264796	12.426338164427293	3.884917487826414	14.286964380432789	14.091270411200306	12.04621788798222	8.869270302314277	7.993765810811333	7.0483989537621206
232	-2.7752056051758967	-2.7558658053437433	-1.049281713697559	-2.5459389622305695	-0.757588503832207	-0.3519600620920381	0.24334736106945248	-0.9977840756020226	-1.6744654136343198	0.40327334302174966	1.2569166390156163	2.626691573186967	-0.5317417965815228	1.4804835282140427	2.994793169089875	5.078563200526249	5.233055578371057	1.0995864840402172	2.3534779489225413	7.380978565654371	9.352088904610902	9.112963653444615	1.091045853721204	3.4645326050071685	10.570199939743475	14.185852014965416	11.446106881806925	2.9759018346038797	13.440463032167168	13.080782857294022	10.978192301689468	8.082408884623176	7.200976353584419	6.183345779066287
236	-2.978928558457932	-2.7957496572480514	-1.4341233932526607	-2.654294722531338	-0.8083556274032205	-0.41195979610383765	0.10829190882521439	-1.221167561308938	-2.060742849869146	0.5086635934384957	1.308395501648096	2.458616488925036	-0.6292766912785082	1.7767586663210004	2.889089577056336	5.216114507857188	4.949199187180987	0.6853879076819459	2.168010706196221	7.267570954093774	9.310313201286199	8.842753388013548	0.768517015424183	3.133166305260902	10.272564862064755	13.749176944351607	11.061577769008236	2.6559719972310827	12.912095037285347	12.542224852367129	10.615351650139731	7.5995793150719395	6.873967630197391	6.154027923305346
240	-2.6453390054671573	-2.6537809304946713	-1.5569574793606862	-2.342603200720017	-0.5837204441591821	-0.0967854705989553	0.41002401606035466	-0.9887790654967369	-2.076442474844767	0.9174535847388586	1.8153011753026693	2.8269674706610552	-0.2793967120745899	1.9409313152900491	3.1940622249069595	5.867716297593888	5.295066820127335	0.7539570312537901	2.1835987512771045	7.586029033581493	9.820528005601059	9.203197456012207	1.0584183904628213	3.0218250675201612	10.401065800155848	13.898410762029027	11.328017206201752	2.9692122861283377	12.865704503955207	12.589181868239786	10.971015902476628	7.572416286423479	7.071242791442482	6.850107652535463
244	-1.8032273008595812	-2.25542759325884	-1.256483551667772	-1.6520422655357203	-0.05602074772876804	0.6029180869139049	1.1144392462250077	-0.336849032982088	-1.6331716734660544	1.5674136837486545	2.7330205371519103	3.6855258848599806	0.33458009277747414	1.903379793129914	3.8758454224959253	6.924845201174894	6.193783267595843	1.2010562389567603	2.3743410050527287	8.262073495985973	10.75453660157055	10.018066380956814	1.7566624835485571	3.1325859944408343	10.89582345118942	14.499631845105815	11.994193046804975	3.6595775988689754	13.23458382126118	13.06528660336586	11.71606919191635	7.928957442292098	7.60081718433151	7.804920176827674
248	-0.6915148479168736	-1.6186752278468317	-0.5357917533698511	-0.7647264580492623	0.6851511580334958	1.5504137238458966	2.0266950079293515	0.5138807879825135	-0.8261512497070763	2.351385587477629	3.853044023322536	4.779615866991468	0.9570247506774643	1.6424444872396398	4.759640681647613	8.10810468533955	7.326694946864422	1.7240583853108673	2.6383824281836956	9.07263944242582	11.800783127554519	10.91056534873521	2.4865679678125954	3.3680281554064586	11.521961183068047	15.233208617850881	12.634347883750753	4.299317349069583	13.755086864075455	13.630516971506664	12.349623648934944	8.40799615644519	8.11713216639586	8.419670083722846
252	0.3435659697918353	-0.8531074502386888	0.44728523379884444	0.06837829185149699	1.4718579016717945	2.517433398566577	2.877948753720206	1.2496497599522374	0.09651014184427172	3.1455039898611004	4.886720168173692	5.7526616904930155	1.3968002760907279	1.195820209345041	5.59391354102199	9.083606697036801	8.275217989055813	2.0222773500883324	2.841531269528704	9.735963796830188	12.60264012015893	11.483644456480217	2.8870534823959493	3.579371681713077	11.973584144879469	15.749668081573802	12.86303898424758	4.505116451333194	14.09470840710227	13.936243975739659	12.45677849485581	8.688552834508826	8.29478452495612	8.273566225143968
256	1.0072506640752836	-0.1136682403198001	1.459967609534151	0.6334353073339877	2.1316535419050795	3.282329312620508	3.4436652573425683	1.6048926074516368	0.8387840369028122	3.8345701597674937	5.587188229759673	6.300644858665155	1.607857580893858	0.6588984115177463	6.149485572547772	9.603831266951387	8.707008339833324	1.9809009978826169	2.8774895595380157	10.029600118110311	12.912649122061781	11.501563996840249	2.781880133280993	3.6380286124884447	12.013175934025115	15.828139265152537	12.515877692094294	4.122109879576803	14.010786974819034	13.794749225120336	11.911346405473616	8.553318955760902	7.989665964935455	7.341632824481737
260	1.1908631294701664	0.46308809401895584	2.293368810585533	0.8429915883715288	2.5550661022526917	3.7205226327422034	3.6335637477688825	1.4862945042278137	1.1856913536653526	4.330592144522849	5.849213585390847	6.299195273707877	1.6729863839825974	0.16630786615344675	6.3090085823989215	9.60507676560547	8.513655641041707	1.729227419302028	2.71263312608583	9.880634282915125	12.687946287546094	10.982482882428146	2.2479124012459533	3.490325442084992	11.574680299145882	15.458962401460594	11.707448929792118	3.2857682621967865	13.454622234707102	13.254112210188927	10.920701953018698	7.98803470502136	7.298830490758015	6.009472831812403
264	1.016983864123952	0.8143641332092786	2.8365671563057635	0.7655910234195465	2.7326106956154694	3.8495061300361804	3.517657271087031	1.0188690398241484	1.097239968390624	4.592104423373092	5.745461926259484	5.8487777562293495	1.7191311077583051	-0.1348226514034944	6.11202572233107	9.222898459990788	7.842858294712847	1.5403865536899384	2.397696012165394	9.392112708220788	12.091022460928182	10.16754720028156	1.555663224107301	3.1733193317403363	10.78643510002517	14.82185646129667	10.749640437642482	2.3376738966095374	12.577847449017913	12.55041786839869	9.898832296174843	7.1743798074784735	6.497194750594451	4.8749184485379615
268	0.7707633952708064	0.96734392398744	3.0889997404310057	0.5805520400648562	2.743665449844761	3.8050262831941355	3.276536694837281	0.48760726924811226	0.7209134083666362	4.636769283032052	5.480692372789779	5.216732488812659	1.8182524396766269	-0.12014027654594482	5.732466206382627	8.718778588216692	7.012908441003825	1.645200486797806	2.042130465119995	8.792237259601052	11.39964863760049	9.387825942179365	1.0185875866922296	2.7878115106769066	9.905384038712013	14.178177797760672	9.979349111157104	1.6432193476197636	11.64493557850952	11.9682655032303	9.236843085810072	6.388119204605192	5.888259395991728	4.430217731734698
272	0.7545196990990493	1.018023726754078	3.1262781541094697	0.48543211695181565	2.7124199798766515	3.767817726159172	3.1106688897751003	0.2087954724523877	0.322474747082024	4.54414080426201	5.292097555150701	4.7130350947596655	1.9427190970009285	0.2725593142780557	5.401014791203837	8.359912851207703	6.362708075671546	2.093339437921613	1.7626903012594737	8.333259561480073	10.878716441344917	8.907869316499049	0.8436290004411475	2.4436838565164485	9.198746657988776	13.742573703401481	9.597779249754753	1.4193397724556351	10.90164563287638	11.692541092915695	9.10634133900821	5.8540005536099615	5.651272759474583	4.810839164031777
276	1.136914846410877	1.0856637927301538	3.0520307940674343	0.6036553963679149	2.754040234288172	3.8794650933547064	3.154277316712729	0.38811722299814083	0.16719482796894877	4.434957493075269	5.345198617791292	4.559194076471319	2.0002996871036594	1.0069875691739094	5.306965814543094	8.30984399604847	6.109802707505139	2.7243502071261934	1.6331077772870166	8.187895754168858	10.676791164144769	8.822515465396188	1.0517878505854577	2.209758991384396	8.833257652869067	13.599801029201402	9.600619291861841	1.653714295026738	10.470506641655332	11.731220215742844	9.398404097670236	5.642266736090339	5.766417965635286	5.743402466578404
280	1.8753637028075811	1.2636792627854687	2.9633920117900048	0.9373604035553286	2.93791555616585	4.188574780379455	3.432557097351693	1.0298976872190941	0.4072660793512381	4.435154903658267	5.674316391923728	4.808854567784347	1.9256223391552998	1.932865495570118	5.5267844060596385	8.579047181403952	6.278468116167435	3.26502584586732	1.660291548351807	8.390772798334378	10.79237649100138	9.049112297099477	1.5011014900455322	2.0951008743795683	8.824912048947267	13.702055896496942	9.82411572837032	2.1496982520188226	10.325380299248303	11.945102661491905	9.821827863691038	5.663902268414865	6.054286941501505	6.717291338173526
284	2.749529831620116	1.588669176859052	2.9383406564913153	1.3855147326774486	3.2756471551208994	4.647838103957476	3.8743376634054933	1.940782303678487	1.0244461272124112	4.631602275598809	6.189957603085238	5.353327737643815	1.7570259526714798	2.8191869187702987	6.006631836031001	9.050600029029315	6.727604849042263	3.486328831453603	1.795621509786865	8.84629533441574	11.114232988907032	9.407758689016248	1.9842969129054762	2.0668513722688844	9.064801193239065	13.9333581572655	10.067615483614917	2.657165520635052	10.34552380810858	12.155538528270176	10.093721364286312	5.755252823604149	6.2973046143803755	7.276702385650309
288	3.478812685766403	2.029826397539366	3.033616535157017	1.8060224010646213	3.7259616757735152	5.150250898709513	4.358584392987331	2.8155529427968076	1.8479748917652812	5.029650198635583	6.736263734976212	5.991927131783459	1.6368981558480034	3.4289567383977704	6.597184641394247	9.553115820607264	7.24341486055735	3.3064293777909843	1.973792547964651	9.386506056928791	11.497757882653081	9.727830862280408	2.3307013452813163	2.09022855230935	9.392894721158267	14.18858619922365	10.207865689254472	3.0006182117997775	10.404778454260244	12.254971473270597	10.099184964431208	5.79550646272371	6.365041239880743	7.257800083909703
292	3.863647451182728	2.500553601627383	3.2766795075658024	2.0875120110259253	4.211997498368414	5.582022176000743	4.768913733839777	3.3697416697301352	2.632252209693313	5.54551743060951	7.166412335422173	6.527009947510142	1.7278739170318858	3.6124770550120626	7.125916463026857	9.941154454881467	7.643867950214028	2.793239824872186	2.1516067927397122	9.847972845009306	11.833646744414906	9.922304128390973	2.4649376806967966	2.159424776347293	9.675413107285797	14.41963859732194	10.24318597114772	3.1400692383642017	10.438454601636158	12.253657310065908	9.930129979811644	5.776253208835552	6.269284709360787	6.837133867167828
296	3.875456800212971	2.8891775535118023	3.6492686179532305	2.1944198552994663	4.64059923907707	5.864910587762104	5.032025801351753	3.457998982281965	3.1570420185490105	6.036653026598516	7.398603420651376	6.841096860779649	2.1000194496540154	3.3751492415090847	7.466940384132407	10.14584538759221	7.850538710800633	2.095625633670846	2.321957820752	10.129481290038312	12.078429191611832	10.003278707043954	2.4076995788820805	2.2963983954625276	9.846041654523459	14.631015740648127	10.258635495034493	3.149157516158028	10.452764484717704	12.244726150115312	9.796338056626487	5.7839555594325605	6.128968223356409	6.384250624750457
300	3.650197496735065	3.1048526685526023	4.0857062236628545	2.167426580678897	4.928567873909102	5.97624634187554	5.133378492746252	3.1300423066268217	3.309993020283818	6.362353308826739	7.434005718535627	6.927580815944598	2.665791981642325	2.8844189571035286	7.579745273526557	10.181351635976688	7.900093058667464	1.367071267491165	2.498450034509281	10.210328076333216	12.243901221833703	10.044501279266537	2.237498039318512	2.519529336290167	9.900304769315657	14.840985260686853	10.347175572020424	3.140253535925382	10.482621166466055	12.31938931215825	9.873229955541241	5.915024265614095	6.073440059586692	6.2191576800684
304	3.399743071555634	3.1196782510194434	4.491965759380312	2.088211769553822	5.030920969658985	5.945857509859979	5.112011896578274	2.6043887072612204	3.118916742079716	6.447277529651144	7.338498097011624	6.871829492385406	3.210149756909799	2.397823089267734	7.507105808377923	10.117278073516387	7.901968936043098	0.7373064141731788	2.6825880936604656	10.132580731558805	12.365435569061038	10.124779675670299	2.0488834329374184	2.8037486005567134	9.860917066473206	15.044255218669738	10.544574710926335	3.1935501018003425	10.535153362378345	12.493254630017622	10.18689534476396	6.182572826034791	6.1507563435711745	6.425448878278034
308	3.2937033093264105	2.986633293240726	4.783611285529965	2.0334052988212235	4.959137427207165	5.837389931245894	5.042167174006813	2.1744239275392823	2.7245867183560653	6.315278037339147	7.204950791288008	6.801440221780651	3.504531613084892	2.138909811341715	7.337561111998121	10.039054845259292	7.974272707833205	0.3368811002808962	2.8356847691467366	9.963398908255481	12.474570242857766	10.289959881552088	1.9300937603857709	3.060055009745417	9.743468260007042	15.205566367859635	10.819498988491496	3.3337385570280653	10.562400791203595	12.694119421380606	10.609151813424427	6.482021315421579	6.299905761071806	6.8373470133770065
312	3.3786976252128946	2.821765892533929	4.927246558147057	2.0417385049769416	4.779743182512386	5.7234434936978875	5.007539259665529	2.083548063739791	2.3113355578241066	6.0746793593577335	7.114818555034857	6.828976137085885	3.443083754429608	2.1930887643757027	7.154764634188153	10.014533971297764	8.187660196613301	0.3253744832407032	2.8791477607514806	9.7593459836608	12.587049452473686	10.544168445668573	1.95588886244009	3.1563951889455413	9.543552374586486	15.282530746022253	11.110141726099979	3.5498313814183966	10.479242298371558	12.810028043829663	10.949498148929882	6.637432081630767	6.393694384644827	7.179720383636864
316	3.577403536347563	2.7517189910078996	4.953379618536399	2.110363239682221	4.586412895067149	5.6614942407720195	5.072519766398441	2.4255585609231725	2.0292575308110656	5.857724651806126	7.113008004349731	7.010036927644376	3.112006418000483	2.4733092722436534	7.001113397088292	10.077083562204294	8.538868882555198	0.8578283765115597	2.7314939429937772	9.54889581176782	12.705425230373057	10.862673732034834	2.1796576921745054	2.9787626191272967	9.249617553246082	15.257153472526754	11.371998758214733	3.827327957026989	10.213949177703467	12.76155468579775	11.076705904651194	6.501094324864391	6.320670111910494	7.257253151690625
320	3.7591876888732214	2.848881952722426	4.929718958806098	2.211765760559627	4.456865776253599	5.676386342022262	5.257596002656022	3.1107194345137423	1.9388269137069223	5.753075108308134	7.201273423133229	7.329087715718244	2.7459807326605707	2.7791440416741318	6.871697408492917	10.224202130253266	8.959970451621412	1.982835645437852	2.3608827531335823	9.334985709463654	12.825830427212617	11.208802194906061	2.613434308129496	2.499655955679332	8.866681076551771	15.150203666583398	11.599899262705257	4.160871018394957	9.757362341087685	12.54917523076755	10.99148079958072	6.04523323440156	6.052286132790735	7.071403008727234
324	3.832434882978451	3.086410037831343	4.909679400446048	2.314292901871816	4.412166107482178	5.750504956031908	5.525532231685358	3.9077439209505456	1.9998615929656665	5.761763558145817	7.342951756057997	7.707120399089976	2.5957889491347395	2.9223763868935593	6.732278806855169	10.421210262690439	9.347095465902806	3.5399749189646443	1.8227356626267335	9.106816268816582	12.936264959099324	11.537771195845513	3.2027044215404135	1.8136717035279137	8.427927949607758	15.002822838098076	11.807354897252283	4.536229122153079	9.173448539461338	12.241647689429724	10.803711863897567	5.382570729971106	5.650534615555549	6.789112073923593
328	3.7983715438310544	3.343060961865979	4.890156733564186	2.395312541636133	4.403409469931044	5.826727375578234	5.788146958042583	4.544953811614694	2.104990953852889	5.800999149935184	7.474846344195454	8.030058840504859	2.7802865435023016	2.836627953043281	6.5488657786012014	10.607515308301606	9.597732519713368	5.13816975249978	1.2554684845698099	8.852402664722586	13.00855442577472	11.792483299999791	3.8192436598672246	1.114158269930246	7.984492281782013	14.83896442481549	11.984185188553877	4.901148783707332	8.56522939426843	11.918479889342324	10.638879749140388	4.702033984710536	5.220450864962939	6.60050533535559
332	3.734446277726581	3.4592685612124754	4.80979155279785	2.434922212175166	4.3374757657212895	5.825079903200802	5.934459671296226	4.819414603463251	2.1366479342874896	5.752894863862788	7.521968822561589	8.185654619530963	3.213441363804565	2.60725068387753	6.307734950352576	10.705359431894905	9.641738867258512	6.261913283750736	0.825515506567507	8.563522317246372	12.992897954561808	11.902500122536967	4.289377678531935	0.6122529491225449	7.578837852416788	14.636668168307196	12.068376510667974	5.15635012278469	8.019384363908275	11.610481232893385	10.542733165826006	4.164866436933454	4.844999777959202	6.5747151208821295
336	3.7234954739975152	3.318732968534457	4.59389399322331	2.4002404152351415	4.130715359749169	5.671343312249838	5.872873768283991	4.67048453105484	2.0202505537525073	5.529125199663348	7.41553590809642	8.095175722664674	3.646031608912941	2.4028959213624703	6.015976890633873	10.635742160647332	9.453221297238867	6.486137850597953	0.6467854364277843	8.233180025294761	12.826618162195981	11.796412438173464	4.455790985301723	0.43629094848152483	7.219152909172073	14.33194538312684	11.959628074968416	5.185827242156068	7.563271503426548	11.280079813134305	10.448712322557526	3.822384109383221	4.544850337951625	6.612359030241433
340	3.7840587997265653	2.919456236144096	4.223559845751331	2.2451016846240215	3.7681655788652026	5.336375699875335	5.578145966751496	4.193559159181568	1.7568595365036872	5.124649511750224	7.121417027613412	7.744663695809153	3.8093039893295755	2.3518450200783976	5.693667874266228	10.350728962514383	9.057852722187272	5.696904644887939	0.7215314489267518	7.859207133477722	12.46689125728145	11.438659639088911	4.2538461577781375	0.5690795168813886	6.880055410180799	13.86463352517583	11.581452340449585	4.924008357013875	7.167703610443327	10.862689944498172	10.237935040374843	3.6120591072439527	4.294425476675928	6.535244925211519
344	3.851617564967373	2.391873353641276	3.78052400588173	1.93401407707204	3.3314673816492784	4.866085517041707	5.117937075091146	3.591912022105	1.4222867452951795	4.629233825439994	6.6673641036499225	7.201134663520543	3.5769674687674873	2.4479739604179707	5.364571080968699	9.867357229115639	8.531456925786802	4.1863365067645	0.9361478066650795	7.453345279949202	11.928399055882222	10.866802188140134	3.7579934502135166	0.8580021240506414	6.529552443231261	13.234505619967432	10.948005648628474	4.415061939536634	6.789831621193505	10.334702465667638	9.83942792315588	3.429494133873708	4.071550835820176	6.230356677537684
348	3.8263778589916684	1.9497493456251467	3.432782402908375	1.482708450388601	2.9761984273155333	4.384072769540411	4.641533363067632	3.0942544859011374	1.1368713350203008	4.194936264890981	6.154556735712458	6.6046929192683566	3.0460147780761537	2.5485651428727425	5.0566644540910595	9.284571624202753	7.989121893739318	2.555982106431287	1.120354768785451	7.052666646317263	11.302988977505176	10.204156849847331	3.1669607082517515	1.0978783341345568	6.1661357723958705	12.531365362953629	10.19173714925613	3.8227324389264092	6.424987776747216	9.760401701126398	9.30350873505582	3.2206239619004444	3.8998873135332475	5.751911148807898
352	3.660167208013605	1.7985104277025448	3.360384217361182	0.9908825134055498	2.86888097992413	4.060591687440863	4.332833755997902	2.8737764285964627	1.0194665167818684	3.9746773142599485	5.742032990263502	6.136036380534609	2.496936314954387	2.4726126131572777	4.810257422700238	8.767960526263906	7.56594703671447	1.458438273562365	1.1401991815389985	6.723315221977898	10.743752452427856	9.633216833588621	2.7274887492935624	1.1432434291585707	5.840640053308	11.914146393259516	9.525690054685295	3.371861449311575	6.129204257749124	9.279069877085297	8.791912056659978	3.0291342658812237	3.846428384606329	5.297726617789077
356	3.4203920278023285	2.0433781095412837	3.6596283820261957	0.635877130810336	3.111777774583702	4.052193631431792	4.342381943229655	3.0008888168863748	1.1427001924274593	4.0606608288286274	5.598203644923512	5.961837753502494	2.25006293682402	2.1358778422789357	4.681869018178197	8.496858575349252	7.385905247160487	1.310217973262147	0.9718092655441591	6.546236498517508	10.411068890035379	9.3333129647169	2.63101004889933	0.9860827897924848	5.642925725041312	11.542332620089368	9.153425193564628	3.24818038120343	5.992458805213514	9.032490707480799	8.486517884762566	2.96519636359209	3.9718990225646924	5.071211325239635
360	3.275097361878879	2.638660424246226	4.276090134314995	0.61225610816871	3.6862645056161725	4.42959593608197	4.719496715074162	3.432144871629467	1.5021563730461038	4.444514740213005	5.828563198632681	6.168289645834037	2.493343108557819	1.6310292441196568	4.7289280772024505	8.586666085498486	7.5175857354144515	2.118470901862679	0.7122991067068667	6.583157045909644	10.398324940177417	9.402141547306796	2.926122181180367	0.7544987778687858	5.653607354195252	11.491696328713306	9.167650199632229	3.5016634375855413	6.075643047252028	9.073842979410085	8.471981027194289	3.1156706731334434	4.265661228854264	5.128272043631948
364	3.403092137327818	3.4068102750595197	5.013117300728105	1.0398622724981963	4.449194420071795	5.132980810557315	5.381169782403843	4.03841685229177	2.009894604376798	5.01781700774749	6.4176540212725675	6.718533498967509	3.1706800380763456	1.2024759023824363	4.979703413788542	9.028497673128086	7.941852549528828	3.5046870619980734	0.5233103023668179	6.840654355897954	10.680768939708456	9.806059812583387	3.4916121871531547	0.6344515665248422	5.890151962667859	11.707485169416051	9.498251890997247	4.009932507881265	6.354737265755147	9.32071492702898	8.672780968703918	3.458639374583815	4.616107929019276	5.320729242242719
368	3.878324498875164	4.113057602988331	5.61613319886384	1.8827922296671828	5.1858639586171575	5.978884681865217	6.134217723617813	4.651345718084362	2.5175514157629344	5.613862977159366	7.216160756011902	7.4541106035861855	3.999658812915138	1.1151519985654323	5.40463255471399	9.679004644752316	8.545210816743287	4.909029948238215	0.536076365547935	7.252456169891213	11.116914721077997	10.38579175234285	4.08729599874429	0.755668459414905	6.279295428634828	12.024876564183563	9.940636609728966	4.527703273785933	6.7121014425567465	9.587129568690333	8.887120224449385	3.8487512968166504	4.848120677151762	5.379677758939592
372	4.603189456761853	4.561778057025098	5.892483219528428	2.931303732146899	5.6975560044444	6.72577951640527	6.747883779655126	5.114442812404656	2.8681862281863824	6.074640258710859	7.991180876583241	8.150941828175734	4.610236633105145	1.4931290111990838	5.911675438260489	10.316102001847412	9.153336501853426	5.859287247169612	0.7746666054240682	7.697746734257684	11.511115998769258	10.922161074719115	4.461185920896012	1.1110404701792065	6.680292112650485	12.253046004830635	10.255926106308424	4.803480613024965	6.989683133597864	9.684815382347509	8.905781723425708	4.092040528456432	4.816526877640464	5.098855005742351
376	5.3436603411228125	4.674767482399007	5.8079604955902155	3.8746392629072957	5.887052521147363	7.177926045415076	7.053765279126989	5.333601938133071	2.9637591764008944	6.31891010596401	8.527914025710297	8.615301110450604	4.735564696753565	2.2356600704968583	6.380780203921817	10.743563624913683	9.600753759940114	6.153704627712901	1.1455774278327926	8.055752733872605	11.713380784025189	11.236744852306217	4.467255104230298	1.55972659194067	6.955595952592617	12.282198874935252	10.294839833016818	4.70676087144787	7.080633145575268	9.539517378563959	8.647723176103609	4.07176779672661	4.503450382306639	4.4981627350726745
380	5.85265015078134	4.514826286361169	5.503617749623988	4.436379421477441	5.800405010837562	7.277451973661112	7.024729710962993	5.306925283384749	2.8182661462201333	6.3792080718151905	8.733741738203328	8.773055054449287	4.3560495266607235	3.0592544001588156	6.722873193933359	10.891338320890686	9.804435705226648	5.877695068778411	1.4984137974101062	8.267881372558223	11.702741593378223	11.275597543858513	4.133527268463993	1.9116257380859014	7.048201066341965	12.150929420310622	10.076271031688767	4.296921719192819	7.000279885737857	9.247977233426004	8.224690416551548	3.8359444044539655	4.051687707208216	3.8505155942975478
384	6.0108589974278	4.254267681824925	5.23026465049114	4.510752189691768	5.608670220519644	7.139231186961746	6.79640625191421	5.130873667160535	2.5710792476590396	6.390969260292576	8.691087700835434	8.709474541609323	3.721101274632222	3.6536662486336557	6.932446462294618	10.858042689566059	9.806445097006243	5.285843358999499	1.7198414759129446	8.37434003622987	11.607690781850625	11.13490674068589	3.6527717021271253	2.0435714670084466	7.0217013181788905	12.03373429121198	9.779164289580002	3.799599399510327	6.890201074370272	9.036514259411558	7.89117429648295	3.5864310174038723	3.7055330182933544	3.540908804536627
388	5.897317394626086	4.102581490649057	5.229075895458741	4.221663464377945	5.531454072338132	7.002203923666349	6.612044794554971	4.972235667072777	2.439851516285646	6.53299139280754	8.62272737233371	8.630658127928921	3.2291970171461335	3.8567831418891454	7.097983342369842	10.8649196350443	9.756727193994562	4.6291270139168255	1.800492282136323	8.497330644134681	11.644627541706098	11.010909052705498	3.293389550477105	1.9744689414718544	7.031774979957657	12.148648231351537	9.64812562413936	3.495687714334027	6.943300229662235	9.137258506593726	7.903400878025567	3.5666818528724353	3.682614078760765	3.8358607195329117
392	5.742821678921179	4.219198693113417	5.615199074873278	3.860785712984997	5.735038742844638	7.111844044849495	6.707055551761381	4.999702917827403	2.6210203104601963	6.936748963962223	8.777264572871276	8.756381966417651	3.227067939240132	3.7354574109179977	7.352990131887145	11.136942835346277	9.836507772406415	4.03868388109969	1.8315454675208729	8.771174408702082	11.999673813087526	11.096502276061173	3.269156686158404	1.8512697173108565	7.235500317425477	12.630614248811447	9.861432050602765	3.578217258955982	7.283923607555906	9.648318266350786	8.368549325795271	3.9024813076673235	4.045708169259446	4.70743941072228
396	5.788195595432597	4.647937286086131	6.322666152249693	3.73178791057631	6.251155360651676	7.590676288513607	7.186836224530764	5.301731096233556	3.1814434448027105	7.607011775838087	9.291500068093951	9.196185088781377	3.827636947504725	3.53275178971042	7.788397292500494	11.77174946673915	10.155262921442946	3.5223266989469457	1.9326374481997832	9.253349280836758	12.714707342471204	11.473878831504873	3.629214754478471	1.8526560021355425	7.6865644260888955	13.43877026025982	10.427491161722433	4.046299924171282	7.873521784930839	10.456946346584589	9.165637946829692	4.50175141151625	4.649798858347056	5.812776074038751
400	6.1342906797028345	5.296007143000938	7.131988030546928	3.9794106382989014	6.954865914905251	8.363002755985057	7.959189394883006	5.829820618215688	3.996975888651282	8.398676851048798	10.10294434857699	9.878991102072105	4.835233676146701	3.5108029753737453	8.378046968288382	12.668132749998462	10.682542773932493	3.049614421774341	2.1551961844390237	9.86660668743052	13.641159023176572	12.062285392824466	4.224067200486378	2.0656614251435927	8.276309946145341	14.351448022848109	11.16686436694798	4.692995536399616	8.499628999231417	11.273744554666415	9.989352201036635	5.079009996942357	5.20064161894972	6.656773073555812
404	6.677131635973894	5.968723282049563	7.76609561866764	4.504794109415062	7.6159348295570135	9.180696464247728	8.764062859342594	6.402337534952595	4.7824964402569	9.068227745049262	10.967656107868413	10.57839390944935	5.8320660443879975	3.786003580071387	8.966682411443335	13.561687435242453	11.253397913177256	2.655323975534721	2.4292316375435377	10.414878818919803	14.497125589008627	12.65365978860922	4.773426043856461	2.4159524379768444	8.765510536951245	15.06246562969554	11.796693772096095	5.2031092512371915	8.868577934762314	11.770908325994204	10.503011676973655	5.304045186956474	5.406247602164746	6.858324987262031
408	7.17422149754235	6.451109869881947	8.013756731781369	5.023968207072779	8.004768351371935	9.74633023662335	9.297675109277092	6.786363107713492	5.215578542892721	9.385463690903592	11.583699197133365	11.031016321941841	6.383209212399571	4.257844437339576	9.339739775918936	14.157623255271062	11.65530583299994	2.481552117758121	2.5919971400622814	10.674019786588289	15.005472145342363	13.022836652301162	5.009014593829284	2.698445313316475	8.899506546439598	15.33239074650672	12.075713127165564	5.3138975962943915	8.757879235090629	11.751060456171269	10.514631244815412	4.9933924548916755	5.136612402345021	6.360151274835716
412	7.403599243545258	6.604767782702006	7.828020552898502	5.239131437425541	8.00467679863779	9.872495626319461	9.371661162557091	6.820373517936462	5.101790892117996	9.255312896249281	11.756559342265783	11.086936922691768	6.261348708556849	4.681178557974861	9.343286490692696	14.29104324547376	11.75238701714204	2.7239448955427443	2.4886405405154925	10.514740917361523	15.041328392200077	13.053929295960454	4.820675360906357	2.697291844233694	8.54987428413874	15.115411720260106	11.933435409934448	4.957287775875165	8.145848253664667	11.255229921534449	10.080761884033386	4.23187874679234	4.502766120986345	5.462901578462138
416	7.316510658865233	6.438227637248456	7.352735977682464	5.026028620428173	7.676440696408645	9.59233567677045	9.02406976328819	6.5165219142419435	4.493195522408214	8.783761002298233	11.515266389383779	10.80812737597138	5.5718955852975505	4.828321921555997	8.986128784380076	14.025058710928022	11.57637307105323	3.5158331305429305	2.082059854972796	9.98844239574108	14.706715546670383	12.81283947570733	4.328312862912393	2.322669977045978	7.801965693802907	14.590574227688709	11.512902230759376	4.30830239161892	7.242034893824995	10.547908756328075	9.478526091486502	3.345218411582822	3.8073975943758924	4.661314475688588
420	7.081923466922108	6.113757594885291	6.863431436376335	4.522271144893398	7.234612446639145	9.154258704915062	8.51474855180555	6.077076419745969	3.6880750563012987	8.241161325628614	11.107421846956456	10.448434803332152	4.709038245709698	4.635040271500773	8.45627782593999	13.625147785118852	11.322238893533235	4.8238315460485355	1.4999173841754139	9.319379782989383	14.284452402289716	12.519134489876599	3.8335392378340614	1.6798034863976368	6.931295854234779	14.07562061570759	11.100313158619912	3.709187736683175	6.393684847901687	9.984989141050091	9.062077499398285	2.7324140002882076	3.3907303724511917	4.3826489337896115
424	6.993106824385118	5.8824457973735935	6.6534256767136775	4.0614890949703355	6.950588208769811	8.900917984424314	8.201808908735783	5.802906498563181	3.100919000425937	7.940293768862597	10.873773547375462	10.322312328980171	4.161663998587047	4.2471446883736705	8.03862665054182	13.422334637132371	11.247121782516833	6.423544867510135	0.9914386843445447	8.80477807683013	14.094724619565609	12.431377379502461	3.6668507960246846	1.0344529125799078	6.279806121229974	13.869206393511451	10.978024455010203	3.5020186812675056	5.918903812723441	9.836841558416316	9.082204795795223	2.656089537590283	3.4561026009085793	4.772235381475434
428	7.287355881411986	5.968900665471967	6.908755761823426	3.9848596949105097	7.020988446629177	9.089267707764696	8.356133439901326	5.9344630091563255	3.0590004843727137	8.081356028180522	11.064217539509384	10.62893674074264	4.2644209754089095	3.9280338188180197	7.96787927523216	13.63396736517471	11.523050279134633	7.968628386405806	0.8035030344703733	8.66604325967552	14.324620210721017	12.702417341586706	4.007400502577599	0.6793507320418233	6.086884483228285	14.098012888600275	11.272895784526956	3.8506576917703335	5.94795654702509	10.153395627136137	9.55764672727307	3.10027336291536	3.964719762328912	5.631196007816288
432	7.9851822651481905	6.455168707762324	7.619632701709542	4.430827129621342	7.46888015768708	9.746438955495146	9.009205795430212	6.504678709773554	3.625492086793778	8.643477418057689	11.694702118911216	11.325713129059132	5.022183405594132	3.887664308269308	8.295460680044744	14.2387857077639	12.120797126685527	9.107842422378443	1.0448316309298638	8.92930410038048	14.921714745041136	13.28061386570063	4.7672595857421465	0.7769889811925883	6.365060313367024	14.648964844911891	11.879217117835008	4.641939151488238	6.359313471950869	10.742183658181327	10.265967343160513	3.778646221157467	4.657412517232863	6.536413653083324
436	8.852786041796813	7.224736195443376	8.573146798423245	5.236502634179004	8.12835405204868	10.643123599837681	9.921699498875897	7.2958531195497125	4.552701938578775	9.384204840809113	12.52817436869899	12.130411117444945	6.102955802767787	4.147563447017423	8.850584961480104	14.980050049154107	12.800323454010416	9.594288801765519	1.6209114749038689	9.40698621282191	15.614172896063844	13.91877552333015	5.6133098460572475	1.2715301481568826	6.89290283370183	15.225107154553463	12.501882521536366	5.523949132324121	6.847925645705034	11.269504518666377	10.85598275304782	4.290442932740671	5.189555631886646	7.064314347551283
440	9.520399069591233	8.003685931025545	9.43416020872498	6.01538942725645	8.724121071723712	11.405711145214578	10.69911381881253	7.9401907720366856	5.401537881565065	9.953616117142484	13.196349110664356	12.660850492936769	7.010045033876045	4.529228199014017	9.324109053912501	15.500935515368294	13.224257435789205	9.344459510098915	2.278679126708436	9.796390508713758	16.052600820066782	14.29442306724257	6.1306085431764865	1.9189264725874273	7.333713036141137	15.500189742054747	12.804656950093223	6.074769958417563	7.09202478525598	11.43387505505558	11.026921244437531	4.339391220580955	5.31064032167493	7.002914411030278
444	9.684962248191864	8.483475663700911	9.883203481517036	6.367449744360746	9.004374481355494	11.705823868761065	10.992551775835341	8.111815432095318	5.764877304781021	10.065715764381432	13.393292393248176	12.636417357012128	7.336874943329199	4.768046843888353	9.430658316643978	15.535236319419877	13.135182347513123	8.43467805640224	2.735049240836364	9.84184644121618	15.994606931358222	14.17743583914438	6.037521823898569	2.416374438860789	7.414569836016339	15.287032088784326	12.58287903469857	6.011267646871348	6.924314004581997	11.116317720957433	10.676100703941433	3.8890352150956806	4.987733351512408	6.437355502088304
448	9.278077102124424	8.4681529784979	9.753090833835286	6.102776988833913	8.859115578218821	11.425344438316865	10.676984760030509	7.706307868574449	5.476987348079895	9.638873075944947	13.033284154411016	12.030734985494455	6.967536431841035	4.681105601889841	9.06014916993538	15.047102890171338	12.500381438166134	7.054051381421189	2.816951744596865	9.47094533436453	15.4306764213074	13.554029430501044	5.337040410872192	2.5559480125745617	7.0661725819521095	14.629676781911273	11.868557900027447	5.330791936766874	6.411682589555466	10.429459545506525	9.93982407921344	3.1672093788291265	4.407517422038592	5.675487503981318
452	8.502461411943994	7.973020056621769	9.101015067964529	5.349874959789983	8.363891580445703	10.709603282592198	9.911194776307205	6.906981450762232	4.69732664829664	8.830770470258159	12.287556617231296	11.089894266739478	6.120075687215531	4.288499821325899	8.334481218276306	14.244141542711317	11.539837808083949	5.453786836206098	2.5390705998211525	8.829766251205518	14.584343873395357	12.637819258253707	4.321770657118363	2.320750469070478	6.449383242536452	13.77351280549622	10.911544772255684	4.310782421672473	5.805222496634726	9.646092390501915	9.1100740202732	2.5277929242209636	3.862628688596799	5.064084993928281
456	7.714434604241187	7.219687920462226	8.183081606231795	4.481985080847162	7.729196052110412	9.881669019545813	9.046590782213265	6.091431125520273	3.8211290739859995	7.954674700680537	11.48310372314418	10.204794857963398	5.212387071800925	3.7951242827918894	7.5398549843206295	13.460034336439044	10.620250675090741	3.907149066597189	2.076135630134238	8.197976091667822	13.78949352597589	11.762272805080947	3.421898356381289	1.871574158711619	5.8559956402748465	13.033327069755146	10.047671292686267	3.3645369921614887	5.392541871761117	9.051230407750868	8.475984551964453	2.2534651699392096	3.5885298161504045	4.802515971456356
460	7.225169640419089	6.527397139281625	7.339585762566739	3.905987968119896	7.187052231762885	9.268698668920562	8.43706319586155	5.626219258408687	3.266255608895221	7.324627857788831	10.924920054509514	9.709794019979755	4.63126992010038	3.4537813576283067	6.975135785612132	12.976346936842365	10.072957967121937	2.6768734387524087	1.6543086725429377	7.833622912656085	13.316395725961852	11.21376511603611	2.9793038293004908	1.4425308667955818	5.5430216649297765	12.63502022414212	9.528091406607944	2.831391565803694	5.338581071726456	8.802500702568302	8.180266359656871	2.413985484704223	3.6464571860755632	4.856009471077157
464	7.139922124002238	6.154874309259021	6.840058309451704	3.837192287293832	6.878037435332379	9.036169982984203	8.255385378021902	5.6665744638426885	3.2510239995891945	7.110210400749616	10.741047832073356	9.715723966864198	4.532029617311387	3.397560826306627	6.799644453047391	12.881913152595924	10.029984448858853	1.9745397517896688	1.42638480303172	7.833339194547671	13.240296330402032	11.09216019690954	3.072926990380033	1.207791325380796	5.592431531138036	12.612966505630906	9.398804640882116	2.8101785112002693	5.599998459982457	8.86686227467143	8.16060540999948	2.84815668340663	3.9069433113639436	4.998786436811651
468	7.330682736008407	6.181152804981248	6.7722143955910115	4.1960053337969745	6.8016195125516825	9.126327491606675	8.424125650117846	6.080598815824722	3.6914842035552646	7.281216126178464	10.843115779203353	10.075013135268604	4.784269320806623	3.555852404199826	6.972627622166315	13.05422207397485	10.375866863757068	1.909507150597354	1.4079257214285446	8.094980219430303	13.430983509486023	11.282813043718225	3.496049156899032	1.2041025131342498	5.883469566749671	12.82352921109294	9.502451872676096	3.1303996960759926	5.969075187871429	9.07035253142085	8.210601785910848	3.283259383495235	4.147351731319715	4.959860312337176
472	7.546348075887488	6.480606539576762	7.021204930698454	4.676641452426014	6.845057947042841	9.32106301815359	8.687538125038731	6.536855681127862	4.264045227729194	7.652748088588825	11.00927540860562	10.486079189528613	5.079030024102951	3.7118966485720875	7.301776867551114	13.258366551303673	10.831276866269377	2.441944116149137	1.498794075042813	8.392939546375782	13.655417407845162	11.544533700406078	3.893381108944572	1.3403942551149752	6.182303413041087	13.054334607543904	9.593562101938252	3.4708914669143316	6.210918887669767	9.222492194733023	8.122182825562795	3.510898581223724	4.200736988905877	4.594395625912473
476	7.589447955997177	6.807172758082095	7.3515591435789895	4.944023596678917	6.8730182474178045	9.389589285985949	8.780587174181246	6.70696829056165	4.5969147566129	8.00280664330804	11.036312075407475	10.674034091702998	5.130233751695842	3.667424669543133	7.571190338092834	13.301567997727805	11.117669077460368	3.3833110247068623	1.5700720508989252	8.521674134673805	13.72914310803744	11.660782784585232	3.978920926538663	1.4801183901610706	6.292153819410469	13.16123196139999	9.498473143438094	3.5565459638446812	6.208789809763766	9.237887359183901	7.825023631366761	3.5072421939038536	4.062389840359907	3.984653224421529
480	7.445361118592407	6.939687234523651	7.548856239333304	4.836895453638843	6.819271547266637	9.23229882770387	8.594097115753163	6.462635500803775	4.480247486247056	8.191985109627284	10.868791552759134	10.54472348411932	4.849980818901216	3.40797494981549	7.670714358990241	13.151542630369766	11.11169240053454	4.451047409263895	1.5588675698023358	8.422520616247386	13.627903903886308	11.568556756375697	3.704462995713048	1.5408693513114	6.176644786498977	13.154907193349551	9.227971053666945	3.319570056163569	6.036566719073099	9.189451194450234	7.445728760040454	3.4378917130456217	3.8992371460696793	3.4215869817177684
484	7.280197125173957	6.798566801072574	7.534367542317883	4.450793255059214	6.721898061947296	8.930577255589666	8.23250482388045	5.947245582824004	3.971430768476519	8.212464311846087	10.622076007727735	10.219348881669328	4.389605511073073	3.1421344200911654	7.641229610224351	12.942716565833525	10.895158740192564	5.36745832995433	1.5033419094276932	8.209572771326044	13.487873043338972	11.38355633722608	3.279041043585841	1.5393265446899291	5.9734883157594565	13.180376019579194	8.971078850030867	2.9326465055810087	5.9061508029594965	9.256619430059459	7.246904354872271	3.536889544140281	3.9464673896332956	3.2753295815743377
488	7.3133954817185565	6.473127348769229	7.393253307749846	4.057336797007186	6.685177309323942	8.67942140295229	7.9353070058747	5.480990396012904	3.343697062633416	8.152188280504129	10.491057369447685	9.93815705651257	4.031405915572411	3.178941718658514	7.617763976891262	12.871858564303439	10.678767177323373	5.958437904573089	1.5000616274154062	8.081728914837296	13.498162235512702	11.309452028331144	3.0294036788749286	1.5578987559086026	5.891472324755589	13.402863468663464	8.97012994408844	2.6934053829855715	6.021071895656409	9.59703443011552	7.4704446603991945	3.936150779323039	4.3502945790129	3.798451175636273
492	7.646097163923	6.1484589421487525	7.299967747377458	3.9128858944330465	6.791829092044175	8.648642518142305	7.912586192180844	5.354407773804418	2.914332382473561	8.106214502849205	10.605563136980852	9.895460103800545	4.003899087333753	3.7080776597816807	7.710918407045474	13.051264729927142	10.649211856658246	6.194459422684468	1.6122218329732934	8.174938181264562	13.754997218689939	11.487668008410978	3.184241525239982	1.656911488164418	6.055066570253198	13.871820414806121	9.350208258863697	2.827646963609779	6.4255723791016965	10.219255421586556	8.171500185362598	4.552673328349355	5.049355017311418	4.963325964794246
496	8.166192987805196	5.988170131823463	7.397504311004494	4.089280594991721	7.034134370210489	8.869575478094756	8.207385042449731	5.648218140646847	2.8630354332164765	8.10342023710919	10.934294673016119	10.118753407680142	4.33969401217565	4.627149093389593	7.914278010413876	13.421644176929036	10.846626254353183	6.159565433209578	1.799338455425674	8.456362702953935	14.178323709930712	11.891091316718603	3.7214617635229135	1.8030475332513924	6.400961859754652	14.45621200726378	10.015524838910007	3.3390316878893356	6.947381478888992	10.940010996854225	9.147087074073793	5.106119142992077	5.771973595351484	6.424167616837177
500	8.595224358792308	6.048104747761009	7.705885390853347	4.4350962526879565	7.3092012220855915	9.217853522869735	8.6698570032572	6.187671168917427	3.1461517731388837	8.095871904913892	11.29897305496893	10.464947674079035	4.863097655415951	5.536800847379564	8.099651316220267	13.781012500301504	11.148439379201529	5.975973591021736	1.9231778334699432	8.729970909965779	14.546386682023904	12.329470603331528	4.3724775203936606	1.8704146099550862	6.696595175048289	14.897234879075109	10.679669353224416	3.994504441666555	7.277077656492867	11.459594697629804	10.008574460509587	5.267076955848638	6.163800224000889	7.634568195141072
504	8.650133111095084	6.26458690969003	8.108675936253636	4.681487548452597	7.477245311932317	9.496789908273888	9.05242822268925	6.65551660764712	3.5468454271412675	8.008265475081366	11.486220330802327	10.723643275842884	5.302312360727939	5.933069690983574	8.098957994993992	13.908956492593221	11.357814760142634	5.7290520523385124	1.8260192824991195	8.751206375915581	14.626771889950835	12.560318915126622	4.778508651112916	1.7139693455337883	6.671870691620722	14.95049663583761	11.015640230977244	4.453025329791127	7.140777093024738	11.517600984104446	10.368109676887004	4.849691855584075	5.978553280041102	8.081292132001483
508	8.225538233016692	6.516712649104743	8.428504922567727	4.6250953557543975	7.448941211967157	9.568331694287108	9.16635320256519	6.790586931250192	3.8230080508031548	7.811921099966737	11.388186426020543	10.759972545160341	5.457885728407663	5.496094689798011	7.824628333363609	13.71081348772239	11.340208024957594	5.4447226386887	1.4386900627052421	8.385722139167441	14.326159441063812	12.440493552269972	4.705797660390732	1.2754484382852345	6.190226062404629	14.537047349466917	10.842839213652294	4.464979160479941	6.470064146872666	11.044778795967153	10.043044064914747	3.9417540927549366	5.229351507335487	7.5264544296974805
512	7.483625393092967	6.7210535833422504	8.546757676480594	4.274322498973998	7.249383908088666	9.450335478764709	9.005046821746864	6.553783400201334	3.8593675992800813	7.567094783751368	11.084480257658909	10.6075830191779	5.3238081797654635	4.31040476664413	7.3480853848902505	13.293189015205014	11.123255701591772	5.1277890075919075	0.8495025613317747	7.714941005301919	13.768137897062523	12.028836219935284	4.193439473055161	0.6520856602417645	5.356603608912399	13.814474070956766	10.24561402595116	4.027162064875117	5.469160066147753	10.22593972485337	9.171693778723583	2.8886561320806234	4.213069428297349	6.14824961063683
516	6.790031892799444	6.8890132730121865	8.48452947381788	3.856785764493509	7.017697316571568	9.31433484586833	8.752309777096878	6.152725681029581	3.7271575833632693	7.404340725324391	10.808176967035706	10.448396656359591	5.083550917188461	2.8649837898399757	6.880855542930244	12.917007413676753	10.888924571201956	4.820306765783997	0.282368540050943	7.016063195634532	13.243072476330081	11.568049401640652	3.538505068428194	0.07424756865829181	4.489167678943041	13.115987744595275	9.545114493112816	3.395517579088885	4.531155097965451	9.428058600464018	8.167797068001342	2.1308536475742135	3.3799664888876695	4.499392974937733
520	6.526031000826823	7.102903824992917	8.38773916034155	3.681533565763005	6.931053144121867	9.379149413270607	8.665846802766836	5.9084739535883966	3.6209010986461894	7.44782207515968	10.810070964223307	10.4906768533964	4.983343588645074	1.8142374708146933	6.661408884396159	12.849862066251065	10.859539004564722	4.6255497815650175	-0.012131021327444874	6.619569284892418	13.051645245978428	11.349386186555515	3.1240627686780513	-0.20614699967312475	3.9614062209249243	12.782261816177598	9.130894637896414	2.9441838190131837	4.042545785234227	9.022518135179316	7.52298877724041	1.9804960439270354	3.1120004575360207	3.273833266575674
524	6.880098802362086	7.43229864151357	8.425542810148448	3.9401464362801137	7.099859696582634	9.767093633787725	8.910522438440594	6.0493006553507636	3.7177204991890975	7.7299923701626	11.20329949411429	10.824169131607146	5.1667713988509085	1.6257899958571278	6.815368158299441	13.205486264266774	11.148722620472787	4.66227864042004	0.10258045021622517	6.723268491936512	13.332014050202204	11.53866669602636	3.193029634043478	-0.05849235490097746	4.000667085083613	12.977716413157268	9.245746589205561	2.9520914480062803	4.180448521549875	9.193596816693184	7.558579425801676	2.4512698588471493	3.5227813631761444	2.9884898587115023
528	7.7422289652855145	7.855216006473638	8.672368981400272	4.575156200301868	7.501659851207835	10.414337131909452	9.448278403269413	6.563610537169931	4.053896416919437	8.157875994112816	11.88435742238746	11.348178834873993	5.579586968639948	2.3237023294908816	7.275576096285477	13.867505992209592	11.674138039678466	4.97515581782224	0.5644946084075518	7.273856144660181	13.97287460614034	12.069012611435411	3.7066559697980876	0.44164746888235334	4.560197818686802	13.595929111486567	9.846061681684052	3.4417312058337792	4.818102824444346	9.83789918323054	8.257417657985032	3.243388883031323	4.38859700048602	3.7336430455356155
532	8.756043412036181	8.236649492449088	9.042829490718855	5.2972302303086405	7.982903937212049	11.087863894124975	10.04718777980907	7.201070290504348	4.493226039986261	8.549504258504909	12.576336828904541	11.81555458900404	5.991753086221155	3.4754080684654283	7.808618048980203	14.541444741728764	12.184659927122434	5.457292542984356	1.1324832410830155	7.984455565320924	14.662198983367249	12.661518064956567	4.364381779142128	1.0357712481097214	5.337258802290098	14.306711160778441	10.613349887754648	4.158540238371545	5.590797887038157	10.608632060923298	9.260386443599753	3.8962652584886817	5.252285944075679	5.108739363169788
