time	FP1	FPZ	FP2	F7	F3	FZ	F4	F8	FT7	FC3	FCZ	FC4	FT8	T7	C3	CZ	C4	T8	TP7	CP3	CPZ	CP4	TP8	P7	P3	PZ	P4	P8	PO3	POZ	PO4	O1	OZ	O2
-200	-0.03660885607894108	-0.08506539442519939	-0.074835665335064	-0.25035488542290735	-0.37162914778342154	0.38116440080729047	0.5427883849745008	0.4621784377350129	-0.8690482356064623	-0.23903591870515473	0.7803829292621749	0.6339475496498941	0.3678995957622744	0.17054803626393428	-0.4570666838073365	1.3038536277276784	0.7748628835188179	0.7743897418497855	-0.7276321035133999	-0.42885863672698943	1.25845586935841	1.0893623801384182	0.5273998962438217	-0.9628524159917303	-0.0285755804949751	1.5046485624471602	1.0127762530505908	0.8085568526834742	0.20900699443500032	1.1629171342099125	1.1873252361838105	-0.65666681362299	0.6020356401502331	1.0607739660183975
-196	0.021203167682997452	-0.04251097504492421	0.5264757858335571	-0.5131907450116909	-0.20333626815003164	0.390277742354182	0.6655945761088419	0.6730270964796334	-0.5345202670907127	-0.39444723625730554	0.6031942948370966	0.5486064539409822	0.4542111146903243	0.3688723137602305	-0.7940997461297039	0.9570366716063893	0.5916593059860622	0.10241119537723219	-0.37333258892215665	-0.9228897071425837	0.7498688678882572	0.8016926625991811	0.7393255215098473	-0.7528936247890372	-0.4040517796805509	1.154016491837365	0.8859918691200497	1.052385446752467	0.08770492650776862	1.171181556605734	1.358146664051478	-0.36958348657757256	0.9168434715964782	1.691150064967012
-192	0.07291297596165676	0.14764764867698443	1.1536747188050858	-0.8824119545592334	0.11055386783582659	0.4407286930877828	0.7825374583514313	0.8009706715388396	-0.09353178715933223	-0.5225462900320158	0.41489273204957294	0.4460216153327965	0.5320528732218202	0.30037119908790333	-1.190078493928324	0.5372821079040522	0.3435334554581924	-0.33262091791097587	-0.16856822328923463	-1.4825205765487435	0.12255832521966849	0.3984647979212802	0.78282290499454	-0.6348018034166582	-0.957968530620455	0.5807138070703681	0.5621100649946879	1.028865334774191	-0.2969551674974832	0.8625429846921003	1.103744742467829	-0.1956442142553821	0.9451513862588943	1.72209548515408
-188	0.10938055785696595	0.37012731935513016	1.5081074199747435	-1.2178736894376767	0.3634411385420093	0.4479758728161132	0.7933799604412136	0.7722128610187947	0.2554769211517815	-0.652957020541536	0.1885782177455502	0.28966110871615525	0.579375682798539	0.04411442939230105	-1.616232510300814	0.05975713938288589	0.03932015587892897	-0.4404380608405917	-0.19524854372320083	-2.0412459321937617	-0.5522972331408008	-0.05500010759653351	0.6646714193728914	-0.6611051542756942	-1.6441870886298935	-0.1502434607527213	0.12816914883678915	0.7640569190761908	-0.9396381950496692	0.26269659333661755	0.5264453874647985	-0.23923344849744166	0.6358963235059053	1.2076988189723379
-184	0.1362855281965234	0.5046501742973224	1.4021824562910674	-1.3821660245331324	0.40815293685861204	0.3657889952961066	0.6587628109512247	0.5889954552084861	0.3594955196840969	-0.7846962193704561	-0.05509309829272894	0.10168318424778361	0.5699328169738387	-0.2851218275977788	-1.984047765490944	-0.39646348257103214	-0.2476645403807954	-0.2579158836051879	-0.43550446519569924	-2.4978532728072964	-1.1463776797915266	-0.4358341980897642	0.4590856123300712	-0.8208651521938721	-2.343001121327533	-0.8978068805915319	-0.25588902766471805	0.38964247605176977	-1.7270561413076322	-0.486363081896212	-0.12106408148240562	-0.5350242243610162	0.06772766990251329	0.4293989826328365
-180	0.14956764839080297	0.47773748515628606	0.8411104061825222	-1.3110543456355237	0.21538774614790202	0.20120303282006752	0.40820538894588193	0.31769680896656943	0.17006163256147275	-0.8920716024764345	-0.2611949139199377	-0.0580754762911806	0.4687471079912557	-0.5883602485107184	-2.187541717728331	-0.7268969398265963	-0.4238323260573829	0.0712092442502791	-0.783218262602337	-2.754391424854302	-1.5319271048969043	-0.6307035072615391	0.24973562296757693	-1.048294422363992	-2.8954029010150055	-1.5055798254147799	-0.450664966160688	0.06061642229154023	-2.4672248301203434	-1.190339085434624	-0.5783548340500483	-1.012175080604904	-0.5837622866197087	-0.27022525599918906
-176	0.12270400642171232	0.2800029211127475	0.004815344220908268	-1.0491348478532032	-0.1391158994500204	-0.007440083641400932	0.10516290340098547	0.037574563080573185	-0.24941265520067687	-0.9505450701556464	-0.3852048804571234	-0.14685158394453537	0.23895680844057632	-0.8257939794671947	-2.1656532232920167	-0.8682950117123374	-0.4463404703792174	0.34927642257244645	-1.0973875494907153	-2.763252728161397	-1.654976959818472	-0.6143203958260043	0.06980591249723037	-1.254679319074976	-3.165092698689207	-1.8789290142304644	-0.43190330157907414	-0.14194501900598028	-2.9612224027256584	-1.6953895049206027	-0.7291452270218477	-1.5128866395900573	-1.1287170620077462	-0.6770165545536675
-172	0.0178697891082206	-0.05040391521841114	-0.8505876638871711	-0.731095908226487	-0.5355551229306902	-0.22703748884100053	-0.2015222007908727	-0.21423640793116622	-0.7643135170713009	-0.9633353328224813	-0.4348262835491571	-0.18616525781836138	-0.13842613960125985	-1.0281647417812698	-1.945305342531203	-0.8478052594714359	-0.3715481450713763	0.3912653019086497	-1.2664068905327934	-2.55442594836942	-1.575657125309568	-0.48589473840107184	-0.12069930105730121	-1.3640111650361222	-3.096075288585139	-2.0307998605953794	-0.32216879644116436	-0.2602205269919321	-3.0833918970461163	-1.9549026439901265	-0.6663075072632003	-1.8612801981663198	-1.4472521506963203	-0.8026080707313303
-168	-0.18615978909221706	-0.4617941665911161	-1.5152105054746932	-0.5206298814980359	-0.876065192394929	-0.45418771986730905	-0.5078220354610367	-0.46855574727968746	-1.2344856231039265	-0.9679252480864666	-0.4781516182271399	-0.2665339701598911	-0.6442682130759854	-1.2628271547859111	-1.6368200737635448	-0.7801547626825508	-0.3442203691851721	0.08743830003120028	-1.2516899077284587	-2.2260587159221004	-1.446898814362984	-0.43385305891172166	-0.4083520759763038	-1.338259574372379	-2.7370738914049824	-2.0690851159308474	-0.3344184449812514	-0.43115699182372574	-2.832456581593852	-2.036051745042569	-0.6320601685778465	-1.9494193743125032	-1.534881349503093	-0.8440098741203006
-164	-0.46475967647513894	-0.9061538554201587	-1.898407931303172	-0.527956186392106	-1.1126201124710555	-0.7039508205760581	-0.8394426086212727	-0.7938541153892047	-1.5638717373464643	-1.0083644364647446	-0.601622043521181	-0.49292117232803395	-1.2066616981558647	-1.5633224209416012	-1.3735684121738578	-0.8021141866459685	-0.5182657228736337	-0.5465949163941809	-1.085043904426055	-1.8932992172123717	-1.4307949506875168	-0.6328435524221516	-0.8572059848123865	-1.1781954735573248	-2.212349647658373	-2.1242773479234582	-0.6473463757383492	-0.789150474463275	-2.32088517556733	-2.0585713334561713	-0.8615797140303173	-1.7848718121287637	-1.4808323345943877	-1.0317358944593262
-160	-0.7415862064711807	-1.329721924285597	-2.021322483681441	-0.747893391151454	-1.2279350726596496	-0.9712318753516778	-1.2026734321747232	-1.2276924817560264	-1.7123750404993614	-1.0900993319645607	-0.8401172139891374	-0.9001923776787097	-1.7058820681417923	-1.8715877485705936	-1.22800492930315	-0.9790974234656692	-0.9505860781511484	-1.3568121160583264	-0.8282903411933749	-1.6214374262880389	-1.5961586196654605	-1.127842185033942	-1.441370841201892	-0.9048616863293355	-1.6542392927365943	-2.257997268697909	-1.2821036544854725	-1.3582766021767603	-1.7094675259345586	-2.103581184798221	-1.4211502039314718	-1.4729945622447913	-1.3963627779991812	-1.4580042325402067
-156	-0.9177982187940799	-1.6591417747569925	-1.9559136579722542	-1.058678862759832	-1.2057038515167424	-1.2026711671982273	-1.5455065926632174	-1.7215055183815826	-1.6782714086121984	-1.1561694116012164	-1.1322483987831933	-1.4004254305768145	-2.009545797996453	-2.0381278940241434	-1.1629171342099125	-1.2487549750271285	-1.5400280913571642	-2.0952694363145676	-0.5316240178037439	-1.3894798720564758	-1.8655896139727004	-1.7834736063751526	-2.0302343317271783	-0.5445418344100761	-1.141710278489529	-2.415576690297129	-2.064469570669673	-2.009711022071353	-1.1303696603846163	-2.157016748704447	-2.1501028483465365	-1.1490441531734663	-1.3452149595629483	-2.0069951960436643
-152	-0.9202842093120953	-1.7981045200726493	-1.7545795396374952	-1.2767335144233474	-1.0134799454850323	-1.3005614247864663	-1.7567076638691828	-2.132220262866173	-1.4717516861950728	-1.1011543246124307	-1.331510421252212	-1.7999020769452472	-2.0241267630017536	-1.8860987377231049	-1.0466808054247068	-1.4377609455048292	-2.0541930146806044	-2.508733981474283	-0.21436732953308482	-1.1043678494227378	-2.0451049753053563	-2.333786958524258	-2.4374487338515265	-0.12547370759756177	-0.6766440851294064	-2.4519030985916443	-2.700074427463363	-2.5139372285314585	-0.6395608766620889	-2.121581072219206	-2.743546955811247	-0.9027764178371332	-1.3173669543384579	-2.426220649315666
-148	-0.737144289539799	-1.651725288035605	-1.4224265777914695	-1.24127506896386	-0.6167023166345047	-1.1632381648258623	-1.7115226940812254	-2.2759411277529464	-1.1004967661729288	-0.8214753845455419	-1.2726325956638647	-1.8850343179793934	-1.7388199523893817	-1.3190723624304657	-0.7274120431654448	-1.3465712036467432	-2.2363932076257447	-2.438096040292153	0.12507910994898375	-0.6589172465854478	-1.9221250962365781	-2.5101494725748354	-2.5104329522646713	0.3161254815226454	-0.2073418194781144	-2.2146897260063465	-2.921865932716992	-2.6604480676238347	-0.21871671025368633	-1.8850438547225332	-2.921879760994545	-0.7395698409481648	-1.2534502713028106	-2.480157845911055
-144	-0.41745632781489006	-1.1752948731312984	-0.9445624923700002	-0.887147066737525	-0.016826372551158774	-0.742100534949649	-1.3414871658788177	-2.019603485730459	-0.576559422944657	-0.2763567857917529	-0.8591765739683304	-1.533603902759492	-1.2391828267282368	-0.40809076921426823	-0.12485181508728725	-0.8569956400215052	-1.9367517183996616	-1.8824363899387724	0.48379114148064745	-0.0011932789317938455	-1.378728505468325	-2.1789526884378825	-2.210551733157907	0.7324237804994406	0.32073649683082794	-1.6355211693478788	-2.627152197880628	-2.3752109944456734	0.18528020335148734	-1.3992532456356213	-2.586145394471587	-0.5915106520023677	-1.0965563031167764	-2.09371971555432
-140	-0.03994945799158841	-0.42201980841898423	-0.3395722201833883	-0.27504363586602165	0.715562162976857	-0.08421731718973453	-0.6894395334003237	-1.364099260700878	0.05975239708834792	0.4736019659005987	-0.12633588878206098	-0.7923400382064428	-0.6821251494351787	0.6027252658885434	0.7103593927568385	-0.00623049259475388	-1.1992812126398307	-0.9954760049482125	0.834067938606156	0.8215610960245125	-0.4618075478338344	-1.4165030682086466	-1.6406685072483962	1.0691447231002296	0.915546832157308	-0.7795979956971095	-1.930822605980244	-1.7704845622184937	0.6072319134639876	-0.7243259530853458	-1.8720292997779748	-0.3793253591020337	-0.8396205880901227	-1.3996335232683281
-136	0.3299261621251617	0.445459960766496	0.3050580017017264	0.43322288880642484	1.4417476617652105	0.6695380193972255	0.08849962778397187	-0.46827876449611555	0.7229450922833206	1.276982065791433	0.760426221358154	0.12922008302965426	-0.23476588666771012	1.393977638539871	1.6071743924571673	1.017286536509357	-0.2502549582361937	-0.014570056424011931	1.1253126831253504	1.673101182528145	0.631410477951435	-0.4741000223110844	-0.9987531279143343	1.281288262947004	1.5247427186616862	0.17921280815653995	-1.1005371781219844	-1.0904518338328724	1.0368903849171986	-0.004395007610400588	-1.0666559907685613	-0.07443989794533522	-0.530147312733162	-0.6578994972784776
-132	0.6613443477145738	1.196777579147006	0.8471314885685961	1.039184090851654	1.9974398562545566	1.3315637078045066	0.7780786733056207	0.4039483656221267	1.2900371518943365	1.9471442650271706	1.5685691793893528	0.9455317831008904	-0.010068563719005094	1.722553606452667	2.3470396936287377	1.9500741909383523	0.6038191899313442	0.8311792591090547	1.3063347306648345	2.3837785660640574	1.6390311676605502	0.34259352001478	-0.4869514989479491	1.351402279302881	2.061170572798974	1.038202879191839	-0.41833811892747086	-0.586901901670681	1.4306429588437233	0.6048986300455012	-0.4486984301205786	0.28161033916899186	-0.23862557052923458	-0.1102060300309568
-128	0.9463790035195888	1.6155996281841867	1.14733695694212	1.3795566524007434	2.2531964722012403	1.73636829414667	1.191927549213878	0.9899245475571383	1.636901255289524	2.332124227357802	2.089779371707457	1.417418476340796	-0.02839126244469831	1.5437964161996398	2.7572865416530226	2.5596759254679817	1.1130733461887834	1.39167844897811	1.3506212200397163	2.819070093666834	2.3418042600634648	0.8124341944209688	-0.2244464302356725	1.296695348326806	2.445944541477782	1.6514854389456344	-0.049203086520185235	-0.3959034075278143	1.744026894934524	1.009220716789426	-0.1506801988850491	0.6018323287074177	-0.015464692337509417	0.13803589309173944
-124	1.1676610678756085	1.5841735561428634	1.1368178100494277	1.3753447497929692	2.161931509281638	1.7971723034307157	1.2416549889686992	1.1350339622450936	1.6859821038594542	2.36591243146561	2.2126040402816316	1.4464336597163312	-0.2199340010096996	1.0274354193496396	2.775538437511482	2.725720875533988	1.1837713688526952	1.6137497384336081	1.2643926111723396	2.9242441580375256	2.63562154104467	0.8820534922264592	-0.20889203197668005	1.1567773789763904	2.640020840655145	1.9731934020768813	0.011649557359906639	-0.48479595657973407	1.9580064962543238	1.2044082849611755	-0.12249292402335381	0.8063249567654948	0.1321804520130782	0.13740929926512016
-120	1.2702063289997634	1.132542249681194	0.8548006989831931	1.045885917883989	1.7685012772732447	1.5260786971663087	0.9623804664155903	0.848574993852122	1.4417543374854085	2.0769224114432867	1.9451683710578551	1.09579932413004	-0.4649082112495442	0.4579995262980386	2.454539054395536	2.4610879359097635	0.8916727877992492	1.5088024101310697	1.075275537637058	2.725079529557824	2.5392498905921843	0.6537336690609985	-0.3436354390051456	0.9698656772922303	2.64575170802654	2.0402805753694166	-0.10834012898271594	-0.6966815573268941	2.0790090508423154	1.247648593613601	-0.20819368905909352	0.8676773287800895	0.22769840004176262	0.015074660963503211
-116	1.1707261771207997	0.4266588379101405	0.42774927508123073	0.49195629234084604	1.1848823994285034	1.016291854199857	0.48431828495771007	0.2870304577256351	0.9917057727571089	1.5594124754634968	1.389263268777909	0.5385754094831233	-0.6474370940074683	0.07585082183999305	1.9152760457320197	1.8774322223946438	0.4166846860855761	1.1136798830524863	0.8127986172182055	2.2944424094445166	2.1496765559281794	0.30086836142871964	-0.5039020764026353	0.7548680882468818	2.484845870420093	1.91853355877006	-0.26101326876544334	-0.8524230697091058	2.116566414257624	1.1991324394468468	-0.2706393592677206	0.8211433270703365	0.2939581863610984	-0.1352778073710113
-112	0.8104407766861336	-0.2951796941457189	0.008756098315364462	-0.13701178098895553	0.5509694204724919	0.4056189347993512	-0.02504939207070755	-0.3195154658833645	0.47550752638925686	0.9328979826261958	0.6936942321429386	-0.027289234032873616	-0.6947060209854463	-0.04427459824827903	1.2873396840971918	1.1300568552096248	-0.05139676468508931	0.48319423076705137	0.503325937907691	1.7166272358469021	1.5875480134936577	-0.02591669552935423	-0.597430764120447	0.5171405063924048	2.178910965186645	1.6599496561102385	-0.35933282880659323	-0.8437665083562972	2.065401787311607	1.0854301425232242	-0.26952630213399514	0.7438639383608767	0.3372150949070518	-0.3022923163888086
-108	0.2218267763020857	-0.8089407661995032	-0.28466007041586966	-0.6797102076535562	-0.0015830091393632451	-0.15901426930811466	-0.4172877658798908	-0.7592728714846622	0.036828018631936556	0.31286981622858856	0.014820355884565917	-0.44874694830130324	-0.586736319967913	-0.0020193930198676435	0.6714893562529556	0.37586158419126897	-0.381109892359781	-0.28247678208558175	0.183572828306207	1.071645972407269	0.9673976873768916	-0.24679507252849078	-0.5875359758802007	0.2738676660298946	1.7496962503126663	1.3012772765684115	-0.38950401446230615	-0.6644639356049521	1.9093536090328	0.9103832817934526	-0.24296659169842746	0.7149701696464424	0.35880896358498493	-0.5096204864033039
-104	-0.44273888953007995	-0.9812893246671054	-0.40609285132876377	-1.000979897832876	-0.37498319054343177	-0.551223813095751	-0.5998553022498542	-0.910454568948424	-0.22748555185580707	-0.2051527792996202	-0.5095602857122328	-0.6474082453594698	-0.3440588107959163	0.030964797284506605	0.13113751974375396	-0.24893394049737197	-0.5165156709028019	-1.00961732609476	-0.08748606570328656	0.4365230787700165	0.39318182965191883	-0.34253469023053523	-0.4786418068245351	0.07102592271515462	1.233237978682638	0.8910598136339267	-0.3639937034000045	-0.37462592030355013	1.6434125858776376	0.6950765830610793	-0.22457121255919474	0.7820141295716246	0.3815026869678591	-0.7279898505904386
-100	-0.9516956782154855	-0.8022172430765249	-0.37178841139385926	-1.0233547661693294	-0.5177184926313325	-0.6860730630719092	-0.5448147044731689	-0.76464021012849	-0.2958467297237162	-0.5507494793338259	-0.7758287767849645	-0.6080630406286373	-0.006267618372113331	-0.05264938236891368	-0.2936919026112367	-0.6379275901900774	-0.4503674793793651	-1.4689539633856692	-0.23457093477630322	-0.10862882407895666	-0.036943621840186555	-0.309337853604373	-0.28338926959014443	-0.023768965094875378	0.6931476575517282	0.5146267997146388	-0.2612574391921492	-0.03353861710902201	1.2980236974369166	0.5105216490253878	-0.16460005897449284	0.9499863362169325	0.4652325499232706	-0.8169385770199173
-96	-1.099563476647392	-0.37404963279699427	-0.22691357078482535	-0.7547783832567213	-0.43433561811460486	-0.5422388301510591	-0.2851334207011583	-0.40903213516915166	-0.22113048974473873	-0.6881307942182947	-0.7371932845576806	-0.3589658132073154	0.37550604248608144	-0.21577668135524067	-0.5764144644489292	-0.7339234929628478	-0.19846834192235463	-1.4594052993167597	-0.2006544316709399	-0.4934853898940533	-0.24804826018172937	-0.13401856984634328	-0.009372899285136401	0.03908478458788581	0.20788682944740336	0.27582999994255797	-0.01784549276495537	0.3379449835828061	0.9337861514357516	0.4569747436430026	0.062409642926241606	1.179195281866263	0.6778318268828469	-0.572410582050896
-92	-0.8205753544117058	0.1321176436188047	-0.019870389202733166	-0.2975547008154428	-0.19396266292238545	-0.1808741237126864	0.0926096958564044	0.0171187240198182	-0.10509324792316069	-0.6347306950756206	-0.43183866034197843	0.03499590224132714	0.730737088265845	-0.3108589939375228	-0.7146541458206412	-0.5600910768673085	0.1995565737215938	-0.9241188741240385	0.0027179513057990034	-0.6913279873559746	-0.23047396482452703	0.18577998829666717	0.32376781024251666	0.23860441088039275	-0.16845792489435626	0.23418357909204712	0.4119580377668212	0.7375424485658933	0.6026989802402637	0.5904040321702618	0.5532216415742884	1.3893061841220389	1.0286059353607833	0.12382663010090007
-88	-0.24422579942077316	0.5353326187923054	0.20055298456578832	0.176744132787788	0.07423138599727615	0.2550773018118938	0.4612347770013114	0.37111666704893664	-0.056928653126275146	-0.4736978697738002	0.004281263787666113	0.4683798539733994	0.9661733483716515	-0.2051824624126434	-0.7498292307995816	-0.24001638530691208	0.6591955406712015	-0.027689983998364007	0.2684817903415883	-0.7501249890462105	-0.0760937852726453	0.5957863315798906	0.6574991328805321	0.4593789267862704	-0.4468218374892081	0.3397127679354138	0.9758334135213649	1.1302218408659466	0.30079626961104583	0.846849439390231	1.2524967161981013	1.4668636284986738	1.4122014010060675	1.1600881785667254
-84	0.3482475569992537	0.6989020687577503	0.37257763649333764	0.4854352461956585	0.21387876516225565	0.5750547036911013	0.6792471987741099	0.5464043007406705	-0.15139847955626268	-0.3391628554841044	0.36310109404442426	0.7987393716673064	0.9828317140560641	0.09767127012388714	-0.7701168040859154	0.021836237926784272	1.0387061808110516	0.8763845540808293	0.42280518901888425	-0.7899028042877306	0.029535876512462353	0.9587816571824279	0.888832566878228	0.5271310792965633	-0.7100710254861431	0.41966953767677967	1.4907726011784828	1.4165565931795199	-0.048076771078321034	1.0271266672904824	1.9087505292384854	1.2858161893805793	1.614265557028192	2.1682639067265876
-80	0.6555865390438083	0.5684224948836883	0.41823914541507123	0.5098795281888437	0.10134749833983674	0.6096116885052815	0.6354287846734675	0.49761405461560876	-0.39746090669418527	-0.3655260494063438	0.43808138259909	0.8798667170244607	0.7210336309348446	0.42260247362251496	-0.8773294069074232	0.013787980156598285	1.1687108248767424	1.4015829527754302	0.3082466713752249	-0.9498350000242299	-0.11985404759187546	1.088547584646396	0.9070674754129693	0.2997125379624758	-1.0657789680275505	0.24969237979790154	1.7038611130611403	1.4602745734539693	-0.5489162192790978	0.8781143404724886	2.1668295805583337	0.7563909869170481	1.403801914485526	2.6630906991479244
-76	0.5085749613319385	0.18489350331832213	0.2657364302124876	0.2515625053253302	-0.29452744051958857	0.2873461239235686	0.2993586949896601	0.25127208169439536	-0.7290659528444966	-0.6201236828406187	0.12029739438917607	0.6242819412682304	0.21186336821471494	0.5149185644500777	-1.128291246426546	-0.37953320049784073	0.9281410551479716	1.3227821555119197	-0.11823331534813798	-1.3045076098885027	-0.6370772703298585	0.8444603660243757	0.6616585834010363	-0.23474736452439293	-1.5636122187237673	-0.3135503522585934	1.4317434990020774	1.1743571728620594	-1.246671315860331	0.24399569569019872	1.7693595841558434	-0.10797601910986357	0.678180931286415	2.3009562434277044
-72	-0.03950599198499855	-0.32845485127491825	-0.10589547428574785	-0.16038501222171472	-0.8812351204557592	-0.31738814631437934	-0.24566942391358831	-0.09680397039053075	-1.0232217286025265	-1.0535558435543215	-0.530792950243739	0.06624393893444615	-0.400379954757723	0.20715509302766574	-1.4827763996834735	-1.0962566109636025	0.33064514315094956	0.7043768149711922	-0.7330664973824309	-1.7958289339501596	-1.447397586029205	0.23706476330508686	0.22194559816114545	-0.9134042239969766	-2.1262998527248707	-1.2113791673593473	0.6999536138982227	0.6144847258312351	-2.0445251413224454	-0.7978036979559846	0.7509679179304959	-1.1415684194353217	-0.4231849600121118	1.1133553953671484
-68	-0.734922168783538	-0.8054781535793087	-0.6258433445388244	-0.5219345079595858	-1.464581247446697	-0.999255475859233	-0.8147939423016687	-0.40711918370456	-1.1431981296286557	-1.5004808864856978	-1.2893890109886852	-0.6196382030101489	-0.888321039818057	-0.4531510460856704	-1.796955342524281	-1.8941929292538775	-0.439092247569606	-0.11680020362451854	-1.2821814981513526	-2.2311186734135977	-2.2811822833641036	-0.5300917612043715	-0.21929153744644891	-1.4489439689293535	-2.5484580929309963	-2.1577446406246064	-0.21608349626344736	0.004724724671981825	-2.6943464211149095	-1.911275262775507	-0.5098729120732903	-2.039929623221865	-1.5222543439578857	-0.44029259570538465
-64	-1.251276370704051	-1.0920057269182435	-1.1278768749371135	-0.6459223611736157	-1.8251432134324226	-1.5036364755814293	-1.1876372068937773	-0.5428769574764133	-0.995912430156156	-1.7446963743029509	-1.8524780226666926	-1.172689554114744	-1.029316303515423	-1.1991915672543147	-1.8812144947239617	-2.445352786565946	-1.0805053683657362	-0.699968991896536	-1.5014589987039924	-2.3632335603175885	-2.7787680555758376	-1.1292731733420966	-0.4205190528742961	-1.565606709342206	-2.582399838603358	-2.7479307582141193	-0.8987438656050354	-0.3472615769678685	-2.890003912304882	-2.6297254495983746	-1.4448757135151253	-2.4583258566778454	-2.1519896929767826	-1.6665246444588115
-60	-1.3513469661926691	-1.097970959752304	-1.4049092495733675	-0.44950657969472535	-1.8127611829766237	-1.6385186869260653	-1.2036867111333465	-0.425749896881933	-0.5780923947997648	-1.6196746785279021	-1.97745704151619	-1.3579484190034556	-0.7130528670427931	-1.67511844212083	-1.596366997503069	-2.4879000124106727	-1.3098463979075554	-0.7324289064988783	-1.2568408219076534	-2.0169584700205845	-2.6632749967091045	-1.2647994724765492	-0.21635310297224694	-1.1483175725554888	-2.0736081547835634	-2.6568365029967227	-0.9996969078573251	-0.21409639662094232	-2.4283692775451042	-2.5856387549922752	-1.5884337385127836	-2.169946188216481	-1.9925298640489355	-1.988420362220627
-56	-0.9953157876634608	-0.8264847376937526	-1.3011234965852791	0.009318624599592566	-1.4099882805511448	-1.3601282800666776	-0.8401556589849205	-0.07681991885578819	0.012521610563671865	-1.0930240126670154	-1.5984693725282786	-1.0813493701336248	-0.011466219060975868	-1.6309251744101418	-0.936374483128588	-1.9580527494585527	-1.0052726243387617	-0.19653926740139194	-0.6237334593283921	-1.1939369409934726	-1.891636247627337	-0.8358816483374472	0.37523949051531885	-0.3200244001414942	-1.0710071298261794	-1.8233541204193615	-0.4410918045828377	0.3991305818017404	-1.3516780103889159	-1.7221927599341078	-0.8498361089230957	-1.2074708908112923	-1.0670045587303278	-1.2707749573094849
-52	-0.3417936852885584	-0.36400461104997084	-0.7903829793048288	0.5653195366891605	-0.732486007748429	-0.7849616984576153	-0.22702994885345548	0.3824998428701114	0.6131836160437181	-0.28576984929414073	-0.8556131102894305	-0.4427698243406403	0.8370900729025724	-1.059573170847784	-0.0450391358490118	-1.0262384388762822	-0.2811649434620323	0.6277480705624578	0.14639174901241542	-0.09057658142824894	-0.6941217166541884	-0.00808190645472189	1.1326878042233681	0.604912160299831	0.16193944174888758	-0.5096137510784613	0.5178486095705487	1.2155792682474857	0.02375119173490629	-0.3567409208350793	0.40387546914175043	0.10438921276201249	0.22870008589700644	0.07738740722668132
-48	0.3507036855903121	0.16062796075320582	-0.0020962895306917747	1.027682420996965	0.0295307542383149	-0.12473229287365316	0.4109714318866675	0.7761935572100689	1.0628733608113758	0.581379948578696	-0.022100143078796465	0.3059312693501259	1.527143951375045	-0.19564031015115915	0.8454585650079088	-0.015750903596449907	0.5568712339646713	1.326170083512399	0.7567406277624177	0.9861344074147299	0.5263618217530344	0.8573147632888269	1.720440025754268	1.272599336272164	1.2522666422698492	0.8089781383116831	1.4012851679708842	1.8027400924944172	1.2273555963046063	0.9552541947088815	1.5218524894438246	1.2657221523753426	1.300048705633403	1.30343544154099
-44	0.8544386007670969	0.6250269993260418	0.8206194618487282	1.2635091511297092	0.6920981985738175	0.4147364784736888	0.8540211894407886	0.9457431411707303	1.2658040491570572	1.2826060024303714	0.6268730743793642	0.8756883122269657	1.8193694307168975	0.6137250050308461	1.518473144512171	0.7499077301165527	1.155104991857505	1.5757867058069825	1.0159871552565343	1.7592166617800236	1.3821977342040728	1.3809558118286682	1.8455618573322865	1.4637075625657852	1.8874546241790322	1.6682997899850305	1.7623271897644188	1.7902840330699943	1.8498880816484513	1.6901707606558247	1.9120696734790676	1.8243590547277375	1.6491303402272153	1.7117516951258742
-40	1.0639735433418622	0.9490994787095586	1.419232841723178	1.2418029276966582	1.1362053127212621	0.7166951876665317	0.9803667043729566	0.8204777220038103	1.2243053882205714	1.674643631521748	0.933755097415902	1.0716377469663108	1.6436760384068796	1.091394660101549	1.8622823906610428	1.0905913087012946	1.2814762559961508	1.3012963500546915	0.9245491600535857	2.102600569184852	1.6776137309634072	1.356901642234553	1.4057320320877698	1.1944844692589969	1.9605890462966316	1.8372762156829787	1.4209873640423567	1.0765771838663765	1.7438566640694753	1.6180396039165517	1.3644067014578531	1.5982969958960234	1.1356577844557378	1.0454949114152496
-36	1.006999847730702	1.1026768656547292	1.6247699219690173	1.0224626038485838	1.3189535107690835	0.7779600600628171	0.8064693192147763	0.4520820665866451	1.022520897191027	1.7330776409262185	0.9060742236149398	0.8738614894738571	1.1180461616898392	1.160814759184703	1.8989320945480035	1.0301513645866178	0.9330479479120721	0.6823323351798949	0.6464915259251388	2.0785491414043897	1.481751557423793	0.8544195868854615	0.5496073947381682	0.6867185813731969	1.6108900267937944	1.418974157565506	0.563119410046766	-0.09269493049821802	1.0985624762455615	0.9152969694870404	0.17408518449223223	0.7778726796537971	0.06085333585276306	-0.35930210261228906
-32	0.7819898108766177	1.088104841346122	1.4153559172181958	0.7079622727639587	1.246680852603471	0.6695250255846973	0.4559192645959848	-0.007337177153778608	0.7690321187630315	1.5256190261469615	0.6728641969858736	0.42537617576013487	0.4750559317992563	0.9472615694925497	1.7394819215725859	0.7461550812956134	0.32108336606022253	0.019261121701248274	0.387604086612565	1.8727128458425333	1.0605225536273697	0.17052285330158026	-0.38739481470528697	0.22574880662188782	1.1338443727476697	0.7740910629755701	-0.36054351834821424	-1.2288709847895498	0.3386721304449076	0.059636305867070055	-1.0132107709099063	-0.16234904486674992	-0.9863476132285532	-1.7442151264022494
-28	0.48389932391064167	0.9229415035787628	0.9094124413418022	0.39871641892856424	0.947034296982595	0.47425958394474527	0.08747237898676456	-0.36916345264690087	0.5401084409428758	1.1575648755411747	0.39222583075678	-0.052243914323272196	-0.05147813247558288	0.6775173527778059	1.5061356983305516	0.4524636555215337	-0.2469455295526852	-0.4465048003844483	0.2684620910065398	1.6753931003232616	0.716778097727205	-0.33338561569919106	-1.0349829170799125	-0.0001568345174424643	0.8171576240889139	0.31562903443756457	-0.8764724709316509	-1.8360949708358023	-0.10136583421863947	-0.43449556717845583	-1.5517412384909823	-0.708772001861188	-1.4437036477832212	-2.3377554357633845
-24	0.16847377972982647	0.639666853720232	0.3110337249532407	0.1737141753817645	0.4694105076859309	0.24768501457622405	-0.17284059480898079	-0.48238673684399547	0.3572983434716114	0.7286759596547159	0.17250458852606904	-0.36270663050629665	-0.3198374203713059	0.5453414903223639	1.2751522032014486	0.28980404065396576	-0.5177723156254288	-0.6343036874015279	0.2686596207988267	1.584159489446732	0.63591146308564	-0.41377019777735213	-1.1476619214646149	0.01492733877108704	0.7979337552905562	0.2957905523461572	-0.7308876495981675	-1.6496058660820327	0.0008581597336321907	-0.28550213503280797	-1.13788211058385	-0.5728645906290039	-1.0685845586500449	-1.7670130685062502
-20	-0.13243816759527513	0.2983809403992332	-0.16648106234956556	0.09466519927919709	-0.09516172832066426	0.019534122149501197	-0.2654036872838691	-0.2875883273970019	0.20820888824347286	0.32003444352411353	0.04605924699002528	-0.4080874611564916	-0.31099674027125096	0.6197962149230495	1.068403360530385	0.2797876589386846	-0.39881390232484826	-0.6026729926152072	0.27337551047922676	1.578601117916881	0.816180346335644	-0.05120309801883213	-0.6969856006191257	0.1291167285758747	1.0159040663819272	0.6971955281774946	-0.00402218148959439	-0.7533437590652445	0.5560421929625835	0.42501458418351784	0.04157839704983268	0.16692118304547585	-0.05078424500518207	-0.2517652505240218
-16	-0.36815321352515334	0.0006220115449407749	-0.3649412086332843	0.21637436692921688	-0.5959694966528228	-0.1716428841787268	-0.18439143849548542	0.173344805399024	0.09376390254666277	0.009232874005073919	0.0026490238893950935	-0.1962231094651403	-0.08751704521733035	0.844016013398697	0.8913432337191182	0.36072611717702263	0.03438008940480438	-0.43708360084806913	0.1877193893223111	1.5748658140475278	1.1152589292978894	0.5752771482248414	0.1457428928510287	0.17959029927211062	1.2842656341553071	1.28339755211099	0.9640786027409538	0.48556536313487464	1.2402344910779985	1.3311953511007248	1.4356640541069252	1.1255159349635213	1.1173602314394957	1.526309367141007
-12	-0.4536614108552712	-0.12719449368788271	-0.22339551094396853	0.5708328471076748	-0.8511074163883002	-0.2590398483888797	0.048324290540996816	0.7819160799312167	0.05693744853664761	-0.1253688779288277	0.03417734420611277	0.19394104133754778	0.27144706180703265	1.0961769791583835	0.7687244991921223	0.45703065279966076	0.6068754180844861	-0.14643648229820638	0.025464534695229715	1.5061615667463188	1.3604371513351239	1.207622048190061	1.1083396645219628	0.10587214651795777	1.4179307186567023	1.7571169093591774	1.7737739041367637	1.6143897731075902	1.6913084941124248	2.0079245516626556	2.4406969485650056	1.8364081336386617	1.9287674378335775	2.791431896791423
-8	-0.3102117172992187	0.013087311726548817	0.20949526078260639	1.125320193310573	-0.7295643072782054	-0.17241969661096201	0.3949893106978467	1.3843586409903041	0.16378024179116077	-0.032523546285769624	0.14736854992852833	0.6541312916452912	0.711420951477608	1.2607381312010975	0.7405709009546401	0.5261505828924837	1.1360657186435505	0.3463352611857529	-0.09444230771062226	1.3667752708259575	1.4446353875879978	1.6422606665156168	1.9370356749266548	-0.01520398162192009	1.3336249556249251	1.9229812573519702	2.1691663210462084	2.3095030726297585	1.7035404400730583	2.2025077287379085	2.71424125939781	2.005378479662858	2.133106941559613	3.07328342615489
-4	0.0579430235949532	0.42211374533891305	0.7847045044160589	1.7432733730171759	-0.24835361477614276	0.09914433186056643	0.7883557657364912	1.8297964288289996	0.44122922309102036	0.2591670447005093	0.33078458821704954	1.0679326030471377	1.1917993992279343	1.2571634022443636	0.8130063990093679	0.5512544498830881	1.4907759390385817	1.1047804327728312	-0.04781557980028442	1.1890397041818013	1.3499805893192878	1.7992753937116608	2.471894496398837	-0.04708804550799285	1.0626084777706628	1.7585277512974489	2.1288094466821574	2.490864985852894	1.3059945073533157	1.9359843682047606	2.3120331705847965	1.64171826424953	1.8311095191500861	2.4125533043031755
0	0.5099067079067927	0.9618124937569597	1.2839426961907294	2.19405221385142	0.3812940111070273	0.4513838875818313	1.1118133040014129	1.997641439162678	0.8154579976474348	0.6036789402025418	0.5063644634813793	1.31226896908369	1.6443078476399036	1.0254268620350695	0.9041897035658343	0.49653786295458385	1.5975979526238626	2.046854252415808	0.17052863495210888	0.9793745254585304	1.1003464432591847	1.70217358636252	2.657205098119083	0.075883105205638	0.682180879777903	1.367869254473403	1.8095713808148775	2.291197771009715	0.69299483124291	1.4296408855582894	1.5880426128347551	1.002071616503826	1.3507653440704193	1.2761601177420556
4	0.7909123281537426	1.3807606662221663	1.4770723544021596	2.228152984715641	0.8099473694379286	0.668039141398843	1.2056170671541686	1.8157448722772571	1.1000856133343062	0.761192617878741	0.5160365687693069	1.2618851629822592	1.9445253561516416	0.510710714958138	0.8381226041614097	0.27363941004330355	1.4143891298823799	2.887603514056548	0.39243551989657044	0.670093951917642	0.6937338096269695	1.4024369681236157	2.5038375791276364	0.2598832541103221	0.22625289800264178	0.8675428010971711	1.3987226450891703	1.9186047267157422	0.06556843204633153	0.9203131175647384	0.9375812983683084	0.39438483019438325	0.9965662931076913	0.25041466888146613
8	0.6417572482118721	1.4108180964136126	1.1986899345651516	1.694486256135957	0.7012631875452765	0.5039392100962365	0.917061028549359	1.2739859787247176	1.0604383918691591	0.4940634059353033	0.17482356682984554	0.8187201598477557	1.9353241871608953	-0.3158033184184478	0.41493296518469475	-0.23783017634903755	0.911289451205685	3.2261137880889765	0.3468123963659753	0.13835583592292477	0.07788235674506594	0.9155888534317685	2.0461444803076145	0.27903979946257595	-0.3504842510911255	0.2947704784580466	0.9813370083828054	1.511575575826888	-0.5014408814167838	0.49590188139643615	0.5532570467331956	-0.02149953873987877	0.841746208926736	-0.29404613301424243
12	-0.05396056906666259	0.8969805217984522	0.4230009306718324	0.642223952579285	-0.08964090026634663	-0.18261207594065934	0.18183097197401113	0.43575543055189236	0.5360117541131616	-0.30167117638717245	-0.6231569036009355	-0.03279897189800072	1.5044411382838656	-1.404260989458427	-0.4655280697513209	-1.1118302317204865	0.08928402490723561	2.746690266350186	-0.17242476300575513	-0.703433929097871	-0.8019590357560098	0.22125886324809962	1.3301815953049443	-0.08378858843152819	-1.1200705738398793	-0.3938391794751646	0.5107669817426639	1.0795105668469465	-1.0753308507472699	0.06246564521515699	0.3451322010386439	-0.30716746967964637	0.7005533558324386	-0.3675226559896665
16	-1.178483721618731	-0.11032655062238836	-0.7034584862114563	-0.6672896725973295	-1.4138619864053172	-1.3274797167640975	-0.914305148200482	-0.5663790092473681	-0.4520640957862907	-1.5086725912150767	-1.8127095653543785	-1.182238456602232	0.6668817384095167	-2.5808536941217883	-1.7058428482856292	-2.2931806983270966	-0.9815019940391271	1.4153004848986945	-1.1471685142164099	-1.8086811258427598	-1.92150508872319	-0.6833638531597734	0.4290035356180726	-0.8751556851225977	-2.0829465336662363	-1.2436256377292878	-0.11564323276886569	0.547102926780319	-1.7643376544276168	-0.5467011318709025	0.05292552323688028	-0.654327569740041	0.2912473075189132	-0.2858057312902049
20	-2.4053523479767516	-1.3564218248453226	-1.8992929410665627	-1.8577400399034683	-2.8706929611207275	-2.6557481221858716	-2.1388316100479674	-1.5570846756723158	-1.6743336873696986	-2.8056588102076523	-3.1442434708365727	-2.3998792110887144	-0.405003129413409	-3.562903633658952	-3.0086023731565725	-3.571576824707611	-2.140565151532238	-0.4505834270068412	-2.289911025941553	-2.960044853366449	-3.1247939984583097	-1.7223409370806453	-0.5383140431164432	-1.8909928750932556	-3.0967237871186577	-2.2051646653767083	-0.9362809634411715	-0.13896532321653673	-2.5751740867447706	-1.399049874588161	-0.5336932526465421	-1.1981000870019436	-0.5222324715780657	-0.41592213406456735
24	-3.3426394378191917	-2.4838097032779336	-2.852519504974594	-2.602688067540783	-3.9864277739013017	-3.7902460002572087	-3.193184844538081	-2.3643767774014943	-2.773790352493923	-3.797699918695421	-4.272458542527288	-3.4084389123692502	-1.4335807525679956	-4.054031838672024	-3.989578952253331	-4.644855964377602	-3.1645600715848388	-2.290961021361265	-3.1578543106459587	-3.836389531940024	-4.1509613885981995	-2.7251491477827456	-1.4115642273550273	-2.7440655162194836	-3.8943312069798925	-3.0966057699223004	-1.8477759314615232	-0.9208109951612902	-3.334447375461945	-2.349334234028218	-1.3937028611281501	-1.861914987631575	-1.5712152679828308	-0.9093430615354589
28	-3.725974073539597	-3.1879067340472567	-3.3504140292454854	-2.777266495368447	-4.441120136492327	-4.426389683038307	-3.8394014738422095	-2.8730242179812966	-3.4282560261955597	-4.203665245887009	-4.913263308518054	-3.996763696116417	-2.1560606902046633	-3.8811387917757734	-4.363269318054849	-5.253877149668585	-3.8481852911112924	-3.551194420431679	-3.3779725943156773	-4.167936314550214	-4.746319758829683	-3.4850761802421664	-2.035032028782326	-3.058113567260695	-4.207653035030994	-3.6721219923767325	-2.633591168430167	-1.6290153223870707	-3.751755466525653	-3.081113330691396	-2.2586183490949003	-2.362950319046331	-2.434041970783346	-1.5967006643036792
32	-3.551028004263886	-3.347471228731065	-3.368961802559863	-2.508458131178959	-4.219891537502536	-4.477099884173704	-4.0043754476535955	-3.058143131164429	-3.5052106291964584	-3.999098290837085	-4.981323229610868	-4.113709916219105	-2.448401683347799	-3.1031668107840313	-4.097253312256748	-5.312763200697891	-4.095203389318809	-3.934292068085056	-2.8567728924150275	-3.891839494415993	-4.798311698243094	-3.8581349752292384	-2.3203995169229263	-2.678554289730831	-3.927419414141226	-3.759412279174168	-3.0785739344117964	-2.0685043282736224	-3.594456425174748	-3.285592547704432	-2.7682020594324706	-2.3834943711184855	-2.6765828065052175	-2.099934811058648
36	-3.062594882862174	-3.057120553881244	-3.0672752779766994	-2.088175053092733	-3.599030485603263	-4.099346150538818	-3.7966303729522717	-2.9777235909621953	-3.117036096332511	-3.4239191922526517	-4.621116149679239	-3.8799018761905177	-2.372032397957117	-2.0136051127139876	-3.4349324616492845	-4.949091421983505	-3.9574854274014983	-3.5137751013733216	-1.8455432606831637	-3.2046260752831204	-4.401255596492878	-3.8324317835369306	-2.281509870490962	-1.7705243781211033	-3.1917970099926345	-3.3716087256183656	-3.0874302309287427	-2.126783127183489	-2.8563125061399446	-2.85942935221667	-2.6884262493921858	-1.7893046095495178	-2.1255938953139335	-2.075025076395587
40	-2.606784098719406	-2.5515448982668305	-2.687229864965275	-1.801141376716288	-2.9784834309718735	-3.5906114487592844	-3.4282331380120237	-2.7306852271755067	-2.550975793119952	-2.8500294613407444	-4.115420807938419	-3.5101475627014502	-2.117777580636402	-1.0178674433758714	-2.771988384877623	-4.430026996871898	-3.597945919489668	-2.658692114793185	-0.8204475024489855	-2.475845807500311	-3.8118474387250094	-3.5262637049337098	-2.020177597667486	-0.7459991555452746	-2.3446512163093285	-2.7217795780128107	-2.7355086734371326	-1.837875719198616	-1.8120828821207924	-1.9990022131994645	-2.0596449323151553	-0.7603728155965701	-1.0096185181876527	-1.436650391766178
44	-2.4298181472466465	-2.0708012528588875	-2.4167699752825196	-1.765898700070343	-2.658601754151934	-3.2155666270133105	-3.0882124822848	-2.4039215980871758	-2.110187763608445	-2.577592366386492	-3.7222311402757318	-3.187603465615405	-1.881951923387261	-0.44807770735145486	-2.4456713137868213	-4.012245644929868	-3.193520061059451	-1.823146815465356	-0.2404495173582401	-2.0583250470645815	-3.3118104851077206	-3.1121404092416	-1.6682922797998077	-0.05623434469807167	-1.7702438786634984	-2.1184425300518375	-2.219109529614572	-1.3604871000273195	-0.9032864547811885	-1.1181175680540998	-1.181130406258655	0.2696312659131796	0.13569098676755112	-0.42580637228271506
48	-2.5412836010667856	-1.7423222020982516	-2.2913858832681515	-1.8795146894685488	-2.6861855915914465	-3.0627384108464306	-2.840283863525994	-2.036471600159307	-1.9531172464650322	-2.673974507256432	-3.5341885000644586	-2.962462894589592	-1.7459200576571001	-0.4178674508511903	-2.5536422665018916	-3.8015355967863225	-2.8351564335767816	-1.3223277297012994	-0.317077069674082	-2.0979237503490036	-3.0542254370825233	-2.713079445664781	-1.3175193038101192	0.037020888086071874	-1.6905696349376547	-1.796205158467032	-1.7378548339836153	-0.8835290052041487	-0.5067695366462501	-0.6248040183505	-0.44127288349320815	0.8420646765429669	0.7570971827465639	0.5235644565714984
52	-2.7246856620661424	-1.5476864537264394	-2.1976382676906323	-1.900824899642712	-2.861104481149208	-3.02045869064678	-2.6112484866018115	-1.625427838036387	-2.02569412673681	-2.952343218025176	-3.449783793322604	-2.742890827883216	-1.6361679989513482	-0.7975046614539015	-2.912317983903818	-3.7116980458961972	-2.4928994115832315	-1.2150365083535313	-0.9247120595473455	-2.4576487479149063	-2.9909446163957343	-2.344230884355434	-0.9831963752718792	-0.4185273338718326	-2.0459415860973116	-1.7876332953142355	-1.391567345920529	-0.5254807458961891	-0.7226034980649754	-0.691214142484741	-0.10532770279279274	0.7334059458335697	0.594520269323413	1.0278454993046588
56	-2.6909012726555903	-1.3845205272051053	-1.978682513009678	-1.6194462735296995	-2.8941504882221474	-2.8827097343142647	-2.2758736552952312	-1.1678422659952683	-2.1242406314623694	-3.1020612638355285	-3.2706885255252645	-2.384572499930461	-1.3924456799637217	-1.3151606288130224	-3.177449456775685	-3.5461645036810725	-2.068865532420049	-1.3387042250212808	-1.6956196980581442	-2.801199190696817	-2.9241721556268185	-1.9371313999859223	-0.6253383143849176	-1.118298527755181	-2.52936028795602	-1.914257879192537	-1.1554402083788755	-0.29166290090356034	-1.3066898551375097	-1.1535890073261152	-0.18769729090031645	0.09472275501416301	-0.16884125726510016	0.9572198366793215
60	-2.2808334769837586	-1.1737631529737278	-1.5723209341406228	-1.0079076264683393	-2.614451401785375	-2.514983886091072	-1.7802017882224026	-0.7043448072770286	-2.0446026273604576	-2.8926849292201102	-2.862112753317683	-1.8220766736757605	-0.9007239915041193	-1.7209439234199269	-3.0572557372152533	-3.1509098927100005	-1.5041553936175338	-1.4509501420581385	-2.2391164246293673	-2.7910785604580868	-2.650977604848673	-1.4287066423584387	-0.207883074354792	-1.6880112843810644	-2.759651653951739	-1.9049617003982589	-0.9416795945234275	-0.1086415422200035	-1.7968308880263044	-1.606547232386424	-0.4781555223313628	-0.6231613739492823	-1.010597941708129	0.4861213552599357
64	-1.5929999311282084	-0.9382393932496119	-1.090476510155747	-0.2645861201758716	-2.0954048580671554	-1.9721547315396477	-1.2200981347750781	-0.33401563679287627	-1.7255983309093963	-2.327638858640489	-2.2711882533905565	-1.1533619136300943	-0.20586702175616042	-1.9149280738166996	-2.4924681123747257	-2.539847844387061	-0.8635845162522758	-1.3806780541847163	-2.3527088105883016	-2.286479467341208	-2.1091122574008336	-0.8485722520384692	0.2426177555157602	-1.8913021039895697	-2.4948294099761856	-1.5699607094227659	-0.6953890306082031	0.09281294024399474	-1.766577358554042	-1.6392399031260265	-0.692178366820838	-0.9245944595835006	-1.3701790536619074	-0.02620181248427231
68	-0.9551928615295625	-0.8003882149515651	-0.7801308016154116	0.28445419597333527	-1.6215226609298525	-1.4912116489907898	-0.8172995427477658	-0.18088720693218158	-1.297467943730434	-1.655785794846032	-1.7256729559244668	-0.6164352282219404	0.47235441088627717	-1.966725702088633	-1.696498628147783	-1.911630268038893	-0.33502203141504544	-1.0962439747789419	-2.1037809795670035	-1.426478263114492	-1.4327481948918748	-0.3390529743217384	0.6242228730654072	-1.7360192493477467	-1.7625918343865534	-0.9250296926985516	-0.4540135550957151	0.3083688310943836	-1.0611423227221792	-1.077168223522477	-0.6498594267650244	-0.5508205280702189	-0.9699540113755645	-0.25703248316720223
72	-0.7518586497397703	-0.9029144025894399	-0.8828670360209445	0.3640259495127466	-1.5162765941484542	-1.360115524672728	-0.8012847880160129	-0.3286244562911984	-1.0061941121446627	-1.2321563928012746	-1.509996410372196	-0.4651644218144643	0.8375955202889916	-2.028851265553302	-1.033071515336081	-1.5435107907425973	-0.1351523991987205	-0.6715873462887189	-1.7482732490268913	-0.5510380254184551	-0.8815596081410972	-0.08582422115591905	0.8063613752033605	-1.4287947380231942	-0.8348466732881803	-0.1889171297548874	-0.32478246010796635	0.4543496954890772	0.11940561949862058	-0.08661252238340571	-0.3685551872485037	0.37670040035507524	0.0296367406096837	-0.09765353029153066
76	-1.2049216001606853	-1.3042138781997912	-1.4715771637956112	-0.09479709690717142	-1.9348963450217778	-1.7385660366032796	-1.2635058132696102	-0.7613902072756725	-1.060175296967785	-1.3069792952918082	-1.7898670389761984	-0.8126940110668888	0.6777268034990178	-2.2041015569351785	-0.8035959581113435	-1.6230373341590605	-0.3725343337190176	-0.209354534216647	-1.5465758999877883	-0.006443557313207462	-0.6838671547789861	-0.19715513239197877	0.7069941145213163	-1.216907498148307	-0.06434898807253121	0.34573486360044625	-0.3950751711884289	0.4277845312285264	1.3354624476094217	0.918541548317197	-0.021207952818373746	1.428136941165114	1.1274368734504927	0.3100774876395234
80	-2.235718006211434	-1.9243104409271057	-2.37530373927271	-0.9140753126908084	-2.7546470095704536	-2.545219653379236	-2.078937763687344	-1.3517311777319212	-1.4949629269049027	-1.8733208132177073	-2.4974982675439104	-1.5431204995295933	-0.009013196430695977	-2.4637865957998004	-1.071677920496788	-2.1242144054187344	-0.9577777361530107	0.21275061315227894	-1.5964622457251796	0.04839327919185985	-0.8931366778712369	-0.6134840234526276	0.3502910724378962	-1.223045822870358	0.3161319784289095	0.4870133387667474	-0.643245397374222	0.18956883203805494	2.150865072542	1.508691783910646	0.19695845196587775	2.1061794704667096	1.766076679539193	0.6797420365337858
84	-3.490792504080273	-2.5761635238455436	-3.247217646983448	-1.7683384373841295	-3.6279151348070697	-3.482790699748669	-2.9486870691238845	-1.9098081540527097	-2.141342872935304	-2.6636161736949373	-3.3508541499413957	-2.352201217434676	-0.9966157053580853	-2.6720404557476427	-1.6301368433803327	-2.8068714070979013	-1.6258450705487613	0.5397070632659717	-1.7871965124784241	-0.27811825205203033	-1.3473077978450179	-1.1128218145884663	-0.1337998804052145	-1.3782696689140024	0.3129611007418316	0.25832077795612485	-0.9181320644086239	-0.18997850966172306	2.3620448052851892	1.4745871983491687	0.201121434061576	2.1153044647216253	1.637426729836537	0.7564250211691289
88	-4.514542091415597	-3.060622207543668	-3.740959634872612	-2.3551745355271447	-4.166669358224068	-4.184322346613336	-3.5405492693202496	-2.2660705986030627	-2.711315148183884	-3.2915558731898646	-3.993162621906759	-2.894663088165921	-1.929587120906459	-2.6829910210581303	-2.1214656776272123	-3.336872092405286	-2.060585255188758	0.7027237993618098	-1.8892900896056115	-0.6803366524685639	-1.750552292218769	-1.4125064575772577	-0.5665825591087622	-1.483083959649738	0.1500601466681774	-0.10813414278147286	-1.0033292745054112	-0.5504137859752984	2.09169053503271	0.9408400631038858	0.07237722706402638	1.5102058610934077	0.8424283244798234	0.46258449437652
92	-4.976387011361612	-3.272562018715114	-3.7009065057775694	-2.541793339987618	-4.154973496437191	-4.402580250115022	-3.6555290129874733	-2.348263019355019	-2.95444487779465	-3.462801447708683	-4.178078164042431	-2.960607521211708	-2.4869885381850687	-2.4447479186322925	-2.2410669270200727	-3.4627611549689163	-2.057976002265658	0.598541019835875	-1.7179025368232965	-0.832864699645113	-1.8331992579906353	-1.3161979880480743	-0.8045601824474405	-1.351983543797263	0.12316860227482171	-0.29658049270137105	-0.7344090920026068	-0.7182914596542314	1.6996408658031186	0.2958813302199209	0.005758270606761508	0.6490585787598442	-0.17762733951067866	-0.06699312461389771
96	-4.827556597919013	-3.251797667876426	-3.2540233053067196	-2.408327573417848	-3.6645657923683443	-4.132760991152695	-3.325299016186336	-2.2099797669880865	-2.7953441072460232	-3.13205908938235	-3.8926529786058337	-2.5798420840932144	-2.5241770680594384	-2.041583532900917	-1.905739183382746	-3.1456954399796353	-1.6324249464781937	0.12804001537420928	-1.264789339686963	-0.5712307677151907	-1.4950196705265857	-0.8181525448169927	-0.8023973087079367	-0.9470977759291205	0.41964897407438406	-0.07595878820315047	-0.0949130800950309	-0.5949500188111585	1.5709978302392391	-0.01436707653203211	0.19307249735723483	-0.008467486106832674	-0.884617922456801	-0.5672373161299668
100	-4.300847996343551	-3.146738998097728	-2.7382121016987395	-2.1692693178721205	-3.005891077081875	-3.596547594526768	-2.781404726635465	-1.9912135550770391	-2.368628495911878	-2.5145609315328135	-3.345473281043238	-1.9899409959142975	-2.1140730327636748	-1.6420429903534466	-1.287970182028034	-2.564655774317103	-0.9978398655493916	-0.7052714806870121	-0.7145324331363172	0.029704457073913025	-0.845231948149045	-0.09625169610517814	-0.6128647907996195	-0.4144213189152346	1.0141804192686643	0.5904673919074981	0.7776697258388493	-0.1942292297943092	1.9107302379050568	0.29557886645077186	0.7270286660912174	-0.13400134410404668	-0.912529227813883	-0.7697508911725631
104	-3.764885416062205	-3.1199028413203904	-2.5133297379934416	-2.030517096161279	-2.5490803654208802	-3.1065988462215333	-2.3211889208363385	-1.8404101086880669	-1.9399374674455736	-1.953611011341105	-2.836862795343103	-1.494086500210338	-1.4777283631209013	-1.399679776472557	-0.7061512452416756	-2.0033814856493453	-0.4395535577166805	-1.7158316330504488	-0.3398239902022839	0.7130071502803659	-0.1260947432910698	0.5970373734659227	-0.33435234343036235	-0.003982538812983396	1.6912679629540799	1.5455809792597095	1.6754088359494426	0.3832955350735316	2.6523933343678037	1.2313593594933503	1.5752211769387814	0.3306974462266079	-0.22184403184670462	-0.5105308877453046
108	-3.518841734585017	-3.2497074521987197	-2.7576937605851	-2.0706708378964485	-2.5184462006880435	-2.890224449489994	-2.143470281911256	-1.833394761225005	-1.7570365622982231	-1.7226210789103824	-2.5870900088796027	-1.2888612714651764	-0.8521736242713505	-1.3672782148173024	-0.43752977141540883	-1.6852487283119895	-0.1485225107496276	-2.5529391701138966	-0.3427759400296545	1.1924109428817857	0.43269464264343666	1.084309575204276	-0.036858662869854335	0.07458707671407526	2.1746470873287578	2.5421161587429064	2.445819848561227	1.0233100626858607	3.5209097773349227	2.551568024868945	2.6312491827335656	1.1880444258258547	0.9294113493342175	0.23450750053326117
112	-3.64286803279483	-3.486972084778395	-3.365550271120112	-2.2170624676995745	-2.8757657932154634	-2.9734406396180284	-2.246599430134156	-1.934121961478811	-1.9167542409187175	-1.8771921348860947	-2.622814887100563	-1.3614937032657448	-0.3725629439484376	-1.4824615679505648	-0.5668408260339218	-1.6537932115762215	-0.1163635772508994	-2.8288133072957993	-0.7412773352027344	1.306453343907638	0.7393466811586892	1.3621110881747696	0.2850330762819323	-0.23035101534382701	2.2800788821828073	3.3800165567891547	3.079813472601416	1.6684194761114373	4.196579922571158	3.9143037697193837	3.7950811290291813	2.1172597354839007	2.155539268773485	1.3803423608261889
116	-3.985393275689192	-3.691323986270513	-4.009762277016216	-2.322448486186552	-3.357321015464619	-3.1900145926997716	-2.4470467505661855	-2.0206901976112603	-2.324534410329845	-2.242695802748382	-2.7857170034647876	-1.5167081317755384	-0.03626861786626097	-1.6369570452368927	-0.9569280123392381	-1.768499965971063	-0.15612105985802185	-2.3167843760171367	-1.3685755695122082	1.084304806832706	0.8695743658045663	1.5847724636120544	0.6958597880914505	-0.7932356575965767	1.9984781691639224	3.991063107904491	3.6986207868654937	2.3319914282095775	4.474906910088665	5.038953768405794	5.0123586528113195	2.8346507477717835	3.139313689888936	2.7763867308137837
120	-4.273396481215106	-3.7132615949339978	-4.322340477520977	-2.277791017503525	-3.62973617590965	-3.292149773868907	-2.4924313959136364	-1.9497383783705358	-2.7589280535659926	-2.529583686164074	-2.8402750420385896	-1.5014927349328502	0.2501240664365974	-1.7586430266801534	-1.3452645506272762	-1.8016006901077677	-0.02308638388050185	-1.1037075491695831	-1.9774901816986015	0.7025399786377866	1.0000200246358366	1.9558393905850515	1.2605729071261973	-1.3936659062484826	1.477523084724813	4.43928908180945	4.458203304478982	3.0585706156756785	4.344978798386673	5.807427868485847	6.259725554874423	3.202445498964163	3.7558858299795803	4.244626511347557
124	-4.278135765718521	-3.4739038856536744	-4.090741624040767	-2.0880908913345224	-3.4760889919256233	-3.0965838354130786	-2.205145830309007	-1.6264529187146461	-3.0009393616250164	-2.5084419187156213	-2.6165003710490007	-1.1560206384082328	0.5775105938635812	-1.85932564265978	-1.506022330296475	-1.5789595802496552	0.43212240825271525	0.40553894536626456	-2.387165778808801	0.36469989922952034	1.2862404552410194	2.5884771281693135	1.9791176269154398	-1.8516563130358936	0.9162617898695837	4.842878806284869	5.424718366278268	3.8561036489404215	3.9499390025548284	6.258576377326055	7.488109569717388	3.238529435564344	4.067862977247944	5.59313009757304
128	-3.938813199589144	-2.9979724808341675	-3.359719744782904	-1.8673201752247397	-2.9083480761532208	-2.5803341800392374	-1.5769195516827232	-1.0501382324408188	-2.9513606950631788	-2.141513819056088	-2.102292293962852	-0.5037296401657354	0.9571678614292086	-2.017744297655319	-1.3790920938005369	-1.0803545686148353	1.1679187983589667	1.6522705513246336	-2.5817291671420386	0.1820712829999776	1.7620615914679703	3.4186777982229164	2.7526795794606747	-2.129003996242213	0.44508644826095406	5.275434003862206	6.497641070173403	4.643220889766252	3.472928992086189	6.503440363676827	8.57398030977368	3.0503754538769114	4.223174084491319	6.620996935340474
132	-3.3748268995909534	-2.385490173039106	-2.3879871308117324	-1.7553750232246592	-2.1465277617619347	-1.8735804510496934	-0.7639164905334545	-0.3150626711043388	-2.673791401788144	-1.5922509391638517	-1.4335958921477303	0.2692296200153747	1.3095139231998376	-2.305285686394679	-1.090993878471091	-0.4412290740794088	1.9702410648193207	2.18466567441589	-2.7028000286527707	0.12661662665824427	2.321699613431485	4.226288784800838	3.4073238286776077	-2.335804456535522	0.0666531918750213	5.713310227274497	7.433992843932388	5.254246221628103	3.029822580317352	6.631525976604174	9.330725646303023	2.7541377474867783	4.33552597858632	7.148959618638845
136	-2.7925922800129808	-1.750448222509254	-1.4930397234414357	-1.8155422164855324	-1.4889124594290288	-1.1688358754211654	0.00346066545752655	0.42795792113974024	-2.3488626420799457	-1.1183264227288654	-0.8024247268444642	0.9229770279469592	1.5159242114894318	-2.7139651706839074	-0.8653380848971405	0.13310492005121044	2.568472378921725	1.882089252488477	-2.9492740556641506	0.07134128343928442	2.78518270743037	4.7481241106317675	3.765290727645654	-2.647390835753725	-0.32005035796422837	6.052446826912644	7.959679583480401	5.50378750365188	2.6226146154946233	6.6608061622297114	9.582309698707384	2.4173362194064563	4.414257992089933	7.0788821995347675
140	-2.35630821586791	-1.1682549685546513	-0.8844098426424155	-1.982490176917606	-1.1543885440291137	-0.6102278217167691	0.5367197976866608	1.0238014433761484	-2.171556705714246	-0.9183347798049932	-0.3458997598498011	1.2901458707661324	1.4964508972533188	-3.14301871459882	-0.8809746481587485	0.483604340524393	2.776239388132271	1.0158779595475815	-3.446094265820322	-0.11439704866137053	3.0022706909673587	4.814396369222991	3.7226705457159066	-3.183741084643711	-0.8341720679203157	6.177741511960075	7.904076556277035	5.273070322074961	2.173004621741474	6.552647097256205	9.257395720951052	2.051600927895157	4.37692545739415	6.449006064345267
144	-2.099708313409073	-0.6617430431824699	-0.5787500128439115	-2.0975208229513393	-1.1803536385299034	-0.22844991030235456	0.7693213204987515	1.3584675754581386	-2.249137634320863	-1.020064232158167	-0.08180434236138458	1.351163264677935	1.2662705151058917	-3.4521887215239295	-1.1648111313975136	0.5768442735413194	2.5817074710513954	0.10400191668240102	-4.159164895047214	-0.4771768438689442	2.9335579798066127	4.434640396365865	3.295589438700921	-3.9232311149727233	-1.5222723445605624	6.039232238780724	7.286165219030959	4.574593055619452	1.6042605598000343	6.269390567209641	8.446315744055962	1.642443175937458	4.1237811938120865	5.446098790723799
148	-1.9252710293798805	-0.22281092349064863	-0.4341873217587781	-2.004904980365958	-1.4261975252383088	0.049056738491179655	0.7666868548109753	1.3893040383548323	-2.5503911907654713	-1.2721873489685167	0.08008516559646849	1.2257585494565266	0.9395202374579565	-3.5462002664678476	-1.575363155202278	0.5101187216277234	2.145322555847619	-0.3518358758149621	-4.904775607123468	-0.9461427307082957	2.6690449647273735	3.7931578063564246	2.6176726751994837	-4.700367438846825	-2.3135774077177387	5.692431912355286	6.311893447198766	3.5624995141683953	0.917889711923579	5.831776127396542	7.384187679720976	1.1882075041335483	3.6226279644102624	4.349361885533809
152	-1.6883051352790652	0.15138152203486688	-0.27336224844579776	-1.6513348776133119	-1.6685429769351001	0.32525876082316396	0.6681280715286234	1.1509643764047022	-2.930511944047702	-1.440814014611806	0.2630923085722823	1.092670318705811	0.6761800629710016	-3.439166537184859	-1.8846492719751164	0.4440650034660171	1.7112060742089779	-0.10942030670435017	-5.4434962135208975	-1.36978613984454	2.3773479401647655	3.1592657486306766	1.8890067291250645	-5.2861218318991865	-3.0436563414976354	5.280648695011149	5.2863464222001335	2.479258292614376	0.2201602304383734	5.336991296645021	6.361994250447518	0.7281154971813079	2.9540872499269004	3.4196202668637254
156	-1.3046864238223774	0.4373662162705581	-0.010866153026504944	-1.1295740575881632	-1.7272969440719168	0.6521121843086226	0.6044766291615569	0.7418938260420898	-3.209361783507858	-1.349479195048703	0.5395697937694006	1.0940510006939024	0.6052523836113499	-3.2499380029641287	-1.90744995589277	0.5111439215152718	1.4915910921584719	0.7157651763964494	-5.603168950239344	-1.5945534665857117	2.2233886662614832	2.770427696862764	1.3045988049947788	-5.5014929632523994	-3.5255758673347386	4.977424609015242	4.495927799317819	1.5698504408302099	-0.31147769014872934	4.932479845945123	5.618424401403221	0.34603613527670285	2.2986350001474323	2.800617449365278
160	-0.8103933909936567	0.5978919252559098	0.29868832155156383	-0.6322038157713925	-1.552680250062403	0.9957230065955381	0.6417909844407297	0.2994738511630754	-3.255343190557294	-0.977167723095938	0.8925126172420141	1.2807054487318617	0.7691969256054193	-3.1263863961441087	-1.5967780311324025	0.7564415912603346	1.5892578323293676	1.7414178804300027	-5.3581738336703975	-1.532539721434359	2.3048224390966543	2.752448790276687	0.9959660743363185	-5.296757684686054	-3.62252186814283	4.926202761610385	4.121386040772479	1.0039887402935412	-0.4955598401432561	4.76676176775024	5.271010862393881	0.15669450124279688	1.8762843561484575	2.489083522234345
164	-0.33696117912094975	0.6217254980602683	0.5196002708667853	-0.33808377299781517	-1.2225035398135606	1.2704865900387896	0.7790617327094193	-0.03046630874034738	-3.0317888183342387	-0.45337739472363353	1.2446976868675113	1.621814962107093	1.1195496292458575	-3.146696082753598	-1.0500144931985775	1.141235467890447	1.9903713414484894	2.540891402505154	-4.8222222206436625	-1.1799093455088692	2.6383371286537805	3.10875891854274	1.0077289317437539	-4.754143702901726	-3.282512656507374	5.207176672186395	4.2152805221943535	0.8396319725772461	-0.20971040374737995	4.9452390545921086	5.317109094546781	0.28136750984679	1.8685103607686098	2.3907883106905246
168	-0.02161299431827713	0.5554236159606663	0.5465969429520982	-0.300963013604384	-0.8678223468804619	1.4119380676861146	0.9845597719130292	-0.12958167460627126	-2.5926220351565292	0.03602517759645171	1.5274057349742376	2.055902475888447	1.5540720185143946	-3.2641889966567863	-0.4332753408936948	1.593973871021379	2.612118714413335	2.8651475834034046	-4.168547142948331	-0.5876507148211036	3.18799518733988	3.7643158340781695	1.3043162789792568	-4.022055615760813	-2.530559056568716	5.834307179025894	4.733037936658627	1.0314749453251584	0.5717897996771276	5.504617677142216	5.687190995162707	0.8059970716154131	2.3496560991091924	2.421336406316523
172	0.08744826890801378	0.4987573611064814	0.3964487304214875	-0.41023051635165764	-0.5805944189671844	1.4365161621064828	1.2380261389946459	0.05723999798747333	-2.0399832674020275	0.3715886166250766	1.7391003326376973	2.541750901480645	1.971569771557299	-3.324865571210624	0.12705947426664616	2.068970913431746	3.3649845038333326	2.744831555112203	-3.5293898493349967	0.1871042395874598	3.907425870566827	4.6263184430621	1.7966183378635718	-3.227542869048503	-1.4370363914447688	6.771530611107875	5.585798726284176	1.472401734449352	1.7751487448696817	6.410912497546912	6.312172396935611	1.7326214269762594	3.2545223153915193	2.5935316020335053
176	0.06970754248185755	0.5621984586826666	0.2185618424857897	-0.44659691936271606	-0.3559524407936588	1.4486396276138989	1.5502166708907668	0.5028436171233862	-1.4716154299774604	0.5788860306429454	1.9558664510937112	3.0762810629423654	2.315288299437052	-3.142516128235343	0.620382188184357	2.575012438948548	4.189305294903978	2.4307262836121515	-2.931909315336288	1.1156868906462962	4.765828120596836	5.622188077083416	2.376011127195118	-2.418544047925135	-0.08576846846145303	7.950494269325125	6.678647978133152	2.043689484204804	3.255362502462152	7.572814445449573	7.156000596099095	2.9520742818686285	4.395040977825707	3.0205285472902803
180	0.08547681548472279	0.8055728653596177	0.2081259930839608	-0.20429195412078618	-0.10563774380238976	1.5841050108015446	1.945308680391302	1.1041007014055289	-0.9491128301499546	0.8101224878838366	2.282617563206671	3.6705050375773483	2.5827045375466806	-2.595105403070181	1.1472346753719436	3.155118219039097	5.049795138007329	2.2254629078944297	-2.3066186846670704	2.1947100107095	5.741556153106504	6.6983017752331895	2.9433286115721056	-1.5679719408502113	1.4388281070621936	9.27850816291435	7.918943385157957	2.6521961622033845	4.839258181751775	8.861029602567015	8.197880724236423	4.257186402062917	5.522000298863465	3.82699417101709
184	0.2694679789892297	1.1912004917587433	0.4767610418680409	0.3834377815579289	0.2680716209796021	1.9202517222560174	2.420026534646246	1.713022823777145	-0.49742680662451966	1.2383619515624624	2.7728376318542383	4.3055958639157925	2.801997654516212	-1.6860662656176646	1.836617345941295	3.8317921064908163	5.90300224721183	2.3100688399165383	-1.556834336164891	3.40918420884564	6.792325002687454	7.793037394875253	3.4270172032616757	-0.6290517433496937	3.0450484675774945	10.639588329155687	9.205611205700936	3.2436516203048296	6.367949469701282	10.129649136717575	9.385633444931484	5.404456601803057	6.4107265310556825	5.022710310652616
188	0.6282984002462796	1.5806757171776955	0.9609043573914546	1.1851152151704083	0.7836174945120346	2.4062311588571013	2.909209959314497	2.1817624513855	-0.12924075094017795	1.9262202929501768	3.3666169558403194	4.902758585949361	2.9938795490970644	-0.5431213961240201	2.7353641917785616	4.555488098087121	6.669527513831228	2.663799040744647	-0.6462802870645882	4.690229880889021	7.828698615335754	8.814065910974161	3.7906920814175815	0.39500540395189543	4.623593795547007	11.901712387553603	10.42286393395091	3.794359674410641	7.729870776687566	11.242305727231141	10.603496524742416	6.209712489662559	6.941960317251067	6.427083476052227
192	1.0058441136714253	1.7855009987574242	1.4278439247321377	1.9174439858663168	1.3369001116377743	2.8604404854080867	3.2867658055292286	2.4066703258786974	0.128724544915404	2.7530679633250505	3.889335384086012	5.333258615380031	3.143576852491088	0.6258437021666922	3.7411079312284388	5.193788515329327	7.237957936132651	3.1044940870105386	0.3495538225885308	5.90291021764053	8.717119194910335	9.6442928070714	4.030651559190038	1.4173647129513443	6.05386970898913	12.940462079755232	11.454815835642359	4.293109882959768	8.879425026409733	12.103851287800088	11.688844651274637	6.634454710422464	7.144038182341456	7.70947788199418
196	1.1488654584488809	1.6506200987149702	1.5840586383880266	2.275815242743499	1.7364466146497073	3.045740596710879	3.409845105145241	2.3555061757698375	0.23268514812849939	3.451957932339942	4.120679368105806	5.469254956741996	3.2000918307572146	1.6001138646734798	4.624998080974369	5.575640187491465	7.504918556338767	3.411099663705306	1.2653428284169497	6.881327134878516	9.319913840605222	10.179796193170555	4.166282643289741	2.297153705519214	7.231996994833004	13.675404514117941	12.219740836762867	4.727256286130011	9.836540197333091	12.68916412964507	12.49668118182782	6.8097824878423525	7.175694924357477	8.53791997661277
200	0.8350402095692774	1.1299618454060927	1.2288669316737153	2.0810763783364856	1.7963609650080816	2.7841818262378286	3.183532945224681	2.0665326066294307	0.14062206411620823	3.7391958142288715	3.8984479805748453	5.245033250917721	3.1012761514565295	2.1972281877356132	5.134365068824084	5.567424760113526	7.425050239890025	3.44615816199936	1.9202136944927468	7.49253795639444	9.550499891963966	10.374804470571274	4.224481095138654	2.9054484294015084	8.102036455679578	14.097445452383447	12.699337927226805	5.075963484346289	10.661293002867978	13.04987618012596	12.970564809476594	6.971114617867157	7.2484941299537065	8.753132798029858
204	-0.004560099437495559	0.3114075056796835	0.36392637995390065	1.3657072748035686	1.4354248010634008	2.0498480745060275	2.609909289446379	1.6204178292370854	-0.15809094865939144	3.462566366990282	3.201871148608557	4.691996085718546	2.8089077401768665	2.2957971038075513	5.1192483772728945	5.139613615411174	7.0369396032051155	3.1982378878908015	2.2029571477583803	7.695064048412407	9.412803626137299	10.262124989349415	4.21976374514446	3.1906850257425123	8.671506859820417	14.267952882983229	12.938362088915808	5.309158311790976	11.411932916439104	13.287568058798307	13.170072522290756	7.329285603138399	7.518559913726201	8.458994844060571
208	-1.2313353984262112	-0.6198865159596563	-0.8006716350367565	0.3576191356689826	0.7320208531017762	0.9936622952169214	1.7971963837071443	1.1034661503588523	-0.6211991890482305	2.691204541087442	2.173930401081788	3.9312674899982096	2.3331704080802584	1.844749803653917	4.615770805149277	4.391572941182852	6.452548487584614	2.744464628919892	2.125084633230258	7.561252098066656	9.005314804229098	9.939806913075786	4.142377842935056	3.206237546455199	9.001507736367616	14.28854843346834	13.015336003821565	5.395712362018005	12.105896919203614	13.50281044411913	13.234519925082143	7.94280240914557	8.002694109738988	7.970355490588457
212	-2.5467894013000776	-1.4589281045318927	-1.9428641747059456	-0.6247354134045368	-0.10039458398505725	-0.11351177812765972	0.9240944362197423	0.5821075424756322	-1.1567052573563943	1.6954407649149803	1.0706913444189565	3.130190841401227	1.7392636493639695	0.8867850281260733	3.8419346712387683	3.5214552790425295	5.817358955954671	2.1840131227665367	1.8129119827275249	7.250865441135463	8.48764894249897	9.533078169595843	3.967447986122683	3.082488290633603	9.177322364524802	14.257203066115839	13.001978841379701	5.320920930779833	12.70796581874555	13.746682132346187	13.30304333189156	8.674137093578425	8.569086053194239	7.6430988118797885
216	-3.617955198690248	-2.0645275063842488	-2.7804610659017635	-1.312814470791297	-0.8085394481272438	-0.9934501026820567	0.17364747778442924	0.09553695445973918	-1.6527504879231534	0.8207365849754162	0.1609766181219392	2.4430887637445133	1.1288008661380888	-0.4200873662356002	3.1022720258589223	2.754271261890738	5.2600655422921205	1.584546085171769	1.4474461042099298	6.946141225443636	8.024317721134588	9.149912811066171	3.676049223201778	2.962812654644251	9.2756910089908	14.232445680924439	12.932866063844234	5.101169573302426	13.153687443901948	13.999785387932748	13.435708012037571	9.26228711650755	9.010365463396033	7.680448035876067
220	-4.216937054477769	-2.408380025505118	-3.1928925433608404	-1.5950380523465122	-1.215137955458683	-1.4735777340878013	-0.33294549500328074	-0.33705437098282076	-2.0213837572561157	0.3245677939803498	-0.37620758915331654	1.9638904283531158	0.6016902312346318	-1.808804745875712	2.649487727151629	2.2606036605980666	4.856077658790608	0.9784005259607148	1.1831525534321996	6.778907281926652	7.7301392360069565	8.851489044729774	3.2752249158183764	2.9371511862031805	9.343243575348566	14.221349680281067	12.80126663790696	4.784839141209237	13.393590893308456	14.188205683172365	13.580707515760837	9.474584555546747	9.156954742200735	8.024579981570938
224	-4.299389828317447	-2.5583224231978394	-3.2441201128115815	-1.5340999326120606	-1.2853467431995136	-1.5380802115708223	-0.5644540176445623	-0.6963852626384637	-2.2283010426528893	0.2717427008443722	-0.5014333116269164	1.7163664059220236	0.22447834852286916	-2.940208904472438	2.5840115481940154	2.109825844206283	4.624834048992362	0.40537780420952113	1.092968937975382	6.792700750367169	7.647789935830347	8.654385544861203	2.8123102117106344	3.0140161438185635	9.399687743296878	14.201644861605232	12.587581602740896	4.443955887065002	13.437843288826613	14.235599481880833	13.615967716172303	9.256216025824637	8.977213836892819	8.408699014414607
228	-3.9833426374955168	-2.6056680613534495	-3.101708165920771	-1.2905435529550697	-1.11031686979346	-1.2930798497931486	-0.5575268254509006	-0.9432756280925485	-2.2888295592694785	0.5422519431728766	-0.2897148423032846	1.6829662280507234	0.021645151024052265	-3.488234272732972	2.8420174050102647	2.278167003601819	4.558911312037218	-0.04273866106210105	1.165129658618389	6.956485730727578	7.765083293383331	8.55889699682348	2.372835153310925	3.143296949079929	9.459909415202938	14.163316690925633	12.300939528879637	4.157502640717914	13.371478046989775	14.121881449331028	13.440835918823941	8.78365514444938	8.605743386475712	8.538827874559695
232	-3.4526576908678384	-2.5848002368516925	-2.906637899689643	-1.0095190976404183	-0.8254135826251985	-0.8767455198086777	-0.36684325244790955	-1.0184038851774957	-2.2382819596046186	0.9370757913772446	0.14285449647598936	1.8439524127181248	-0.011099356198599877	-3.256270638827657	3.266303292610921	2.6938948563272316	4.6556095959422485	-0.22360737565328775	1.3368419375046203	7.210950833234529	8.050445536315204	8.575026490496136	2.0562379308283956	3.2636439717863364	9.550332998959016	14.136668169569575	11.999343841774882	3.9866061109980198	13.322215046625871	13.908347094706576	13.054701772154793	8.383665063672147	8.27785966690559	8.282316186974905
236	-2.8452284264254977	-2.431767695963038	-2.6733007363535917	-0.7368175368779653	-0.5131896721280877	-0.36727404501693606	-0.017735982268973122	-0.8609403946120705	-2.0940062946856766	1.3142075505454702	0.7170156818406799	2.2027938310321082	0.11816244542567897	-2.267061466215307	3.7145111467039142	3.2913262760987694	4.930464732119645	-0.010331404369317189	1.5418856105022547	7.5182041932070796	8.485058763062149	8.729989029777744	1.9417407463640555	3.344161502024333	9.70712373190056	14.191510164670369	11.777489632435108	3.9566202063801232	13.397108997852797	13.717473949131357	12.581081358616682	8.358666398879306	8.209840753808278	7.764061431355882
240	-2.191651577184507	-2.0104727694296596	-2.281145805321593	-0.41173386469838696	-0.15155926308513834	0.2554930442081525	0.5075564371645881	-0.4402845490783603	-1.8374596787791342	1.6701523023399725	1.4252407514827898	2.7812755037659183	0.4126141954971745	-0.7766579966009862	4.136210907983585	4.0382947819795785	5.4042706353118275	0.613548634887401	1.7392170385318728	7.880520323884117	9.067825294488754	9.050286270180008	2.054986233291273	3.3918721590236265	9.95045945516315	14.400267564656003	11.721928566901557	4.048005093844711	13.615865673020705	13.668765033543885	12.210455863641778	8.806467987714536	8.479410150100337	7.296716671641038
244	-1.4363160097098324	-1.1991398304227803	-1.565597172599066	0.06352438016588742	0.3592817178238274	1.0720866891496257	1.2393878667057463	0.21284408813621195	-1.4323763811187047	2.118483299628761	2.3042809905048816	3.58486460734313	0.8790839888312465	0.8072760680797743	4.5749831084138775	4.922142970055694	6.069353565151209	1.4999809227265841	1.9101320456916013	8.317134836178987	9.791096662596752	9.528897261403273	2.3513679445028197	3.424443713125351	10.25189683233178	14.786226235251375	11.85881993160721	4.201619614483483	13.88339229893218	13.807868922658013	12.09458348081665	9.546430563666135	8.9765653383593	7.18732307526806
248	-0.5224924074332749	0.010029770408580005	-0.45034360771919285	0.7242873292756289	1.1068638535210502	2.133431190826373	2.1649043505369496	0.992957768317455	-0.8691070057860624	2.7808403898601566	3.3652465258511035	4.561247337269358	1.4990531168283527	2.072820419800201	5.100020395754058	5.907321915017087	6.858640653459964	2.3655230939269205	2.036001200303927	8.816468216571124	10.604736301350615	10.09955022169347	2.7233152320769265	3.4329399975887633	10.519321415091657	15.287934264685369	12.124347656156543	4.334195126081135	14.021989786985575	14.069766009093955	12.253241508065004	10.199775670048822	9.453240370725148	7.539329032936459
252	0.5155919777250498	1.4572063647672577	0.9600719785292678	1.4818187914629297	2.0705897755797587	3.3756768618233046	3.18366979748874	1.7359619096796175	-0.2082496578203963	3.6641695406908776	4.527655590070234	5.580006585338107	2.1969821397626017	2.7507142951181023	5.716191277377086	6.896182996504828	7.639727573179804	2.905366651829083	2.077948088167992	9.298553443320284	11.394440622171745	10.636417362061643	3.02886318395747	3.363803139776867	10.614438030146921	15.761010130190185	12.37500282977907	4.3582367786998795	13.84764953931783	14.2947044011652	12.54313847235994	10.37731263401709	9.639039015275582	8.160593012233397
256	1.518862958888018	2.845953695741293	2.383304113092843	2.144248718570057	3.0853590887373166	4.5977215650825425	4.109905232543409	2.2675290050477446	0.40979087249290436	4.607117641261213	5.605531678352276	6.452864153782547	2.832568876744325	2.789518587698964	6.316611274030117	7.727231483023575	8.24444673364034	2.9363083765281845	1.979405517348978	9.620079969913293	11.997605293500463	10.986523600496557	3.13667844934078	3.138849727335176	10.403656933266983	16.025049169135368	12.439211813991959	4.205045689456522	13.256348576455254	14.295855486062196	12.715760198913857	9.87626359353407	9.367626166534563	8.645645119773407
260	2.2608485164781853	3.857007016934357	3.4697685154095983	2.515380376187117	3.899070014646151	5.529017434465866	4.735136973823737	2.4701647696118223	0.8118569234377766	5.342133985383258	6.369014247072861	6.997802239870089	3.2379755892064894	2.331269735172459	6.719499094210433	8.227746942727913	8.530581452766551	2.4949548181484764	1.6979802804038688	9.634796118252604	12.262668578658879	11.0285949428586	2.975585214731632	2.7084028652475114	9.825493787754048	15.941678960605621	12.19242760440995	3.8497862718659173	12.281464545713474	13.950995410028588	12.542107550426508	8.783853508706692	8.654231049622336	8.59599015926645
264	2.570235245891151	4.295949448229698	3.968018521781033	2.517941706975938	4.301791657077253	5.961615070550176	4.92907189078405	2.343707317157049	0.8808419682198134	5.64493940835532	6.6586365531653655	7.123121720449684	3.2966043865895935	1.6184121329454573	6.775062067092611	8.302575090427172	8.450765588405078	1.8390655471146182	1.2475023238156915	9.283577895567566	12.12935539997935	10.735465976313522	2.574606412109363	2.1050705856581082	8.944219566651414	15.489854773513946	11.624475449776998	3.335269204302033	11.097202273007648	13.275092091422579	11.9408511814001	7.439638595871259	7.693016986497409	7.852516154490709
268	2.4465494094114355	4.193696011445627	3.8523378274930202	2.262957090386436	4.251208294625617	5.870907768685684	4.721925246714759	2.0255613275885858	0.6359563453830426	5.4819650511618105	6.486012919262819	6.885745507975272	3.0199732704209548	0.8761638380817832	6.476540549139029	8.006236056141178	8.090282419759546	1.3296958174512514	0.7187068444226222	8.6583776255396	11.682206124374893	10.204327557549538	2.0715918488651925	1.4576957188996282	7.953313330597305	14.795246086913172	10.86148259281665	2.778339140553117	9.961831067683267	12.432548491560052	11.03827855184294	6.276488765128731	6.777055246408867	6.609121782782566
272	2.0993878788395697	3.8036475085546724	3.345109692711026	2.0179142901017895	3.9202334781852475	5.455780492359511	4.319406021656804	1.7521018937697272	0.25786527926190134	5.063746439546812	6.061604484512815	6.49026344568031	2.5786719257099384	0.241803362355089	6.0053467598928885	7.553308944705363	7.651930312864571	1.2557394472842747	0.26289093428041704	7.998446444344438	11.143922777650433	9.63723561714781	1.679989214470288	0.9540773606054074	7.121057492397035	14.096472704583167	10.130980466059917	2.3500654638084764	9.128585792382223	11.682291955063153	10.129365895446318	5.630253777594057	6.183655246381179	5.3467712267350755
276	1.8736768913646964	3.490962496526743	2.8184778619178408	2.0786178059549973	3.63314460790788	5.0656099191563655	4.0298509496034365	1.7686244204690398	0.028652584107895042	4.761569964784832	5.721134171346541	6.216513141195683	2.2527136745797787	-0.2316062742584663	5.668625817292099	7.245795708482247	7.383264522985026	1.6902240472081194	0.03544064602248615	7.6039552496617215	10.796231242578562	9.26908204599479	1.613577361801353	0.761854944689813	6.693030340462562	13.65276714692656	9.674870466601131	2.2219204846550826	8.75805852586166	11.271661729964642	9.546351408698072	5.610506997248406	6.070676788261881	4.604356754122187
280	2.0828156418666404	3.5584409147065963	2.617517703123459	2.605162137129873	3.706667175471277	5.034612642928473	4.122178067290255	2.21544551290019	0.1982408607961437	4.916375147804631	5.769682392812102	6.293690188730321	2.3041148127556674	-0.5221151696374439	5.746631607805603	7.335127335148797	7.465591411815256	2.443411105662645	0.12223125218286991	7.694007854109654	10.85034176948052	9.262581801870576	1.986438507786849	0.9433304643656034	6.783458215753053	13.62390228646477	9.637544607625546	2.4839987692106837	8.858247734593082	11.318471879992941	9.491633391258098	6.078513606937164	6.415431483283793	4.70226382022021
284	2.834774010176868	4.093770493662026	2.8969175742442137	3.511813393309427	4.275733936958716	5.50460098784172	4.682314384082834	3.0435676497864335	0.842317161817598	5.639426217146095	6.318625911018438	6.77967355923795	2.8302135396073274	-0.5863536581494211	6.328871711010881	7.8848409453636865	7.917144278564599	3.143780700375705	0.4895175981083404	8.280594804838136	11.329921693806806	9.620345091372585	2.735547774084006	1.4127454722022035	7.308358173992017	13.981185877786837	9.984519933287604	3.076842061857575	9.276924109878799	11.741020172993492	9.924645398831839	6.732561094452112	7.022217732819921	5.572701440092879
288	3.9411373038923583	4.915328013407861	3.5476102739410944	4.4755196458354085	5.195660101170549	6.327998145339259	5.541017518358909	4.002985467340943	1.786775584478083	6.718225462164088	7.2000422295938575	7.50461624158123	3.6767308619177084	-0.3595958939056452	7.229986172541938	8.705578782036639	8.556319215152742	3.4117183599165126	0.9832174753160764	9.125746703949451	12.02708241287184	10.155700657953071	3.6070036797054468	1.9584089468148311	7.994031409107782	14.493244134550654	10.490389797427886	3.7759253883396298	9.745562528800582	12.268910377043998	10.556800815631796	7.242413025690495	7.587059001840611	6.775425893843401
292	4.965728747228365	5.648242459341853	4.2515916716998445	5.069056021289999	6.078578933627673	7.107783299620491	6.320415957705814	4.724061954015273	2.6494107179507735	7.6844472691118195	8.010229090493889	8.116991976271702	4.471920478974378	0.19156056594167956	8.039419153896754	9.405223822689639	9.053015686066672	3.040832035016729	1.3810309136808956	9.814709638611353	12.563219992389806	10.547220203473367	4.232198704524686	2.3209989012292747	8.464471795645865	14.8013724907063	10.811084720019089	4.254283417451106	9.95908162463601	12.53613087350068	10.96292588327098	7.3611268811341795	7.796037177429936	7.6883592411478405
296	5.407031522450852	5.895446285622021	4.634026515704993	4.95732830703351	6.457124216943178	7.367261867996132	6.590737326194461	4.865963923566673	2.9968814774189534	8.022186259042801	8.276883104408055	8.22638223478458	4.78637694104056	0.9970878337481591	8.296161630665534	9.547890639040865	9.06019208527951	2.0969955868229047	1.4817020855687542	9.926959966391914	12.543721167365794	10.468440029416898	4.278232563661391	2.2982544840961467	8.38408754139325	14.566361390530602	10.625463458891057	4.216052998388693	9.676073049911084	12.230966537112941	10.770158740508158	6.984400731572626	7.43758533507322	7.792035083171241
300	4.93309687322628	5.423688874856307	4.436229694610144	4.062374104733726	6.001006111252725	6.773944360796604	6.070525630883113	4.271294106189896	2.551321738477355	7.4159121326132915	7.677502135920125	7.586307029644024	4.350329388125361	1.8507889462473122	7.707480887980667	8.854732491071683	8.37597368032975	0.8954135156912635	1.1916620701267184	9.22829911763096	11.74108406917253	9.742290472229254	3.611939421117546	1.8300584508467708	7.5985078619801625	13.625547374656417	9.788973783573791	3.5468754678821584	8.80802629154361	11.239581079716046	9.837255453068591	6.154309734065133	6.487739069771156	6.905870897023581
304	3.557369938451976	4.280225742977649	3.638276567810084	2.620167725623482	4.687319266882698	5.313349710401	4.7789931176644265	3.0586626452469794	1.3480042185128152	5.91819046433657	6.208011134686386	6.233967288490482	3.2212376513215024	2.4588899550345755	6.307034476568944	7.35414455464424	7.0633897603038625	-0.12535707620919198	0.5721065983633089	7.795816401826245	10.222026799143036	8.450197198513935	2.4000527798138624	1.0290137503393069	6.214293464229851	12.089397399897127	8.42819307106705	2.4061496197032546	7.467218857032094	9.719514822262342	8.339258172915123	5.028848158537509	5.137586103819613	5.265685545024514
308	1.6633688169445013	2.781579010616348	2.470183843098102	1.0932112904604268	2.8358695435450736	3.3231232082389486	3.059110872174559	1.599861975445295	-0.24218471287139912	3.9474990268224635	4.214632023660835	4.511023033196944	1.8046600773070747	2.5602886612147255	4.4669546968213885	5.4021034104332655	5.461163030187719	-0.5796834215787374	-0.17762730970835636	6.009001239864131	8.350898721591788	6.934444886819602	1.0817146273958862	0.1407741304658075	4.576464164623517	10.326601956044536	6.92318676154285	1.2013640373416032	5.948369488003051	8.064643839502013	6.7178244421150515	3.8369338415547385	3.746186962206216	3.4230625543001025
312	-0.14517018162315032	1.3799155915706744	1.3098080125164169	-0.024771984604042674	0.9899470781128065	1.364234801662755	1.4496841394063056	0.38135129117051186	-1.6523200231796724	2.113153929143559	2.264627689365983	2.942270271502146	0.6933336836476025	2.0596814103576655	2.7497384478763034	3.5516662507985295	4.0667252437913435	-0.28921523617203865	-0.7999694923230751	4.401314247463189	6.655909521464487	5.6772069787694575	0.20208206721783442	-0.5504432902743879	3.144350520778319	8.831536270732299	5.768227085808941	0.4343976069450148	4.638698089332114	6.763630849927869	5.507328496379756	2.831600658897038	2.7206299236272855	2.0076720663880243
316	-1.301759954980584	0.47059309363761126	0.5171434270199914	-0.4156461049553094	-0.30650925558905356	-0.014584508687688324	0.4585186827527215	-0.1932083661446573	-2.3646149575614155	0.9513749456227589	0.9106702781573215	2.0171146341895017	0.39173862239161605	1.0942093106300261	1.666847940051257	2.325000995487969	3.3311841403780207	0.6523815376976826	-1.084792968872184	3.437374106311699	5.612873063221436	5.099122511387428	0.17411373511700756	-0.8296140411412047	2.3135588110686154	8.025846461059928	5.363903985786058	0.47980558751083635	3.8814151189082544	6.206067546434457	5.11052034995118	2.2357647362528197	2.3640806615269976	1.4654262028888996
320	-1.5231183728863684	0.22783221246894553	0.27750268508466663	-0.06534292532397379	-0.7377973180263094	-0.5109599815819593	0.33906447801815104	0.024101206971950024	-2.1480531638271754	0.6969228965329803	0.4566264140998147	1.972070331362859	1.0623719665407911	-0.011892600886300115	1.4568818770819196	1.9919282147660917	3.457567444654881	1.9270875405294692	-0.9576580500266039	3.316957226961792	5.444880471787666	5.369119630609315	1.078393098969519	-0.6316909178043952	2.2586791458324176	8.082821825601137	5.835878357458206	1.4005776608391864	3.8443207643723922	6.522458060009427	5.629874215217086	2.183132881374716	2.756518833830254	1.8961652469445156
324	-0.9267928576912009	0.5441114292712397	0.5287430273057993	0.744600890187019	-0.3463038197357133	-0.19138185631593294	0.9792666410517593	0.8626684524690358	-1.170306441213351	1.1974663704202915	0.8347929695033733	2.6814398697864115	2.4262909827963233	-0.8852713085711792	1.9896585891080647	2.459722512710696	4.301804054843335	3.1154587190171577	-0.5112092482057807	3.8976089855971052	6.0325121727271345	6.319243415136753	2.6049666338955038	-0.06420679374219794	2.8662249969596445	8.855393387371285	6.9688062491901235	2.8974203990262692	4.450180042475313	7.529858093324141	6.829027635498841	2.6711718968661686	3.71996068015268	3.0516636294565447
328	0.033065173691476116	1.0931906672533866	0.9968948339088637	1.572709914051445	0.4936539816313748	0.5519249425304736	1.954693431687493	1.9097444962922503	0.07012788188633294	2.0028345534302674	1.6495299297647805	3.7109379674679404	3.876206149805195	-1.2739862171432963	2.8367087769413923	3.3243474876395442	5.427136407501411	3.8420879743847434	0.030932480391249042	4.767643439653531	6.974037629639562	7.508633594628948	4.174474705646988	0.6320293529765755	3.7844793700990387	9.938693021477036	8.290241220524232	4.426145065576767	5.3988528115340015	8.80478475255033	8.236708620256556	3.540673485399648	4.886009203972606	4.473227966458871
332	0.789832351597784	1.4886594973172407	1.3256745304969877	2.0186977335507392	1.2541997401043241	1.1934363811879125	2.7279658248691403	2.6953813961641764	0.9717945431969368	2.589006178995004	2.3707470834004254	4.518248069799796	4.760442721745686	-1.157219526230218	3.48107432440205	4.064480771293348	6.298852904629152	3.901110639259529	0.4141092587983009	5.44103764113941	7.77269647543198	8.418127038682796	5.193650709390955	1.1796603173036264	4.576783168681549	10.846101733480483	9.274483657309277	5.436208711250479	6.2867016633573405	9.859101270579353	9.347847914936551	4.51718281559106	5.846018299601795	5.69764183513266
336	0.9367200708581231	1.4636633359194735	1.2437497345993969	1.8966176461972186	1.4983271322568215	1.3227006163580728	2.9003133700577837	2.9033458159577203	1.110139724789635	2.6045911246343665	2.5833053523644995	4.706140506306614	4.696073520248047	-0.7343729715879641	3.561991205759034	4.284488190324065	6.5293216540472745	3.318338862624197	0.4673096823814815	5.578369126540972	8.06057165018124	8.68417260838463	5.324541555312928	1.375660177572324	4.906112658511693	11.216271372133297	9.570534681952445	5.615618214734281	6.768968565063317	10.33718106520972	9.827645277006429	5.299534307451261	6.312525733268948	6.434341414418912
340	0.41195028916301996	0.9841297244020606	0.6851189119207537	1.2994127240752553	1.0742689343986325	0.8259434679159139	2.3889560639147547	2.503891223307799	0.42703437697359964	2.019972319271398	2.169073099382015	4.200428475265299	3.7474737072743785	-0.3072280279985853	3.0311307830575798	3.8859834572908856	6.050343021375964	2.3344936311909312	0.17490254298397354	5.125670896940517	7.749025325284225	8.254751184603093	4.630734908810227	1.1663476199266543	4.664467322970666	10.951913805967239	9.141897178457015	5.0200953356836315	6.69068382481297	10.142856572292139	9.623815512201224	5.666529164312774	6.218303187883057	6.635640127594764
344	-0.4898366915733398	0.25279664929461115	-0.18173962785612346	0.5384576307053445	0.17335922972302323	-0.07876095900915932	1.450654026183642	1.7498427585291543	-0.7564265708898891	1.117737290421393	1.3409680094241347	3.2701096452166674	2.38544821136929	-0.12007430910550622	2.1541671698542193	3.091360084358152	5.131928907788975	1.3199796643309458	-0.3253152958285907	4.313322056370651	7.040246468888904	7.393961410927989	3.5300564676804815	0.6596056802308654	3.9930186170853452	10.230498288074283	8.253587701940015	4.022485722876427	6.128932937406791	9.442213034632383	8.941736198737763	5.556047902384681	5.707987770928072	6.439722044898492
348	-1.2800023523438662	-0.39527347584109596	-1.0268698904814384	-0.011906902275719803	-0.7713937143877148	-0.9639030074578888	0.5433548675170158	1.0415830585885173	-1.9079258393754552	0.3403846016873034	0.5185672627707911	2.3808553158730734	1.2459129063621237	-0.24665513572407266	1.3639694417848849	2.3132958353765303	4.2359466445787	0.6437762363392514	-0.8175386765820009	3.522138825107088	6.301455004994897	6.5332484080351625	2.577378266502999	0.06857353431554644	3.1887006679136602	9.389016127723236	7.3172874265939845	3.1119871060956243	5.328536020177111	8.550054528584086	8.106874445474492	5.073714243476724	5.034495340987852	6.0378775444176895
352	-1.5239368638663575	-0.651145814205319	-1.5014594755411494	-0.08811851568624024	-1.2952512469968338	-1.4046122992338461	0.09986875926075693	0.7307564597753481	-2.5413899357527967	0.07464957218396447	0.11566895217302134	1.9604676912401753	0.8182620385491687	-0.5707840905083716	1.0436440679903571	1.9439564894233414	3.782476177202485	0.5452741370739377	-1.116926071208048	3.0916154306557253	5.874650463530971	6.050469860059725	2.190576786232631	-0.3861675252701379	2.5520842010913967	8.750174500307836	6.680587751687825	2.6514570646100357	4.572203624625729	7.767403106152131	7.394038658547423	4.434420574436489	4.423648346222719	5.5463070729415005
356	-1.0444508764599998	-0.3669038703714931	-1.3823760713007904	0.35535645395205434	-1.1168453665192257	-1.1712003916734355	0.3305448881386905	0.9621167158631251	-2.433051580008258	0.4800287771026343	0.35036083967442966	2.2001793329002814	1.227379795790324	-0.8745402671668455	1.3499302829992244	2.1742389147223666	3.9526505370481044	1.0483634445424679	-1.1554391354952722	3.167930118191931	5.922687038727073	6.094765647759169	2.463499539831287	-0.5708068594826183	2.2543260994261716	8.481917359871838	6.474472029551967	2.7203764846783405	4.054534425035501	7.256580334462099	6.916704160393446	3.866415729297687	3.98213600106973	4.9607663029354745
360	0.01813395689319817	0.39487287302457197	-0.653172968169012	1.1471011609679838	-0.25054177578612874	-0.3105961672570493	1.1506592006242227	1.6298297602512253	-1.6916400151458286	1.4405420982230273	1.1675636738862916	2.989541046224107	2.2128233853738513	-0.9685431694372929	2.1619398539318855	2.9284417555305895	4.625428664927139	1.952614183264398	-0.9999284719016929	3.6620187666942328	6.382288916686562	6.5431508852745655	3.156341783183957	-0.48456615087238275	2.284082406952973	8.55325410590755	6.591031057883172	3.118541232818579	3.8175496958669846	7.007842999885022	6.622939569918089	3.5180528075087616	3.6872088816056094	4.213992585033299
364	1.3122342791805182	1.4164781534671935	0.5110788332433414	2.000965113356252	1.0328808996825707	0.9151059366010176	2.26013588334705	2.4617540774180915	-0.6573320610616485	2.6534302167656985	2.304027313137358	4.009008397471	3.304376832248681	-0.7829459289810458	3.1730441967007477	3.93841980893462	5.473492608556248	2.9182329104178146	-0.7954577783528377	4.330234516655099	7.037035924310829	7.102356415936682	3.8575656316637814	-0.23689928591044698	2.4942743715254387	8.797381378850758	6.7886504955556175	3.512734404278171	3.774878492361438	6.901239377717647	6.381669982056778	3.415396204908448	3.4510366829526196	3.2852582848573757
368	2.476792567675533	2.4467289386010456	1.8351342631737382	2.664466851183024	2.3629810750429576	2.1845381204763927	3.3190052425511034	3.177320233906138	0.3010561756639327	3.793637027699209	3.4456572445659326	4.917964446048909	4.08504437368894	-0.38043767117770133	4.064002503624878	4.903123366374466	6.156736835194259	3.6057794003048516	-0.6675493700339602	4.921923624963474	7.6564631268790055	7.490169506235624	4.220262993647839	0.027684319694479497	2.7108654907448337	9.033563591084047	6.855707151270105	3.6369132903782235	3.797647466608151	6.815155012090263	6.099756225444323	3.4817364127945436	3.210310689450287	2.289260143222249
372	3.3225569641150123	3.3220517551471715	3.0607747954339075	3.0361671371098056	3.4555735500828884	3.2762796796096585	4.118164052102635	3.6321687606660813	0.9704169606503661	4.664587009097073	4.384521950142305	5.529672608719583	4.391785610554874	0.10924633564785124	4.65949152723738	5.639713273114609	6.50269459036328	3.82047270763939	-0.6446889622623925	5.307314859342017	8.116708735000444	7.590806941894625	4.141389359508596	0.21128375774922123	2.834794037337462	9.170998550148678	6.734190447017579	3.432178727067614	3.8012778663029647	6.70912311767413	5.794348702106515	3.5920665173438677	2.978275291552843	1.4769866429231888
376	3.8939194580948238	4.02303027090972	4.0317478078139795	3.197163812194661	4.227010239419378	4.1455502405405715	4.653455245666926	3.8701021573584478	1.3624083961421587	5.258776174619595	5.091385351677959	5.8769163937010305	4.354943741293642	0.582179246863116	4.987033831403091	6.145720943193263	6.573240740392688	3.5936577229367743	-0.6449982507633512	5.519339070690252	8.43813226476754	7.497642974997273	3.7890832328498663	0.3081388465730984	2.882134907121502	9.238215423147917	6.533771975233548	3.0529074591805774	3.7842116260353835	6.63480327838423	5.57796095393458	3.6340749172011857	2.8294861245243252	1.131998178485058
380	4.382561672589881	4.640539157595288	4.711952197576121	3.3429939662454204	4.778544413899691	4.883699881621259	5.071282850813185	4.061626900908708	1.6406544405522647	5.703956112765643	5.671592221245792	6.141104205839197	4.270331371969915	1.015531298934443	5.212466703606144	6.54599140421881	6.588539583737851	3.1552684227435517	-0.5376849160924273	5.693310246398479	8.727065064331025	7.426727753008348	3.4745077999130136	0.38643705747313173	2.944695465282644	9.329228377630045	6.437706931073013	2.7483780314673845	3.801806440291498	6.676278574300023	5.571726784943973	3.547387829407354	2.832337372304602	1.414938446287243
384	4.953454005132891	5.27424954036422	5.140382753745414	3.65286945374431	5.267586217932313	5.594091878118707	5.526023850794225	4.367823589741349	1.9625579069178813	6.134713634261093	6.239394649011447	6.494144900138284	4.388985145931817	1.4518268071712817	5.497222409674315	6.964117032588193	6.757957918271049	2.807485811774695	-0.24369820890887584	5.946187481172623	9.06395528412255	7.55634449004682	3.446963539957532	0.5219154344733058	3.099821321290525	9.505240416370228	6.561439020756957	2.6938004425701454	3.8953580757974904	6.860387784803209	5.801063046114222	3.3208901798327215	2.974118225218124	2.239650720663785
388	5.600042805838058	5.933433994571521	5.367866979397878	4.172232617334777	5.761078343151208	6.27507780398117	6.048669799792053	4.817584979291845	2.347703689369859	6.577662928186698	6.801442129129279	6.961193543978631	4.7599382280335805	1.9323890160409865	5.873230919314584	7.409223537812063	7.1302189646944605	2.758880131431714	0.19537851165080541	6.277918799762571	9.418697333397809	7.898273448076354	3.7388076687830742	0.7328824978444738	3.335302582903023	9.72483060288857	6.859095079270585	2.8775782512492176	4.035699834171189	7.105820637882282	6.148024066661569	2.97357224667336	3.1395289818653214	3.2628989137285247
392	6.120185836598798	6.501014693059172	5.418042646080279	4.771084773415595	6.163557990725133	6.786245328935713	6.507179720662015	5.2716593609274005	2.6550323896132157	6.919414025956673	7.22386167609744	7.387649994317948	5.21184443111626	2.424416059095002	6.210253222998596	7.748840789304466	7.551414470680605	3.0030648632523405	0.6224248393556524	6.555143816610253	9.647642111262162	8.277171114050882	4.1479821100412675	0.9550963020052702	3.5384790808031377	9.849515890049355	7.135215741262655	3.1089863698666282	4.122898568234481	7.24906871872789	6.395373328274621	2.544082635178371	3.1641943374854202	4.013941277860157
396	6.23208139753455	6.786244852098556	5.2928409442784625	5.201661573628542	6.2673883279874	6.922431928323321	6.682530863102596	5.4960698942658475	2.6833400658570534	6.974757176909474	7.305801849993344	7.53052566534394	5.473416314611128	2.8025543618970086	6.294440253578281	7.785854796779374	7.755712489573981	3.3195340549582157	0.8474438765110752	6.588245375211983	9.576706862112644	8.431319215468337	4.364206779905509	1.0772452327233324	3.558602562502819	9.724252676254286	7.157214146663658	3.139121762933244	4.044458379070951	7.135488492116459	6.342487796028994	2.09018730589527	2.932683698879255	4.113493432149828
400	5.761516556498491	6.641518099229093	5.011810766917927	5.230592714455156	5.901251778008486	6.554148180626439	6.415975077642773	5.305242525057698	2.327327483976968	6.617495043259472	6.917419892966102	7.2202720459795495	5.353834138704548	2.9044911788088323	5.973864063439172	7.394355755256828	7.535871009873901	3.4062571439574003	0.762561915379709	6.257894500191546	9.122008300638576	8.176255205492193	4.1626491441534075	1.016188380536788	3.3060672199702434	9.285518622796554	6.802133543006928	2.821126453906393	3.7572159672290293	6.723058206750275	5.9281229823168635	1.6941106276655309	2.4642980036506823	3.469681015791289
404	4.787287700010428	6.070348724297866	4.645060527517955	4.774958121641899	5.0777358880588555	5.744315132896901	5.7331981514186205	4.68812607535234	1.6839011865063096	5.890232548147392	6.114783271609996	6.49094198495472	4.870541083436708	2.624661200572464	5.278968797707042	6.629134161424666	6.888079625858782	3.069488279222333	0.4184961010380492	5.612648949757646	8.372577646097602	7.532100181636351	3.549345245936836	0.7844038585885709	2.8277168202532796	8.62966821399099	6.148369773600393	2.213096136227655	3.33986996761134	6.135122283704641	5.2879233226783295	1.4599491320943172	1.9321910094115426	2.3485863149474646
408	3.6481437590998693	5.261904703206667	4.308329094499712	3.9683997530880535	4.043261517806883	4.764817225823997	4.8679599639058715	3.8451769254877846	1.0340390179276324	5.021879660325123	5.157512651773454	5.598562703302732	4.250154961345806	1.996864552224637	4.442069042434756	5.739120945745708	6.044649108884236	2.3710844456890023	0.011194791616547498	4.875926005450701	7.581817130973719	6.739954931408542	2.7773630548927395	0.5015344607088449	2.308541768921248	7.996740797833852	5.459404454752706	1.5677772720808665	2.979478590118531	5.626740918258444	4.7107295871055745	1.4945253096040667	1.5998164374968016	1.2754291263803759
412	2.7930681634956662	4.5228571777593505	4.113466729269036	3.11740802931497	3.1866297641408123	3.9904203314168565	4.16288231752318	3.1076359670380067	0.6999645215481891	4.335383881113534	4.407329548198734	4.9086079473542705	3.801705827651371	1.204245206653482	3.797740688272344	5.066910730920659	5.369205938134732	1.6331713158381866	-0.22153237406112214	4.3494944462634555	7.062304955771689	6.151979430878878	2.219973796961633	0.33550342832735847	1.9896035144164312	7.668619136522387	5.062253939245404	1.2094715803127718	2.8882996963057668	5.472747312079858	4.509296405851449	1.8663239431944791	1.6997041659357104	0.8038141707153152
416	2.558093779781058	4.1360497370245195	4.101430405752061	2.564871066293488	2.8474287914864704	3.7209060098164306	3.8996734520683334	2.7808787752512947	0.8616346099080168	4.0907206432058585	4.156230916020197	4.713506209870781	3.7402241135579404	0.5068908917027064	3.6132590679495413	4.883905875273083	5.172099577243218	1.282547709087928	-0.13441900875009455	4.260975350112433	7.035275441527188	6.053368076299967	2.173121446844939	0.40568274157142215	2.041782612413964	7.830045203467121	5.1831455099851045	1.365329023728779	3.1885743060670553	5.82912586647794	4.865863310926546	2.551247590299442	2.308797830474557	1.2568995920872537
420	2.9937841816656645	4.224292267624482	4.209754933219047	2.527729504879083	3.135468713473473	4.031315316512581	4.15584753894597	2.99351000030039	1.4429160320091479	4.352800358272931	4.4800367242236625	5.083588110486707	4.068575848797658	0.12738174167897184	3.9466833968654162	5.252954946606948	5.550606713586163	1.6148645837066724	0.23827217459125352	4.641693580352383	7.518093566986656	6.515215857268923	2.696133606779343	0.7072927337908872	2.468703978981355	8.469283082559986	5.829532608572861	2.041187996479186	3.834873905036502	6.644278032693805	5.732775673697519	3.410303107234539	3.2916619694572966	2.565641158302042
424	3.8397107027385236	4.692019927576396	4.301588047611214	2.9907581730673476	3.8628582856878944	4.732686984511075	4.765799510367415	3.6317236331800222	2.137829775181112	4.955501543885045	5.19696615814357	5.830634579242686	4.57848023212331	0.15278245470096946	4.610339153093899	5.992087825905368	6.33786104509463	2.606404297923856	0.6935024840011803	5.300570951430577	8.308176019673287	7.353727322131865	3.573347321071549	1.1014124127236566	3.0902190130414526	9.369450545497243	6.776163084088122	3.003335229920359	4.614207732948634	7.66391513796859	6.8365888422973775	4.2117934120652185	4.33872460223547	4.280321110409048
428	4.664997089052092	5.277988897349408	4.243476380124875	3.713470211190185	4.636094558454898	5.4690012793744724	5.409562574080205	4.394724834790617	2.5698504383054526	5.585968957149226	5.958272442079611	6.606243116865762	4.9687194698770645	0.5085198270356605	5.264191614211636	6.7630500622706435	7.1898937043814435	3.882626046868454	0.9708119010256506	5.914469227163348	9.076585746737145	8.219243028869988	4.416431892688693	1.3849029506050186	3.6224701313112955	10.201121304505875	7.6643786236851925	3.878122081502018	5.232277856967991	8.534161546141302	7.788928012256234	4.700351703220643	5.087255941898345	5.762210831399082
432	5.097487913613234	5.690722451147444	3.9895965952281403	4.3477306256197155	5.0610699525845755	5.899026378996771	5.7787771079075485	4.938069331099468	2.495350592988786	5.945821270236047	6.423964961045452	7.079444390542869	5.012128340464489	1.0103962395907184	5.59033010978714	7.238850098453397	7.760412196593366	4.880657183722447	0.8986010528765142	6.189986690151815	9.524546599182813	8.765792824548187	4.850806224019982	1.40307509544897	3.816545476814344	10.671719524142924	8.162360170737237	4.31677197320154	5.447888837411174	8.955649353304686	8.250113466414119	4.69737433201234	5.274568067585095	6.459303839587822
436	5.014458643650744	5.757058605917705	3.625123253252839	4.610908973496513	4.948007094288489	5.866868481128743	5.731536373926478	5.0356306902586665	1.937261934157651	5.899877056484858	6.4316339330414705	7.0980109989249485	4.680555331810663	1.4754246436061487	5.45483683162581	7.26361177517921	7.867967585726111	5.136075006869083	0.49525996917614823	6.013364299850673	9.524832701477012	8.813310600917475	4.6940164447527515	1.142008063294075	3.5855193047596896	10.660026523378988	8.1096477303796	4.149508465780823	5.190258489856062	8.8176860586701	8.073901156067995	4.190173615366874	4.856221663612022	6.142766460168496
440	4.588575351574141	5.503395543508827	3.335013381167303	4.424011219299196	4.403299797384934	5.469917283553068	5.353671060396854	4.678397643675242	1.1718647450424247	5.535698876709739	6.069383605892099	6.750091535692032	4.158529271116934	1.8151314212747776	4.970864760246403	6.921548825908558	7.569787006339785	4.536933410633967	-0.034006714735003114	5.507266507549346	9.17652795382124	8.422018983558223	4.035387982670511	0.7447085361752116	3.051334850236794	10.26916024476378	7.579077701506758	3.457770815702341	4.598739612412736	8.248150804675909	7.36718748139964	3.3633258257827108	4.034514893836046	4.997539984483255
444	4.168549050296958	5.129337774677841	3.309317103613772	3.9460151095898817	3.7607879543721108	4.990666376865111	4.897692667993401	4.064796437491282	0.5778177365973333	5.106480108719926	5.616008744365863	6.298472388577866	3.741816749662318	2.0569698758643895	4.431767452494944	6.480604632228134	7.109073144130173	3.3984815988567925	-0.40565425055129145	4.964513766152331	8.746045090528222	7.845062236052497	3.182745448659897	0.4392237652179709	2.4849154886450147	9.771213506824198	6.830641729275284	2.533416503232034	3.9623942275142268	7.5540432739271415	6.438015921550748	2.54833673787454	3.180868617609948	3.528050413760986
448	4.070248116707254	4.892900931402716	3.6396100429196325	3.4871132285768667	3.3961613092508345	4.737227904757178	4.64146374484271	3.4964036853252614	0.43453612813912307	4.890398490002784	5.387038217295032	6.032367214231407	3.6801261808941215	2.291052574095409	4.1535854234731655	6.24654959055222	6.774511797013433	2.3117473067091754	-0.4106357683304624	4.69446800954043	8.52862737409717	7.392501812390415	2.511085265495446	0.4169710566006764	2.1703386251966914	9.473324751777955	6.186943515415846	1.7494506791768116	3.5870461373364013	7.081156712773653	5.660183415427428	2.099534983102504	2.68250798501809	2.3298430383987174
452	4.39832352481449	4.969469534725024	4.262207497326119	3.34139703860663	3.5273346811883304	4.878196227155174	4.741960036703239	3.230693093726219	0.7793955187193188	5.0431604258048415	5.565990433945272	6.115021690188496	4.044546593944996	2.5716705257337185	4.308559883683699	6.4005389051963935	6.746993524683008	1.8323073340884684	-0.030470818204242286	4.857621180667814	8.695220925312302	7.273725491279163	2.284985774946908	0.7249482255752298	2.2568366470577725	9.56359765499242	5.883626923011481	1.3949208224364154	3.646804561944437	7.050216657004602	5.305538164095038	2.2397022190767406	2.7708668638843608	1.8207150651739494
456	5.001807677038397	5.365036950871088	4.985540377427369	3.633195629483679	4.113256920919956	5.3654026849705065	5.1653704512836445	3.36855863674362	1.4047943318185308	5.52649496590534	6.114744647800279	6.509895308271125	4.691341388301986	2.845331661669988	4.841850268537222	6.909082872113127	7.016925317214387	2.181058162904612	0.5501601682124195	5.379999147183409	9.206030822399097	7.501038532392265	2.544039481415663	1.2355508773126629	2.6789634160115363	10.01637170170084	5.9678997842794255	1.5524074992085997	4.095883835941846	7.450208645130461	5.4242853981397126	2.9457213804259275	3.4105610761364753	2.0640721268993145
460	5.5801834919233535	5.9227967112731825	5.580142007090695	4.249519814252683	4.895494448699635	5.97629402559124	5.719854340417155	3.822708358649981	1.9852768132631096	6.139255031344353	6.802525503149981	7.014031392508558	5.332411275752044	2.9554119035490443	5.505276189256032	7.546377162954065	7.4049005321467085	3.120229713191513	1.0370649073166605	5.986703380728533	9.828925107935815	7.894063929654365	3.0967144887940963	1.7062528090313591	3.182395688605238	10.59897515481975	6.2843975862147206	2.0651404805495712	4.68008707772249	8.036242464756825	5.823420033057287	3.9303870101878107	4.298236359234666	2.7571732928282353
464	5.872949108554797	6.415569766059323	5.885383114260709	4.899902808216093	5.550807938866416	6.44624374669477	6.167099937127324	4.376488197721182	2.256975883507616	6.629710180710322	7.334043484290937	7.376126747581904	5.67756412980005	2.728438132073148	5.987657531879688	8.015535334376976	7.669872264570981	4.076994885641636	1.175016877068768	6.339541896073053	10.254743550159066	8.179652193398656	3.623201361091554	1.8988734435776926	3.445772877576505	10.98041817753834	6.554479582450553	2.610780232513638	5.048150526652838	8.439349153192204	6.156861766529393	4.744781005324047	4.9852981441516135	3.3894839201227955
468	5.819227203935793	6.6715087722185595	5.878036007345665	5.272660242119941	5.8640603871111745	6.616162283405659	6.350499613940895	4.799814212124798	2.1517250483546477	6.8266057795784425	7.5087613869870244	7.434342842405626	5.576609597431645	2.095045322850778	6.072641357348719	8.107031801736301	7.645558814772747	4.454785335737611	0.8732002355463884	6.21098516803459	10.255632374619713	8.138513544515705	3.834400882576759	1.6964718060577018	3.242517939964064	10.89590928187768	6.516393645046711	2.8526613640288017	4.918105113010224	8.345426538378065	6.094331725946299	4.975118147686837	5.081749903246475	3.5012345225628203
472	5.592447743601374	6.663205606803732	5.669076905242621	5.2040166723469605	5.822962746223725	6.511205179941403	6.270141585731914	4.961618410935031	1.8134181453696794	6.715936166973335	7.323185425388908	7.200619202553827	5.092483984487685	1.1716542214376093	5.739762291721872	7.808752517058477	7.3317904287241165	3.964710702422929	0.2437380844161299	5.601940140885757	9.804535841029619	7.722186545902523	3.611882439077285	1.1557376355555538	2.5586628849279367	10.28463933255429	6.058579429588812	2.5987038546754757	4.217835415681556	7.656464080553319	5.488975511044012	4.444815624459071	4.447429645753742	2.9142169878815674
476	5.48998497530538	6.5108098819382505	5.4344944816710665	4.766692149525317	5.591642365643202	6.310574992459664	6.067768558441343	4.881858336520928	1.49395906548013	6.428213580114315	6.963819963039382	6.849253160350121	4.468203056498413	0.24085679589496206	5.160978781067682	7.3109473997545225	6.894276124713987	2.7934663225217604	-0.4644521165088744	4.742213714070762	9.09451577751463	7.081815224887469	3.0606689375850538	0.46981727958317354	1.6045269925615075	9.330615973756913	5.282524572386785	1.895234460814053	3.1268296162815394	6.552307589200422	4.464146125966663	3.3095521843321722	3.2739589131665436	1.8271861030222967
480	5.74738214949072	6.403006060646708	5.3214731082076385	4.229586113741488	5.390762792328353	6.2337488970725765	5.938363537100579	4.704379546685816	1.3992034161527147	6.152870162688153	6.701319677599837	6.621984941929777	4.007804383649577	-0.3635587981104989	4.603140342534682	6.907731038773035	6.5789847207859005	1.5104095897687357	-0.9946123336475977	3.9779295820892617	8.449885347013259	6.498747332377641	2.453781360153064	-0.133140265605473	0.7182990294440986	8.38714788226687	4.466212261367941	1.0126882765951244	2.0029878565762425	5.422595964092465	3.376393309651696	2.0023240992536997	2.015913004553864	0.7285206299508233
484	6.387710555161644	6.481370909539431	5.378090368043941	3.9083266159563985	5.361345754438757	6.408474429163175	6.01765058905494	4.606030452543254	1.5720201691038456	6.030389770541331	6.741660101081972	6.698302252070346	3.930181016535987	-0.4158910502423955	4.288853634496393	6.843746168023936	6.583662493296063	0.7602543811677004	-1.2036200731406559	3.600922575442236	8.16857908093882	6.246958239995769	2.094438547568496	-0.49813097589611827	0.205620228725091	7.814680079757134	3.93757437665526	0.3228752008869364	1.222392555965269	4.691470611171533	2.6601502828192887	1.037364480260545	1.188428756574396	0.1612803335886254
488	7.193333607632035	6.751205427290782	5.537303433743041	3.9871907133525006	5.488656030148824	6.794071180356385	6.304970248516295	4.690577495176473	1.8748958063472758	6.079686626343382	7.113756161849063	7.097035866938884	4.265916813570415	0.08194012919242068	4.2880344282606675	7.18514774415783	6.951431256863386	0.9159639454603931	-1.1162252397965482	3.7069961931096063	8.373820283728742	6.454867346679101	2.1632447188120136	-0.6040081962594497	0.19530595789713576	7.8100328248250195	3.9162568947144525	0.1237894815061376	1.0089579795159194	4.617829311156044	2.624111407330444	0.7647581081155581	1.1238316269157107	0.45419207100636666
492	7.815436820325292	7.073489171289106	5.665215954782398	4.4135489352374755	5.627761349774422	7.203338128023036	6.663877470357944	4.928202139809683	2.0788443036045723	6.200350268922036	7.6540202901236984	7.661752204624441	4.848206984677178	0.8917534924880713	4.496332634064111	7.78342101993005	7.542032222779488	1.8779580545695247	-0.890707788602772	4.157908429138521	8.952250458049596	7.036909085627067	2.62816571525783	-0.5480400310031117	0.586393235633452	8.314432123173116	4.402917850822178	0.49834230416363584	1.3396383490118422	5.173216806702067	3.3004977619764926	1.2050979106994857	1.811956758692766	1.5551856716945662
496	7.962129572793063	7.242894631219064	5.642657265721922	4.927243697124115	5.607023224979369	7.40887926138471	6.897729379404976	5.172713743501433	2.005866999330204	6.24316976878341	8.094743708200433	8.13660428853908	5.402121053408075	1.6536610084744434	4.706534373798295	8.351808526887343	8.095534304206737	3.133113376336475	-0.7172315698635113	4.6649312855244265	9.612323736717544	7.730578403028552	3.262866488801849	-0.46641537429352947	1.112638947538757	9.048712707561911	5.174542890835681	1.2779911724249327	1.9718571851536804	6.060948356584784	4.423158157625323	2.0513119645780153	2.906938068679974	3.0499908847097914
500	7.5597729492056445	7.109418851068997	5.436436162574367	5.213219629477046	5.344265924312201	7.274409752599457	6.859919530715036	5.248917089561479	1.6408370691833956	6.1060995901438835	8.209711054101573	8.296689966235489	5.686345086046191	2.0636537022940478	4.732100951645123	8.616494157017415	8.360478380075904	4.043111790939585	-0.7076284867540592	4.948229777240807	10.036236737661426	8.224997499680654	3.7670426273604694	-0.4412428725546395	1.4904032908003868	9.661038374350898	5.893599018475806	2.1313633864950456	2.5802354747477385	6.871224386033174	5.552727208423338	2.8457093166983314	3.905620088253271	4.360110271889729
504	6.796232206351905	6.675763113333307	5.125215517455582	5.08893631603961	4.904585825934983	6.83731792631043	6.538815958680286	5.06239460620672	1.15068661876075	5.801119312898748	7.937880496011024	8.065219858787668	5.612096772329841	2.019025559096176	4.5145220642550035	8.461934068296316	8.220520952450746	4.1957969559593655	-0.8393131473331474	4.884333598202911	10.045185063749674	8.314680078494755	3.924499978647498	-0.4513101864387526	1.5674208363060096	9.908468221443483	6.275587542902002	2.730851404924721	2.9263605997588664	7.290067177486684	6.286838515621399	3.2340941347485157	4.403928268757859	5.023059355451539
508	6.026073917433331	6.117763503841242	4.870067107302651	4.620271671074193	4.472363460693231	6.300623877830247	6.076079353250683	4.671234119065643	0.8028744438881591	5.457821355391468	7.4229135325895115	7.56202695844678	5.284366594324273	1.6568040805948039	4.159820069300931	7.996986368969707	7.760592441038712	3.6241252330832396	-0.9775489544029589	4.565871704017936	9.694150900207239	8.00519178276735	3.7188210393474517	-0.39207589527322606	1.3953016961155686	9.778963064299749	6.23341463422552	2.9137890265331605	2.9722154065431186	7.253506642148082	6.451446516914788	3.1525244633236	4.297438133833849	4.91504524897376
512	5.590432152938738	5.706558213131388	4.838953005971295	4.095250596197351	4.252586830846503	5.934579357422633	5.703359589482237	4.271924008074292	0.822280702899069	5.2584819660937265	6.944006425491751	7.052567941025765	4.939675318644241	1.2564880816207633	3.881548394893636	7.502401809824126	7.233411293840663	2.7692699362455704	-0.9629797911172937	4.239710797096052	9.24174592545834	7.512043933975807	3.3403746997420236	-0.15366236826724458	1.1857123345002607	9.485778784644461	5.917867168744125	2.74996303817725	2.875427715671151	6.962107640808599	6.172187789592505	2.8401861119088094	3.8181812666814303	4.295559395435273
516	5.6487402773337605	5.669319615355533	5.117664324237343	3.8607051275054642	4.358951080761064	5.937218651086624	5.626698002914314	4.102393139972043	1.2656089035505553	5.339198575844771	6.770596487117313	6.817498666716914	4.812218177089819	1.0706626149802474	3.881071319318058	7.282441120834795	6.936442357670272	2.2168817464170716	-0.7135692220791787	4.158316601744912	9.00626466384584	7.147653561665823	3.0795566957923715	0.28982558773299766	1.175582405936969	9.33469388512357	5.62703560362147	2.481086963111468	2.873115532296862	6.747192842614634	5.783722386062788	2.6768844060070194	3.38664673903865	3.6483304408468347
520	6.106719478447983	6.062681182813319	5.652496323619443	4.113460053548838	4.748726832798215	6.327249034165613	5.917202457747267	4.308107842058864	1.9775822112699022	5.7095055435988	7.0175566496102535	7.008068543860283	5.005515085934067	1.184562918533314	4.228121269995186	7.498836975238399	7.060178738888629	2.358223193890419	-0.286837964525819	4.4279799349569	9.185349441225727	7.155623894745066	3.1624624649311994	0.8320758321735024	1.4773797951591348	9.53855607485545	5.634807095606243	2.369533532835862	3.121477119194223	6.865794164489267	5.632094845857232	2.9338216707544333	3.361846676921699	3.4136667165400114
524	6.6747917960445	6.7226533720039825	6.2509956202040815	4.764585482965695	5.23578022588615	6.9218034569503955	6.461448176282847	4.844676959203913	2.6507880620787656	6.2307872614904545	7.573630313825199	7.558173160543912	5.432070241564882	1.4783551655637766	4.804065215379446	8.072353342656376	7.581453781060085	3.1656894603911914	0.13212847676296527	4.936177718097652	9.734472250203094	7.575086097665517	3.61678217928403	1.2604297367698083	1.9978161999807182	10.080679868042383	6.027846797983054	2.5412251885150536	3.5841667561638615	7.338891010828991	5.873167499972703	3.5881824402815305	3.8317310713347204	3.7465150261702314
528	7.0235524000223615	7.328768711660212	6.648336870574182	5.4636926513056	5.57876680872991	7.41712806736364	7.0044073881688425	5.48078917073265	2.9674458428802337	6.671828729950906	8.147798517636794	8.205618837620205	5.85673569154251	1.7067025856796987	5.347144590229005	8.71237180417525	8.263683298228003	4.217544068178629	0.3159298292766642	5.405331597986151	10.37853619816195	8.213109949356664	4.2482280623943725	1.3511830534199505	2.4774022039807564	10.711033794063196	6.647324068452716	2.9159617350390272	4.040831078817658	7.930822829250279	6.383687956905198	4.319667805255997	4.563727844160068	4.437224853756801
532	6.95121763381705	7.559543590533128	6.621804697484431	5.783329472245421	5.599724755454339	7.536581020400673	7.270542126419036	5.908088192328385	2.7542824675639275	6.819879514641811	8.415538766594604	8.618872620756528	6.028344615974961	1.654532666797438	5.58163975260083	9.065152145386616	8.770414330273825	4.95312689484319	0.11124665262030184	5.546308980290129	10.756211253665931	8.744257904863789	4.744720923842264	0.9877579783296677	2.63206838896929	11.08240315500302	7.171652298940438	3.264193049772621	4.213767041058039	8.284782388750903	6.8360967463513544	4.694126594136018	5.143425928481383	5.03727959314757
