time	FP1	FPZ	FP2	F7	F3	FZ	F4	F8	FT7	FC3	FCZ	FC4	FT8	T7	C3	CZ	C4	T8	TP7	CP3	CPZ	CP4	TP8	P7	P3	PZ	P4	P8	PO3	POZ	PO4	O1	OZ	O2
-200	-1.1746910780812483	-0.9474900937000416	-0.23629759192411973	-1.052748081410365	-0.8701230265583385	-1.227524873495341	-1.168773648172177	-0.9987599824484662	-0.6546618921917421	-0.19695469687326636	-1.2488627402246102	-1.115715500875716	-0.9592967009166317	-1.2988826003659615	-0.3330839267904221	-0.7010025364343319	-0.9149838662888258	-0.3607631018590124	-0.6274215563192026	0.008987682848828801	-0.15160448810924748	-0.8317702391605106	-0.583801983313029	-0.4744330334606037	-0.20645683951704616	-0.2812758677056792	-0.4943009006418112	-0.3949786414664589	-0.742303131136729	-0.5024638163278363	-0.21744990293915095	-1.5976752002432963	-1.5668544729727836	-1.0813630792018885
-196	-1.219246265194099	-0.6145796760301225	0.22051325384732554	-0.9255707240578119	-0.45702674869543786	-0.9142759419246158	-0.8947207905114329	-1.0453498337102327	-0.3721324196003119	0.00934264806534412	-0.9842545365279051	-0.8351525047197508	-0.4811145949137662	-1.3854901755638631	-0.23876941143787564	-0.5236423002373786	-0.6801205856317986	-0.3411435774296346	-0.35785421638738324	0.07604876886479234	-0.06996396166303388	-0.7032966596012997	-0.5464335666211814	-0.14298117124697843	-0.0659614799741493	-0.2556051903470143	-0.39740657706060967	-0.38038411640450587	-0.4414021063627549	-0.4385567594422959	-0.22117692176290155	-1.1742441624558506	-1.3486793007178368	-1.192185756534393
-192	-0.9225395894600571	-0.33991947684297297	0.3329580417809743	-0.6065649970952796	-0.14922989867203595	-0.5519413338077456	-0.5124657737191183	-0.8386179783628872	-0.1038601097822578	0.16788870053818844	-0.5905611500134931	-0.4136550714062592	0.17015291707471578	-0.8800073839857755	-0.04175847013182509	-0.1691903020640236	-0.2527347498711682	-0.20019878396510482	0.04568694892911756	0.32269829430168967	0.2537908547669545	-0.26866057447314073	-0.16089031059652234	0.2460238033282057	0.333670138470308	0.16235128004092333	0.05331372456203198	-0.04450465355007971	0.28254225778770226	0.08199263343375464	0.18026097073343003	-0.1479415293773075	-0.521002350922297	-0.6489888413256331
-188	-0.5536954984990564	-0.27240413358577475	-0.00788870731239599	-0.28697451876665464	-0.15767410357720718	-0.3721141805790567	-0.27465072204865426	-0.5652157053982239	-0.06393749250720204	0.07987918684580597	-0.33151087081180397	-0.12230789630527696	0.6260592921663005	-0.0006491442310998315	0.04384207714455842	0.09229125804249586	0.08055369535612311	0.06511101855289946	0.34249198350266147	0.48562690493044985	0.5257220851022752	0.15554937681026323	0.2810223095474449	0.46811556697913254	0.6754484159582309	0.6226463898197231	0.518061636570438	0.34540784271771174	0.9562454795536383	0.6440187676382301	0.6481043680040441	0.8829495288491054	0.40942913190467584	0.10079064194742857
-184	-0.3606378128960109	-0.4375321257988715	-0.6680996997177819	-0.10766608985897522	-0.5106554018479261	-0.4746708857949794	-0.3179847590047523	-0.3800091137828483	-0.3286206117916201	-0.2969461373938225	-0.3580660512943802	-0.12580250171847387	0.6291112287850295	0.8665993787820481	-0.10688623758986414	0.07944110015839352	0.11980845003873741	0.3935258974630161	0.36163383631001533	0.37260055447919593	0.514731644284534	0.3001761428883683	0.5041213022855656	0.40093633431297415	0.7076513153329506	0.8023043254623219	0.679545758439036	0.5299512730569906	1.192318436473328	0.8622873403713041	0.8243718722510891	1.4005365336343953	0.9570184921897786	0.5341080413684868
-180	-0.43818205484386147	-0.7377251964063133	-1.3438272442267913	-0.1102652993994557	-1.0374141905341623	-0.7804561237657742	-0.597672460954401	-0.33962982807241826	-0.794774589916147	-0.817500529609441	-0.6321690662635762	-0.4013630439638438	0.16531945723279312	1.324776526921069	-0.46072271349933885	-0.20775699563024916	-0.14845229647825947	0.6566571576705608	0.07900662700256143	-0.035167697728297274	0.17272782282135046	0.07742261867049348	0.3859429647715136	0.07112386059685392	0.3739319136238601	0.5715002999181844	0.403232931072694	0.38955265185232	0.8841082431406134	0.5810011610621048	0.5203815089438839	1.2212945192019893	0.9007896162178513	0.3333529821562589
-176	-0.6890382153280642	-1.0126746867361498	-1.720435376591987	-0.24391558704782285	-1.4608005248381393	-1.0837645503338258	-0.9240664816414131	-0.398093550392234	-1.2369967667819737	-1.2282152144893868	-0.9601601934033127	-0.7646498660809192	-0.5339346514572729	1.1418623895426117	-0.8519479610868006	-0.6022802576117737	-0.559244512099701	0.7134169322121621	-0.3836867501585271	-0.5835914597082138	-0.35414329081768137	-0.39059144159884285	0.0018914173076604362	-0.37673482203734615	-0.173310279408625	0.040635604308768565	-0.20754615910104973	-0.011729227349350972	0.22980065585768295	-0.06778839213422491	-0.19520743141957078	0.5458085523176446	0.3594850590689652	-0.46401831390529436
-172	-0.8900443293034522	-1.1217293710997904	-1.62927603310266	-0.4123478819449904	-1.5446361264331154	-1.1701414555570293	-1.074910041956218	-0.45573171858167255	-1.4281432592574441	-1.304472323938885	-1.1098037930125288	-0.980364081768593	-1.118527648009119	0.3645797958706012	-1.0811378928544957	-0.8741516448838911	-0.8702186920129615	0.49303263301348255	-0.8261396864060191	-1.0394781801682333	-0.818516729195651	-0.8522534348905032	-0.4350833881837466	-0.7598580102809448	-0.6729980690177011	-0.5228632675321311	-0.8787367321716618	-0.4820947932946227	-0.41002184049082585	-0.7612327318045735	-1.0415965292382026	-0.19948720881641158	-0.3179607383329685	-1.5040593109303986
-168	-0.8289394357733401	-1.011551377603549	-1.1282671661501176	-0.5308052288005317	-1.2202590673155653	-0.9381126737751394	-0.9228069758958444	-0.43060061226847457	-1.262109872492495	-0.9816554759990362	-0.9469623541765327	-0.8964508749263154	-1.3067398038297053	-0.6964485031664107	-1.03354680277232	-0.8655890204510114	-0.8981655813428846	0.056233227110984954	-1.0684368583406643	-1.2246715991571469	-1.0148835156566596	-1.068650481387	-0.7016579491066273	-0.9440295076377643	-0.9087396241132762	-0.8561227300009735	-1.3151407208617178	-0.8183842876752944	-0.7315334063180338	-1.1772050827822373	-1.6771700339888194	-0.627088425960394	-0.7707218508335029	-2.316882842890057
-164	-0.4334449161076526	-0.7357242684862553	-0.46233948948478937	-0.5634002075275939	-0.6216353758375955	-0.45607724670656313	-0.5045040833133468	-0.3070780329103867	-0.8124884942522221	-0.39785027403519746	-0.5121162520830378	-0.5242092596170506	-1.0283751461767956	-1.6029472310603692	-0.745891211533859	-0.5775716886243217	-0.6127638801362695	-0.4109166552182572	-1.0313041184136635	-1.1116824122018167	-0.8883006550295953	-0.9353433227765772	-0.6816850287392684	-0.8959953762320918	-0.8250425437124085	-0.8433702566788308	-1.3458870615357388	-0.9093354321409468	-0.6515173895599107	-1.1657744616639412	-1.8677753162910955	-0.5992688521513898	-0.8189736584013455	-2.5574886734288262
-160	0.17701661542069075	-0.41752308501686997	0.07219572347056298	-0.5276425467520897	-0.012711181273256225	0.07604413460367276	0.00469326738945846	-0.13505460287805218	-0.2948875717824122	0.17600972906020343	0.005022127634273214	-0.021419737433951747	-0.45115086322367026	-1.9841340730163608	-0.3838235428179413	-0.16058605868803452	-0.1372857537379739	-0.6897984129656103	-0.7611016611910434	-0.8281457999301595	-0.5494950399830503	-0.5191364871269589	-0.41436636343289046	-0.6806568486194888	-0.5426647649415487	-0.5603659734883186	-0.9895116661838216	-0.7722679953150728	-0.32521182216552186	-0.8057739118259375	-1.5811477859631247	-0.2675030820768474	-0.5260278569292011	-2.1542868559806263
-156	0.7466785888893539	-0.18007679238153906	0.2810111336765777	-0.46848985434505463	0.351332246370204	0.43634572514993514	0.3921756436460059	0.009306337660896686	0.04643684241372405	0.47871440528168824	0.3745574643691984	0.40439945357264795	0.1253985014372063	-1.7054941611145733	-0.14561754428338253	0.1796820457213495	0.33398973857478675	-0.654169140594628	-0.3892225911327096	-0.5719494209154331	-0.19516904602843235	-0.0001734068932988725	-0.05410276339699588	-0.4095355857999759	-0.26941859654115796	-0.20493167587038413	-0.41474977030944016	-0.5144292103177072	-0.01960081788419132	-0.32699492491179816	-0.9691455935805169	0.06566837413420634	-0.1132739108921229	-1.3018088307891764
-152	1.016025183019805	-0.08154155293381396	0.16203963715650205	-0.42140883100925663	0.3541521421074082	0.5007516133063414	0.5266055451449055	0.07722095380598569	0.06695217622304041	0.3975969840978639	0.4563017476005428	0.6146016701439891	0.44121834524337633	-0.9265534258337427	-0.14675600789687934	0.3046517364439631	0.6498074515149115	-0.35178702980869203	-0.05591388405153617	-0.4891020941306602	0.014858311935998542	0.4398635912756969	0.2287688845580647	-0.17697682932040362	-0.16591963130068244	0.03673635786437432	0.17027860836906855	-0.25072675880072215	0.07031267863641187	0.04446545977094855	-0.2606853538130394	0.16422805148622768	0.20393536933431772	-0.31836917916026064
-148	0.8574628212260752	-0.09005532390984301	-0.11165385665121802	-0.3870691349270565	0.06877545995037446	0.305212288324338	0.4245929409274413	0.07940036783437297	-0.207020818664487	0.02336947986543812	0.27401375701387026	0.6082051381014231	0.41275387898185295	-0.017609424844628154	-0.3550758352851603	0.21849042122036788	0.7756629566636181	0.010208799477968907	0.15389552673585605	-0.5897259697330088	0.04636912781213987	0.7107320409950333	0.3428579858229807	-0.022226672563464268	-0.25105047162567995	0.1000894529080612	0.6251222475481524	-0.03813149397878712	-0.05781862497633074	0.2148764873086319	0.3573873332060364	0.012440748481335032	0.3452782622202972	0.523162006010991
-144	0.3454746297220139	-0.11128328712500442	-0.30377951187684454	-0.33218625104004873	-0.2938275031777583	0.01814118768164923	0.22937035502697461	0.0748267842430149	-0.5975105747395998	-0.40443697469643936	-0.005597803727560401	0.5042164909030317	0.16337996680018224	0.6166334732699629	-0.6106654390176052	0.05590888098667796	0.7884927372098393	0.18313272251145787	0.23628707170434343	-0.748949168221695	-0.004243510764554243	0.8368456938596104	0.3126798860284913	0.07139880192134744	-0.40055167573888734	0.06441634877153794	0.9204143262513115	0.13496682013768085	-0.22668135108936674	0.25073474582310185	0.8022254685174831	-0.18713353527029294	0.38444459341261045	1.0909613343351259
-140	-0.2764293544465837	-0.05010470362768441	-0.25211030181175537	-0.21412755494892	-0.5039389120730134	-0.15729244013651275	0.11853454232091108	0.1258669343393134	-0.8728870131388845	-0.6293031557407216	-0.17197799639196917	0.45540648583827675	-0.06665501726726294	0.7218726259125847	-0.7169364672679733	-0.005137570189379498	0.8054748157192098	0.03157789997234409	0.248137026398737	-0.7874366025117305	0.01600668389034167	0.908012685867431	0.2424763136940653	0.1463586684346486	-0.4331231106313228	0.08288073518808513	1.1054416867003	0.30654841584057213	-0.20817795343291254	0.302279382180925	1.079144236701082	-0.15818458755609716	0.4641103136742729	1.3809186185304223
-136	-0.7197180372186838	0.12462121216781408	0.041382886364882424	-0.01901858667697925	-0.4392583359118533	-0.0995841843355759	0.19244342993786362	0.24609067973947482	-0.8736891724462464	-0.5199574815020224	-0.09417621767585553	0.5442646728125703	-0.07605598102679195	0.30254182143120845	-0.5550320134454806	0.14381796085286747	0.8920629598029638	-0.3729395260931777	0.25268432434181554	-0.5861296638949207	0.20910653419152392	0.9938752626121662	0.23335431457254202	0.22719787003852498	-0.23361258149770173	0.26676288179757307	1.232044932115826	0.4824461924770088	0.11153046758626389	0.47688802956341425	1.2178540199049506	0.2483694994139353	0.6674112064677197	1.4348559343351006
-132	-0.7985167483196324	0.35215067774554853	0.415512054109548	0.2120020980250794	-0.1462920453431191	0.16311192471330405	0.410885064756606	0.3769411137123929	-0.5979258999033461	-0.14022612536312615	0.20399013110156683	0.7270082216981111	0.17021940605579486	-0.39430293341266864	-0.1546316142946513	0.4725037801257072	1.0109735701785552	-0.7757723311865048	0.27166843345716957	-0.16554091828989695	0.5538797960602366	1.0827187272392373	0.3087580494237842	0.29504027888194123	0.16510178107062298	0.6009536370363573	1.2939202752823598	0.6079142674356535	0.6389121993146362	0.7496872525360851	1.2164702384753387	0.9273653603028231	0.9383268928679214	1.2640275923286566
-128	-0.5172789083772238	0.5107406960943843	0.6468985660432823	0.3918482353330813	0.19648425231440317	0.47556421040629515	0.6197062119096659	0.4164907027696443	-0.1949696535910009	0.2919015280983161	0.5639217481680618	0.8644777514566246	0.5194491134880166	-1.0027940247966798	0.322768717189314	0.8318565466859275	1.0497786972244414	-0.8734963514208849	0.27739721466600287	0.3238366536070584	0.9193483567868397	1.0918220254035096	0.39978265661393686	0.30180227680302496	0.5987237080716504	0.9522524452009268	1.2321572272662993	0.5983195289764489	1.1207584114388507	0.9801468228389353	1.0471631262090115	1.5614463051473877	1.115904447599177	0.8533943273932685
-124	-0.056615095442645265	0.48886594052865634	0.5806908592821876	0.4289449442524063	0.388746856661636	0.6509612186209157	0.6482177956427653	0.28363874483022194	0.1249659058276799	0.534092424951595	0.7901577929574359	0.8162594416990613	0.7246250491920736	-1.2127950160877672	0.6770046336247425	1.046157357435611	0.9044938064627106	-0.4922516035526401	0.22277729156991904	0.6910568458275759	1.149410483319331	0.9367471909714276	0.39533761043871235	0.2105783367800855	0.8728867747203061	1.1594825953773364	0.9964846943491997	0.40673947231597707	1.3008068767130319	1.0175253127157244	0.7125205975662928	1.8084832384226053	1.0539059612368482	0.23205879272045857
-120	0.3302994064098028	0.2530555718708617	0.21519789045361054	0.2785571508527258	0.32094401040108955	0.577384947272712	0.4146910299321623	-0.023175015987059084	0.20855569786822287	0.45831826213517024	0.7611907701347577	0.5329776392831755	0.5951709136241384	-0.9113766528007713	0.7788423876171996	1.014106867137197	0.5572695718046995	0.2855024330560311	0.08579756297861055	0.8137150386293134	1.157553550658696	0.6041107758528492	0.22172047141839718	0.031682290056824026	0.8803526736920876	1.1386342019897269	0.6088656171685116	0.0763046367030059	1.080397007121808	0.8161212185281761	0.29628541990815543	1.5127531251860977	0.7365257721425263	-0.46001589182105446
-116	0.45563313249946297	-0.12377583949309907	-0.29946041031571247	-0.019686605731612856	0.03232320762460474	0.2802375547963134	-0.017943602010007963	-0.4064125706425318	0.04323320452384417	0.11924054443533191	0.49486252540578934	0.09487432962544413	0.11782149195726337	-0.2255428278712253	0.6363807304527719	0.7640462498448028	0.10259687129581933	1.134686228748352	-0.100900515659214	0.7048708778704881	0.9768092607631638	0.18247514917079477	-0.09655526256025276	-0.1674935664478088	0.6649398190876373	0.9382297372971827	0.1852803970665824	-0.25832816893205834	0.5854654893398654	0.4844475674319015	-0.035009063691918384	0.8094030002185694	0.3125417820668954	-0.9693603491151004
-112	0.29303613231107345	-0.49164044732897866	-0.742810187848553	-0.34662109525905166	-0.3142058841401781	-0.09422063803726224	-0.47030824304094887	-0.7093737107486764	-0.24124942659026746	-0.27878698636239946	0.13164827194354475	-0.32860466754918294	-0.5236191140306194	0.5446110950071302	0.3838146617258922	0.4306115497207632	-0.2976270310516951	1.63972401204967	-0.25766876274857303	0.49844372146646515	0.7324091177568628	-0.17554207101847644	-0.4380902636911391	-0.2902403764549424	0.3921778192155347	0.7059375029860507	-0.11237740488290031	-0.4351083029251998	0.09633063500640324	0.22843678237937592	-0.10411933783231209	0.06069928392343971	0.01850681188500411	-1.0293434832333719
-108	-0.017016271086288573	-0.6990573388569982	-0.9381979680215976	-0.5542778954816864	-0.5257012234766566	-0.3641387811050215	-0.7433785777396962	-0.7951332310628552	-0.4505674231597594	-0.4985954152870355	-0.15201258620983304	-0.5741050228882927	-1.0429884168994832	1.067289111303767	0.20035301098307176	0.16939286844878132	-0.5038839565906693	1.4985834322287086	-0.29874133988295765	0.36350914744152635	0.5566670284521864	-0.33914631519522104	-0.6480929239122761	-0.26143962078844524	0.24530546305234752	0.5892429932976133	-0.16803632634176316	-0.35728123693860403	-0.11876370727833269	0.2225895965439952	0.17009380416840905	-0.3454214325766862	0.03478471180955024	-0.5101699816221008
-104	-0.25233784254261094	-0.6683797819428744	-0.8308133461957024	-0.5363401161004002	-0.4806706893229222	-0.4099898625989846	-0.7236480694620268	-0.6193112119297367	-0.4341328729159133	-0.39920273322405886	-0.2416716211893068	-0.5724385962338696	-1.2025915353930086	1.1301548452453882	0.21073664671620923	0.0683209298316261	-0.4740686404656894	0.6831501705087931	-0.18188193394516544	0.40441834824499406	0.5062355386350557	-0.27493384411062255	-0.6244593246906341	-0.07204785924840976	0.314118980568315	0.638940511520833	0.01571347187962547	-0.05396894351923239	0.03800725927293738	0.49365594858464745	0.7031320911774904	-0.2147790933193148	0.36769294645935985	0.47423028826191216
-100	-0.2334319645233271	-0.4298255432720946	-0.4950284051317805	-0.2833695702550959	-0.18567782593578008	-0.23083840252292484	-0.43798309454010353	-0.2562422447887652	-0.16344477195005067	-0.007072967459285285	-0.13866957987106912	-0.3789532771079627	-0.9349393224953095	0.7365503292561119	0.4227276135739049	0.10725855055193302	-0.27914193202114074	-0.5302185402834887	0.06337685867044078	0.6051649435976852	0.5328326807874477	-0.06489456428594412	-0.37615230584542697	0.21044619328295208	0.5441370592684284	0.7767683844028315	0.3112366191635439	0.32912275112026257	0.4387309540162122	0.8915402270696035	1.2626429764340201	0.3421733072701744	0.8326494672733725	1.5820642669788774
-96	0.08033472279293238	-0.09718240772983484	-0.07538925837317895	0.10877441587403357	0.2400421494145512	0.06871306878861334	-0.029601611122257898	0.14044722879236224	0.2617139809676537	0.5061671125030263	0.056368604160089264	-0.13128983941309288	-0.37096324469367215	0.0973057893442084	0.7323494535075933	0.18554367078189057	-0.05393186197969512	-1.682895894570066	0.34733754308744297	0.8470175840927179	0.5233899937766813	0.14317601883025724	-0.018623247695633713	0.4728046643717737	0.7740411738880191	0.8470813014578219	0.5329024778263035	0.6077835544499911	0.8077346662155183	1.1680264443471593	1.57332884868123	0.9682228540770788	1.1487059564198645	2.3855853020519273
-92	0.5733010158369474	0.200834333389579	0.29873105808175987	0.4852062749533319	0.6379824860677769	0.34931039721988266	0.3266582182743121	0.419752745760676	0.6758826357943233	0.9245113707088934	0.21659398024233734	0.03645570566986767	0.23441614151421236	-0.4703577446983099	0.9901956294808923	0.1976545001046462	0.08440388717799106	-2.3403606355706494	0.5647934064910565	0.9879529451222357	0.3843539645504583	0.22303368094877304	0.2874850921525116	0.613146601559406	0.84013348605712	0.7223982792735317	0.5402454124162238	0.6589517576746856	0.8887798167677349	1.1218284340191569	1.4564528428499097	1.260640975630359	1.0978364916740302	2.5669519836466326
-88	1.0395807001569883	0.390973745789467	0.5703859314822772	0.711485145679869	0.8922557808283254	0.5184581266664829	0.5179935680662764	0.5116394149260386	0.9391739344726858	1.1024664612592032	0.26921486786583004	0.06799531710862083	0.6370093806396308	-0.6936002356183651	1.0859795781373767	0.105285472902076	0.0970972848467299	-2.277991527528043	0.6451020820542878	0.9508445238902419	0.11301045091230025	0.14053109252734947	0.42101126802960853	0.590374289452594	0.6801624280923253	0.3936628093317195	0.3163217298150729	0.48484685894624374	0.5981967434085217	0.7216041665931942	0.9270185804803954	0.9987177823600718	0.6542253477745094	2.0702142663186214
-84	1.2939740386718113	0.487473039588417	0.7600732426526853	0.7429223041850925	0.9785912608235146	0.5759785160781427	0.5448871837210328	0.4586902249199519	1.0057448123334802	1.032143351809982	0.23590350091502102	0.008205365368868938	0.7244203668424316	-0.46791836501239104	1.002854821534197	-0.03794732680276704	0.0324472672418109	-1.5680941303716924	0.5833302125508228	0.7669292669006649	-0.19023698520313895	-0.03395114085447097	0.36095723418655573	0.43973392137131545	0.37266942764606	-0.013871280441429304	-0.026490505717867888	0.20549724944206868	0.07263120990535368	0.13021710482145618	0.18945845913737078	0.26526847414753746	0.0036250334141522283	1.1204409571015785
-80	1.2689092127234363	0.5704307541750352	0.9230765080988381	0.6444286687793156	0.9594902371977287	0.6015594586443248	0.5055278526894241	0.38570305607689837	0.9311507320736615	0.8346323349861092	0.21389283185838712	-0.03440780556455496	0.5553517327592487	0.10333044800895975	0.8169251659748767	-0.12054634808861314	-0.016147348989011295	-0.5276621566801712	0.435768364759776	0.5526335821504191	-0.37505006695470094	-0.1741893585098754	0.1886726464037972	0.24781951245682016	0.09035813040569868	-0.3080261937947574	-0.3138291827861487	-0.01528135124461093	-0.4118970026107253	-0.3824641992926257	-0.46485075237212575	-0.6008899792758979	-0.5549043999013387	0.10679980340457745
-76	1.0409852240029296	0.7232137900212897	1.0909143658751617	0.5490017519441346	0.9299631095295102	0.6922080499338612	0.5238670097476144	0.4207428385125403	0.8218173363917549	0.6754130107993237	0.3082273892726887	0.037494990879998934	0.3067927948835342	0.766885695905444	0.6428599937420774	-0.046648118527177596	0.023032795579693774	0.440081356844834	0.28489917444778246	0.43420025596666173	-0.330349980950767	-0.1785712237617975	0.034149113956302296	0.1032298055665106	-0.004240279075228486	-0.34142035159695033	-0.40929159418720384	-0.06601721031687359	-0.5996968134997966	-0.5873844608735642	-0.8013391474519108	-1.1890015572092414	-0.7676567415883118	-0.6014416798665461
-72	0.7808740715338841	0.9721486543906533	1.2438554732389613	0.5784586653409849	0.9559241509144654	0.8944650269813474	0.6709443909871501	0.6168870314281972	0.7646036128766903	0.6638383252549691	0.5617897496344737	0.2490878992944381	0.16829900401062511	1.2505989043132444	0.5639885649746864	0.20077834972711509	0.1566364612200934	1.0274542544173408	0.19669967840123873	0.4705461251776469	-0.0520647874650132	-0.028425754907484682	0.0028229269593462547	0.053552839769815654	0.14529857002767235	-0.09674794947516392	-0.285180985207569	0.05463915304455596	-0.39514487882031774	-0.4150718440066708	-0.7461517434355144	-1.2262880771193743	-0.5510355220233809	-0.8059390166915484
-68	0.6590343697121358	1.2668024269545244	1.3264318671115918	0.770730076274461	1.0429593298329063	1.173415896314143	0.9262682772138571	0.9215218997577315	0.7827721814419641	0.7976332882770021	0.9251530743129251	0.5406635389982676	0.2459900223958645	1.402762528692557	0.5901814088225877	0.5451744781081249	0.32997640884058044	1.1437705726356333	0.19537796030784263	0.62158143363421	0.3505970528810781	0.20879930205080485	0.12442675201472533	0.09328421926788269	0.45793524268881064	0.30380839032716533	-0.0251645538320583	0.25154846843152107	0.09512796974006484	0.0193758476036352	-0.3992356349878918	-0.7038740497937812	-0.0193760692584074	-0.5297762142157273
-64	0.7554476838112143	1.507896777160639	1.290189620575287	1.0532366010777106	1.1428309650177664	1.430767890178857	1.1938034265895128	1.2074530094179048	0.836795864376704	0.9725443100216735	1.2778540817422954	0.8040004948344127	0.5181097375186504	1.255947229075437	0.6580045206623066	0.8530737140098311	0.4666121590277586	0.9257554984561491	0.2605442100145676	0.7726903538268849	0.7084900122874676	0.42515981090014643	0.34610789926883123	0.1797480131617881	0.7599449138528079	0.6636471135550124	0.2326975011910979	0.3998816599286588	0.629589436848855	0.488347886759899	0.03606135389044874	0.13595376874454118	0.5864738211129848	0.034525029274080694
-60	1.022854444782348	1.6077374179302941	1.1381621332042977	1.2814240423274594	1.1927301853583967	1.5612420996349028	1.3609199489565855	1.3449488844293427	0.8655989744266638	1.0510007116485414	1.4886989555919823	0.943354067804875	0.864418742858446	0.9822449659343765	0.6717690808501803	1.0007313464647902	0.515469132552478	0.642807601259452	0.3455575099803649	0.7994751314005561	0.8745382406089283	0.5349416123235661	0.5694355354237332	0.2658345096552179	0.8779920317417182	0.8113186338921691	0.3728785505417265	0.41970777405630655	0.9628747677334647	0.7730811218770457	0.3585917642599718	0.9331967807097005	1.0224060986454795	0.6292025431005948
-56	1.3166773286001479	1.5435689648757511	0.93857896091004	1.3209387030629607	1.1569519013758522	1.5115394554122454	1.3622759546218022	1.2729830709742591	0.8339730480119132	0.9443954205511166	1.4804086647803938	0.9238600111524325	1.1411144704618583	0.7805966715177998	0.5589749202920626	0.9327548718744515	0.47498667120220217	0.5487098083947618	0.40275800126432276	0.6341366751872889	0.7890263179885214	0.5156565295551786	0.7040443998681192	0.32470744766270593	0.7258954029829641	0.6775153262198886	0.354038714468687	0.31420028130358335	0.9615519022506596	0.7635144572054595	0.45233794932601984	1.3815653289246026	1.1464997501037184	1.029501912378785
-52	1.4689111672508284	1.367430206661096	0.7960910777019773	1.120947954208758	1.040707227940399	1.3042186465713612	1.20862805538204	1.0277092430870463	0.7521771173560012	0.6575843079177011	1.2614394394497541	0.7794208506932844	1.2496398655812297	0.7588719110402704	0.306345432223302	0.6803039891233094	0.38054132365470406	0.7533467989021203	0.39836847681556636	0.2940516464438703	0.4936726080828201	0.40389081733774135	0.705671785480313	0.3485236755154786	0.3357290319072638	0.30912980359230974	0.2085437024334921	0.15024170241570486	0.6426807029710456	0.4848337757267486	0.31014722507373454	1.3454276289349698	0.9535684561496	1.1004548045031128
-48	1.3686779702916738	1.1685967415869303	0.7960580567288551	0.7425578813878558	0.8751139022667156	1.0171917651244036	0.9692727898921464	0.7154178601322201	0.6593280417962026	0.276015042561796	0.9132437086890017	0.5826560244154706	1.1655391425269621	0.8754310585807646	-0.03822087486869245	0.3354966333978712	0.2709951393914866	1.168881413369659	0.31755644002847777	-0.13592238689914615	0.09534069126615054	0.25587829882868557	0.5812930450068329	0.33282002722634535	-0.17435346499768892	-0.17644695893084938	-0.00023588174312425716	-0.0005052940674407215	0.13010148671204502	0.05001514019855492	-0.0004949034761249531	0.8786715842950867	0.5360297547158384	0.8044527748778265
-44	1.0078786586110517	1.0086145375535907	0.9478223299891808	0.32339966215499094	0.6834244114787124	0.7309566717766431	0.7199251633587553	0.44566655046476594	0.5835632667113062	-0.09292284375810249	0.5418637381224346	0.3963400115496917	0.9199484563489232	0.9745036338997833	-0.3952884068045745	-0.0008247512721122716	0.15736690123881042	1.5492529829964712	0.16110898513648994	-0.5521399960882803	-0.29491829797671637	0.1020927352115819	0.3647277644008825	0.26134481960116934	-0.6691414100918914	-0.6613644940844571	-0.22815851809594456	-0.11746783524896208	-0.43156063447712556	-0.41988658799018125	-0.3937161852909811	0.15614408215200823	0.009642244292293189	0.18784147453566408
-40	0.4763933408153499	0.876269874744571	1.1641268700772196	0.0015561163851818681	0.4610277402682068	0.4815304863216364	0.4949934768100303	0.2681358449841854	0.5146859275221066	-0.3784107854349092	0.22702181281946418	0.24080717502831184	0.5642841444073813	0.8938270188652825	-0.6894325596569026	-0.2624868445921825	0.020412765391787765	1.616204376908551	-0.055566876986400844	-0.8757129289451958	-0.606402216810809	-0.06711696071368653	0.09087392664854085	0.11147842528092577	-1.0544015142522598	-1.0716041299467423	-0.46726867438597963	-0.23895306824912613	-0.9407360529990153	-0.8472356774874004	-0.7971339801689792	-0.6193864329912533	-0.5379557595976028	-0.6227638109696342
-36	-0.08637797810680671	0.6956137997230836	1.2924617496283883	-0.15447297653298211	0.18483687890592848	0.248686998454691	0.27515661646990813	0.15365532001801768	0.4096939851430666	-0.5709164724240835	-0.0046484297955393765	0.09524966752322774	0.14348819815648017	0.5701125845820274	-0.8741250612123884	-0.43299066911096623	-0.16409455198342904	1.20925891094075	-0.30078554077501335	-1.0707039806036172	-0.8188379386255346	-0.27893686224130876	-0.21396557932715182	-0.122498713124463	-1.2965815034555723	-1.378926512097769	-0.7247570734799177	-0.42096012724452037	-1.3519260849198447	-1.200823184796277	-1.153475281664171	-1.2895469632969412	-1.0558363172576704	-1.4319357835856374
-32	-0.555363117246372	0.37992483281534867	1.1794341772819195	-0.17082141296650638	-0.1596280183338173	-0.019165024112951772	0.012122318118007064	0.02568359666538739	0.22865620197740136	-0.7071533781317542	-0.17605526700869684	-0.07544066737916792	-0.3053456537166862	0.0777939630570872	-0.9385710930969495	-0.5339121805062493	-0.39493673940128754	0.3814545562173245	-0.5259883390498147	-1.1361290187761424	-0.9443609690665234	-0.5391497002340843	-0.523248134722474	-0.40437966483063253	-1.4035520518152584	-1.5738345344862277	-0.986711380374699	-0.6773559434001617	-1.6453596311989547	-1.463653560757755	-1.4067827427632174	-1.7621109441137197	-1.5042825899291634	-2.011487002062597
-28	-0.8619715549640814	-0.09685175841435877	0.7450694422984154	-0.13856440747562848	-0.5444622026048572	-0.35629466086077266	-0.3226864627797316	-0.17681692496003618	-0.023444991499597292	-0.822774586984431	-0.32939091241643004	-0.28563538121586696	-0.7331117969123457	-0.41362562671181446	-0.8959501959114662	-0.5968198761176864	-0.630515693026326	-0.6048201307285301	-0.6728814823328149	-1.083645341044576	-0.9987441872176406	-0.8039738515582654	-0.7921873907115585	-0.6514387710336504	-1.389222260782407	-1.637173410096881	-1.1949804991115653	-0.9423934793520999	-1.789403076422438	-1.5991650779403406	-1.493842121167376	-1.994907016485866	-1.8236520244331968	-2.163684839507924
-24	-1.0032528613510021	-0.6557702405585422	0.03383741891781694	-0.15097849032907443	-0.8862256981409131	-0.7390391807970693	-0.6979403478167274	-0.4460815478029668	-0.280056863316133	-0.9087142325346661	-0.4903356718558172	-0.5076679574546813	-1.0625119182463703	-0.7353318911106895	-0.7654416541801164	-0.6392146928861075	-0.8008229712294591	-1.389616009064799	-0.6892521363976231	-0.9217875576588246	-0.9849341486859182	-0.9862344836130551	-0.9531334018484828	-0.7619066815213473	-1.2527320353350804	-1.5386626681580968	-1.2606779305100264	-1.0871279212207199	-1.734425540359766	-1.5511954983647969	-1.3597713674546636	-1.9752341458995488	-1.9331617306539037	-1.799247856365844
-20	-1.0237538788697378	-1.1328020067224693	-0.7882183770306308	-0.24502280292637507	-1.074718711046972	-1.0845104428566619	-1.0227861378596077	-0.6977694613005878	-0.4388377357370577	-0.9106819010630234	-0.6511176808130561	-0.6797963959696838	-1.2022113769695908	-0.8098247626839352	-0.5644356594140177	-0.6602448208351783	-0.8425666072553532	-1.683723803083906	-0.5511924610526783	-0.6593924744170422	-0.9002373791854016	-0.9985037420812237	-0.9370205378716773	-0.6655238850003168	-0.9878245567177137	-1.2668446270429188	-1.1127635212460232	-0.9862668489350864	-1.4475450479200072	-1.2836868730559994	-0.9952862237597269	-1.7171010927716701	-1.7686449244667908	-0.9959434841760056
-16	-0.9829233859994971	-1.3573127950731756	-1.4915983639251162	-0.3847062578025138	-1.0272935602954323	-1.2905175653300132	-1.1890654533882792	-0.8161962607757588	-0.4186000217359527	-0.7689149956363435	-0.7791104297040778	-0.7390518169817297	-1.0870538922520958	-0.6810389143915344	-0.3120927206742914	-0.6533877833082402	-0.7360885720742028	-1.407189604067427	-0.28073310781172484	-0.3208689681535068	-0.7561327795965329	-0.8066109994550497	-0.7106043678462468	-0.36993339564384303	-0.610766528494889	-0.8641725160715006	-0.7494308333549088	-0.5958063587404845	-0.9590787267312384	-0.8275210836498459	-0.4645310330583578	-1.2710192171431578	-1.33052396438367	0.012348853020484588
-12	-0.9287105179227179	-1.2472496001224818	-1.8726341677116285	-0.4904353010193077	-0.7401347737699197	-1.2938070264575723	-1.1323791713735003	-0.7275988441216992	-0.21188044494539998	-0.47356015324239437	-0.8419878461560454	-0.6582939012119606	-0.7214691620731188	-0.4687102127162329	-0.037064608092904246	-0.6223380549930785	-0.5198625909077795	-0.7330334764093087	0.05573419094915324	0.04401607055279909	-0.5904521927231187	-0.45956063154540944	-0.30868178528098666	0.029872002004663337	-0.17888918473854903	-0.4340649236210409	-0.2568552487564101	0.005826361462664882	-0.37877949976655884	-0.29389026686854836	0.10306327764000921	-0.7262677531979359	-0.7061161381059916	0.9250839329251603
-8	-0.8845220781882441	-0.8662351347987454	-1.8369770003669617	-0.49383875602971206	-0.3030115656354973	-1.1112791271762845	-0.8756149389094325	-0.45592203621195987	0.0999820229867054	-0.09469854807786472	-0.8312589505189182	-0.4641012537682899	-0.19610282729228726	-0.2883901588788184	0.22032381538554643	-0.5860075935827289	-0.2720382504747448	0.0005689818630530739	0.36824574973593355	0.36846056487516166	-0.4582992184512126	-0.0738977340978271	0.16519832569375417	0.3877925863011913	0.2186154866659521	-0.10546872738197527	0.22152455095151513	0.6428412778836652	0.1397391256142184	0.16384172398209138	0.559806881921737	-0.18755492520662986	-0.0470768621865451	1.5022488794545616
-4	-0.8514824488122801	-0.4014037241338003	-1.4353579246521315	-0.3798882951681936	0.13621345128001072	-0.8364147522789723	-0.524916647539459	-0.12239740012976183	0.38247334860557564	0.24022900997545027	-0.7678568939849622	-0.22592580261410145	0.34346300276824576	-0.18908448469583297	0.4187361885465983	-0.5671125040041222	-0.07103054952569364	0.4717135119449479	0.575535117126778	0.5949719533203806	-0.4029590775329649	0.22189406994586722	0.5785278067287498	0.5738358483131667	0.4977491485426511	0.031120950277552985	0.5521806464559145	1.124391552947317	0.4720444667342277	0.42404097211589237	0.8050245622337132	0.2680805318739735	0.4929997908542942	1.66553651866022
0	-0.8152993300834432	-0.06756203604568126	-0.8332399704876714	-0.18719538999025243	0.4434092033635316	-0.5878260120809454	-0.2143521601510278	0.11975114017293056	0.5188997374785088	0.41499638452657567	-0.6830059272688009	-0.015479724815148333	0.7617939095337171	-0.14477379583523356	0.5369468913826817	-0.5679450616802428	0.049783576154187166	0.5450392947741156	0.6371158941395755	0.7073876839897746	-0.4205779124608632	0.35810997991746873	0.8347161987210965	0.5397229777060866	0.6255843623579292	-0.01728396672116988	0.6830421072880882	1.3421571220844015	0.5912658557268933	0.4663465309289877	0.8377644994565032	0.6264004691521334	0.8289636352590578	1.5254476031890203
4	-0.7522667031368725	0.011006962480173271	-0.23325358272312594	0.028024328801806827	0.5670879468905368	-0.4391062844634152	-0.030720760968251094	0.1781656886609308	0.4747411596709922	0.3990519930778025	-0.5881202802114586	0.13714045251553952	0.9977433656297439	-0.0899856460802765	0.5912895187708094	-0.5516761527438093	0.12314726381204599	0.3426544359615866	0.5701693878083549	0.745715139413637	-0.44425085074795756	0.3669963469776286	0.9258791184891011	0.34433966788138887	0.6429492218950809	-0.1326751705634649	0.6762810332389961	1.326979395377116	0.585902868222123	0.39022833010378793	0.7641674856919699	0.9365950799183448	0.9791229938582133	1.3161230054051363
8	-0.6368821843280011	-0.12888389793280866	0.21196529215702353	0.23277734161257294	0.5619813189622981	-0.37473535443108147	0.03526720395720826	0.08449155070907315	0.31609582821194454	0.27649101545144816	-0.4584581542361049	0.2619180076662047	1.0855330201398468	0.028559453713313775	0.6327241047143233	-0.4487069535847599	0.22964666725829452	0.16860382216323686	0.44158574827284425	0.7878553251402205	-0.3657813957039169	0.3687898805367143	0.9374563670331746	0.12321617423181297	0.6438988430932449	-0.1363003995553573	0.6778582913450604	1.2300884692606582	0.6084899886980855	0.3640597751485712	0.7477089743809846	1.2661491600494355	1.0445915434213147	1.2716619936307927
12	-0.44974923020299334	-0.3081746391621957	0.4554234731619949	0.43731197604394945	0.5534446225498302	-0.2983428828336402	0.08228294530598082	-0.013380320708944264	0.173117607394875	0.20633946307061857	-0.24231934486244563	0.4312170733055076	1.1229038210174795	0.22258557323048303	0.7216020208259877	-0.18800137889603155	0.4498758006658543	0.32838836229383916	0.34077870759756324	0.907316026781055	-0.08714506753138748	0.5058816658599176	0.9993411873382037	0.02049739653657455	0.7243148666214455	0.12083993821629367	0.8376992919752836	1.2371951310392855	0.7857796529958029	0.5321851955328875	0.9251379943378351	1.63924252573039	1.1443514795021477	1.5054788551467853
16	-0.1918386663123382	-0.31124156634904776	0.5492267594775936	0.675128994667686	0.6564064009306237	-0.09724452322011458	0.2313215577722543	0.06395602210109981	0.16393646556472266	0.32676705635539716	0.0995513049234847	0.7063739281939942	1.1997860639798035	0.4684183585738271	0.8856062270693266	0.25363939936496266	0.8043732026772522	0.9379550790947512	0.3404535344588121	1.123443719888492	0.4162911166171178	0.8517865517091564	1.2030667036199583	0.11516817630062463	0.921882686671646	0.6679843647304328	1.2156926362815623	1.4576791488084224	1.1372860641376008	0.9265866852254434	1.3252252306858052	1.9936428019733716	1.3387905325466978	1.9501664589282317
20	0.09584273373724551	-0.02887388125222615	0.5757917151218882	0.9467095112740339	0.8861673451938253	0.2643762820244696	0.5278571234727393	0.40128987926256676	0.31639838138806053	0.6463283284081559	0.5378412590752784	1.07098316875904	1.3252509798922831	0.7263159733554374	1.077081319950614	0.8034832457283578	1.2088283269879798	1.822660441565217	0.4569744754221018	1.3660684789499955	1.04786729548061	1.3385775055468083	1.5244655570641803	0.3754226555882512	1.1759761542193612	1.3685619796532336	1.7185633139136083	1.8419914199099656	1.5452771147814117	1.4287625515150968	1.82785772815793	2.183945411890243	1.580041762177465	2.3839871823202445
24	0.3288320294661046	0.45276117210517897	0.5688194022122455	1.178200361138184	1.1240403623811872	0.6891039592510855	0.8813347198169275	0.9046022869159279	0.5384574518914106	1.0015846465572404	0.9471825933384217	1.400859471598973	1.4059829676416404	0.943255362513376	1.1655445069449784	1.286128160090546	1.4818161688585663	2.576610320261652	0.6335601790644768	1.484687443799437	1.5959608514545949	1.7553099349527288	1.808043117726695	0.6697782857197084	1.3385347094119675	1.954782600235852	2.113804335025706	2.183123821468733	1.8013678743658628	1.8116395427740724	2.196320528207265	2.043772453870122	1.7231001810438773	2.531666987703004
28	0.40023434061090435	0.8781995155096576	0.4829269933428756	1.2314524619482545	1.1677502364239676	0.969554600651933	1.0874510976038763	1.3168246712816605	0.657917855509022	1.1207263441400426	1.1355526418626194	1.500216122654274	1.2962309089358888	1.0413867208891228	0.9808781122238382	1.4749406538917944	1.4131537640178842	2.7621745993494216	0.7580630164080658	1.3059120145251548	1.8032740309009672	1.8297551824149192	1.8316674186237754	0.8302460291881626	1.235747572639925	2.1334621852415774	2.1235082095892186	2.2094631139284777	1.7070907311254961	1.842301721689883	2.172309393166569	1.481141325072123	1.596742506764206	2.1852862779757247
32	0.22300834897480748	0.9554725861267872	0.23152670205789205	0.968775329528107	0.8387509563250454	0.8858044125127044	0.929715750254317	1.3377888168891316	0.5145107494715541	0.7618901710347863	0.9246960855025861	1.1934987276461901	0.8943098164867442	0.9105194784064206	0.39309790631228697	1.1854460209480766	0.8659107067180519	2.141627544718032	0.7072905284190361	0.7133573275675372	1.4735115729322679	1.3596671785358594	1.4255206548939483	0.7322322707762607	0.7484229188143017	1.7148131088830985	1.5588841398935416	1.725304241592817	1.1703499526039274	1.391661282840458	1.5957722623590018	0.5446608052807475	1.0932135554369227	1.2993347612000858
36	-0.2205907845888214	0.525659679039353	-0.2324216955992573	0.3412777176823629	0.09537591761112385	0.33149564182510227	0.3111428312552266	0.7943310121508486	0.0540902277951732	-0.13912922108809406	0.24938894745327733	0.4335848678132319	0.22362075689600605	0.4316119242738253	-0.6044424160955422	0.37348312045215687	-0.13159738447819624	0.817349253021383	0.4043557931704602	-0.2833958261010532	0.5721325263837208	0.3345381907123028	0.5832482561644636	0.35285138994775894	-0.12480203775844488	0.7074777466078028	0.43464618811542294	0.7315310817368933	0.2505512529246241	0.49940016739643867	0.4994843589569713	-0.5794200882587845	0.2331964367700918	0.026620948619984344
40	-0.85105263971989	-0.3260816923491777	-0.8440338947920845	-0.5494550452665069	-0.9145688987529472	-0.6016233548233627	-0.6587548835334895	-0.23275807441119795	-0.6256169660985391	-1.3974887097361455	-0.7777081708346324	-0.6340637787069127	-0.5505762682365459	-0.4527163196100987	-1.854320759859916	-0.8119324425225164	-1.3556374277220589	-0.7887524346464699	-0.13353566791675348	-1.5245367250098625	-0.728086886951888	-1.018127796463593	-0.4969418334335291	-0.2152974749136176	-1.2474698988890154	-0.6643105728543323	-0.9963780616399658	-0.5362147079281094	-0.8620883800675462	-0.6331620796430271	-0.869944510647687	-1.6350325304712439	-0.822065053294816	-1.3191329207494045
44	-1.5058293304571797	-1.2899167505121942	-1.4216581547129654	-1.4606685601549398	-1.9004654836356238	-1.6378625589980342	-1.682144756838503	-1.406683679843851	-1.3022603955768546	-2.6378776960530117	-1.882479186073613	-1.703077431193612	-1.1815707653731438	-1.656642909635738	-3.0677831095489037	-2.060142988725641	-2.453914874557024	-2.1124412960124235	-0.7820972184462317	-2.738082878829193	-2.09000133940404	-2.3019611777360804	-1.4729573689465454	-0.7989826778266652	-2.3797969758031137	-2.035719627962719	-2.321196073393694	-1.6832135873259169	-1.916863794255538	-1.718793268632571	-2.1291830485946663	-2.392915481247898	-1.8214933826234614	-2.369477504469915
48	-2.0013372847572897	-1.9833852002612935	-1.7495664313966732	-2.1015250629772404	-2.562475436416724	-2.4372453628040667	-2.4031803547266204	-2.2768750133249296	-1.726870413234981	-3.4659905346146935	-2.7351856162632653	-2.4328675208656567	-1.4607825242354626	-2.919520132323134	-3.930735578149577	-3.0155677719274387	-3.0897235792353306	-2.7025756767704023	-1.3487958874027233	-3.6337556747245747	-3.1379165570189285	-3.115946761847346	-2.0067090937494645	-1.2169984548360047	-3.259673110361425	-3.042171709009318	-3.1342677990935703	-2.3209221304469976	-2.691459887385015	-2.4947836336091136	-2.9083580897335177	-2.735937588459853	-2.5193924840261084	-2.8362278866685586
52	-2.2167622987092437	-2.155922645847712	-1.708549018360889	-2.269149774544385	-2.7405893733449593	-2.7628259589058826	-2.587787860058871	-2.5009810861386326	-1.7457846359045124	-3.6634650137914115	-3.1006700914299836	-2.613947384910427	-1.3279266323894952	-3.8648006818469307	-4.238199700145522	-3.4311330231823147	-3.1017615716823546	-2.425069087581513	-1.6508921343130383	-4.013637532591149	-3.6137673763589024	-3.2403845705236494	-1.9266500424379223	-1.3545699085368268	-3.694371214122316	-3.463201514083405	-3.2207064547286053	-2.2443647327978793	-3.0556464118103808	-2.8156502175768354	-3.009257785828868	-2.6849110058707875	-2.7669799257990815	-2.623311989836735
56	-2.159370893748552	-1.8335820390184165	-1.3753808702076118	-1.9562518547258558	-2.500682586078351	-2.607559435936687	-2.257352823280224	-2.032394880885542	-1.3857934439957147	-3.302557698494729	-2.9583325311356647	-2.287226194329069	-0.9098609662926046	-4.154520501138041	-3.9924459356597892	-3.2856237805382156	-2.5997826987431867	-1.5157450399276893	-1.6010606248487018	-3.8526072404867246	-3.492207041506511	-2.752343886102147	-1.322167273997969	-1.2088457315442103	-3.627721062084171	-3.3065469181501848	-2.666875355663027	-1.5377600154198974	-2.9901707096899246	-2.6918535164581177	-2.4994182523565676	-2.3559701383235976	-2.561637156694719	-1.8724591684750096
60	-1.967154259483486	-1.3097065654112654	-1.0085840199755427	-1.3658455575790984	-2.0981655067876024	-2.1996626798406727	-1.6880452590285007	-1.1587715119669613	-0.8526777007509433	-2.7050223282229653	-2.5170676644671586	-1.7367894605655896	-0.46201008441626984	-3.6599740889650203	-3.405688515647679	-2.794960253334639	-1.9272829245545495	-0.46044698241330406	-1.2511296240689846	-3.3052101051805374	-2.9889547749395766	-1.9969350049145835	-0.5110737072439037	-0.8812346436186023	-3.1522838989778936	-2.7887725759668385	-1.8292598678180862	-0.5463901148352498	-2.56391095467787	-2.260414594665316	-1.6844807820706422	-1.881308670062469	-2.0324451872056053	-0.9102389789488158
64	-1.8425722075671906	-0.9849894021914856	-0.9189527011558196	-0.8196492770481687	-1.8369419528359223	-1.8806863975725852	-1.2708271709781764	-0.36613482144422027	-0.44011303671345214	-2.263976329809522	-2.1117763465969883	-1.3501859869246653	-0.238462507122702	-2.551711076016045	-2.79897403010368	-2.306333536047185	-1.4994347057632416	0.2303194546844981	-0.7703247050863671	-2.634437315965262	-2.454081767561974	-1.4209761583691671	0.10915326299526945	-0.523662088979394	-2.464595073199493	-2.223237747301293	-1.1680500477864308	0.2777016751907469	-1.8923863124752967	-1.709771151994278	-0.9654922460975226	-1.3427331413700565	-1.3732355798382723	-0.11235079885965586
68	-1.9509471605635287	-1.1455497712776868	-1.2933990922697596	-0.6047359689703198	-1.9049906682555464	-1.9214248608715248	-1.303741809414362	-0.09357123798349334	-0.3940892805640107	-2.2307090702957355	-2.032332892055132	-1.4138640129632345	-0.36190247444333973	-1.2501165835289396	-2.4492080149802846	-2.1257638877604035	-1.5910448987845114	0.24547596213829703	-0.37060987855801336	-2.0978906101665924	-2.2003128473042413	-1.346745249209048	0.2543190413252981	-0.27116268804752724	-1.7870553686799524	-1.8705016327362387	-1.0199775670048823	0.5869865998706929	-1.1048274012327957	-1.20014893705628	-0.6447305066996961	-0.762567458611659	-0.7644759993325484	0.2632680528669588
72	-2.336433881582761	-1.8029493047970506	-2.0705902524169155	-0.8404124357939645	-2.2760918082945585	-2.3760886132331307	-1.8293917132919966	-0.5094742166053944	-0.7981187681074718	-2.5849664146009066	-2.374025815691952	-1.954834098648808	-0.7636262755187758	-0.24004757343721206	-2.4604604182111522	-2.3655872285245367	-2.186218971454815	-0.39772665400224544	-0.2091263229335394	-1.8417686177483577	-2.349889987734701	-1.8019282772346261	-0.10873339297737047	-0.18973562073487657	-1.2865047422352862	-1.82082938688234	-1.4229510986641687	0.3029600672225414	-0.3249443165204453	-0.8121194222927047	-0.7760947923139254	-0.14430509471222563	-0.31470337430653983	0.1952716256218318
76	-2.9009966777037635	-2.6928374699315856	-2.953083984548574	-1.4290046655815631	-2.737224571946594	-3.0582146567379787	-2.6122429304927333	-1.4317676984877952	-1.5353597363808524	-3.0644817274924194	-2.99142836769151	-2.7205276420571094	-1.2262335984741872	0.14847920797530761	-2.725544922623055	-2.8925118373321195	-2.9776143952532426	-1.374790665016536	-0.3179033390601947	-1.8514083577142542	-2.7788681913788076	-2.5000863012135235	-0.751518962870053	-0.2616100900720725	-1.021692035002873	-1.964918966100763	-2.087586636040996	-0.35024279267575004	0.34004396114327207	-0.5404737578097819	-1.140127894384027	0.4707917559181461	-0.04648299130982488	-0.09546968316769941
80	-3.4551434429672754	-3.4276263627297423	-3.557575693685221	-2.1112611240488506	-3.020360939029595	-3.6490974334138677	-3.2659852422272024	-2.4268231330635346	-2.3424823225007176	-3.3307750140973154	-3.5796949773055227	-3.3108134186124354	-1.4992616138752508	-0.11766111075973891	-2.9958331509292906	-3.4024577054904306	-3.520499697379903	-2.2064773980699273	-0.5993720277912354	-1.975717658776746	-3.1857387939129596	-2.983965866184472	-1.2991384235006915	-0.41109979048886724	-0.9355447268707647	-2.061748261014679	-2.533647292416022	-0.9564636921576101	0.8141624906965125	-0.32330351986321093	-1.3559741939641896	0.9764662956379921	0.07971643636365768	-0.25836867028808097
84	-3.82040595043741	-3.7222525979477967	-3.6318688300943287	-2.6054687434218238	-2.9682388230723236	-3.881950368616986	-3.469656458677704	-3.044364921512936	-2.9329512045243313	-3.1794769683672457	-3.8437046907655494	-3.3995437536240085	-1.432008143624212	-0.7844971994620534	-3.023758403773215	-3.5862395672853373	-3.471334925470341	-2.4719436106260075	-0.888673482081724	-2.0133967348763786	-3.252354613675801	-2.8661293911096664	-1.4226589166962174	-0.5554946646970591	-0.8939703084309607	-1.869050140430333	-2.3326480329747654	-1.1152136297679744	1.0735768052652481	-0.0855653507337325	-1.0804529162784662	1.2360242574002738	0.12772539225755672	0.0016143863281453956
88	-3.9202701946463367	-3.555490723216242	-3.206044665825193	-2.7461695601747427	-2.628282301942716	-3.6895108129810232	-3.144055120159558	-3.0499823016409655	-3.1238012234974373	-2.6617052487882633	-3.654839744877031	-2.915815584450407	-1.0500963899802922	-1.4672566615253304	-2.6932420662592995	-3.2905051625144166	-2.775009148267213	-1.9915149161602628	-1.0443781587935574	-1.810302729804425	-2.806975834435284	-2.034154409994869	-1.0034042571483495	-0.6477598531581121	-0.7480385284611157	-1.264622327472724	-1.3286784853767937	-0.6378680451500971	1.1659221619733218	0.2293878936936555	-0.186791881447303	1.1624572247719869	0.15695479472587384	0.7656990270356069
92	-3.8121931456638336	-3.170018903358166	-2.584444516332571	-2.5486161644485414	-2.217420095567324	-3.229921809624772	-2.487291568198342	-2.5264365609278796	-2.90347623092016	-2.0447833486429605	-3.108260862132254	-2.0809402413281624	-0.5346655832143081	-1.8626565886199982	-2.0679650254490562	-2.586788647796379	-1.695891137609766	-0.9058487988489685	-1.0168654892997269	-1.3197656836567426	-1.9029496860143005	-0.7097315770350043	-0.18324267817962966	-0.6886690837639022	-0.39128789206896253	-0.29594772979403305	0.27997583080176547	0.36860424187103	1.2130353420148947	0.6552929861690305	1.174504396334283	0.799700317747949	0.2206224048527949	1.862247104711425
96	-3.6493265536678057	-2.920025818128132	-2.1822178308704343	-2.179358476858489	-1.9853388020935194	-2.7840521265311247	-1.8577660275285248	-1.8034139826065463	-2.4167365966815297	-1.6426327187073653	-2.4572350916812096	-1.2847291198719104	-0.12576250700193056	-1.8996684503276995	-1.3400675024531417	-1.7202705101449547	-0.6796368939406675	0.3830843558176255	-0.8613076188276045	-0.6070272907189903	-0.7804694156015256	0.6633782370031095	0.7134973388777611	-0.7076083999888206	0.20352628775709583	0.8563899972274716	2.034811491597214	1.5641833504285632	1.3778206075213983	1.2120457857048321	2.6564876966163777	0.3436989179516711	0.3731306781884898	2.9611909314732965
100	-3.5894758610698907	-3.0549342555164025	-2.2900547923443884	-1.8519083214733678	-2.055881495053539	-2.585286372333253	-1.569768067211338	-1.2592364517844177	-1.8806222629749687	-1.6166074235155046	-1.9646745870578008	-0.8658604600026332	-0.0033363150348472022	-1.7423710779068442	-0.7137246709923605	-0.9706479882529322	-0.11276967795033795	1.3833017314318152	-0.6898094398248659	0.19613639960837223	0.26328712635323875	1.6455007749974264	1.3453156914123643	-0.7268192749746502	0.9791673993184589	1.975324387331511	3.438763371368616	2.5493123466977603	1.799419636951653	1.9111646365550832	3.890230407429699	0.07253278028533623	0.6669324619620924	3.746395101625246
104	-3.708156099494007	-3.5692870526797007	-2.904513351736633	-1.712207789866544	-2.3454980791001594	-2.6853468350322847	-1.7214553312708085	-1.1147041292657207	-1.4795457087355144	-1.8730598640835394	-1.7610723927857752	-0.9260381436809604	-0.20450805075987377	-1.6561238723903444	-0.297308831656365	-0.5076582418976074	-0.1190703433726055	1.7257269577324967	-0.59599459020821	0.9543683504804662	1.0202907298077415	2.0166063257801405	1.5176554879972066	-0.7358623128432066	1.8171440317051821	2.9083635733608233	4.189140309247656	3.056765071780701	2.525029652896153	2.749374621125513	4.659465778030902	0.21756841187382642	1.1336964340197107	4.071641434880005
108	-3.962006797324165	-4.20694016348128	-3.724657526149122	-1.7779325201922431	-2.6085522108975594	-2.93355845664377	-2.1507275050222057	-1.3314089741470605	-1.2922201123990789	-2.1201620048399765	-1.7884861185695287	-1.2827119794885145	-0.6167047604249343	-1.8264408065459068	-0.06403578056618851	-0.32021787681794667	-0.504471479572737	1.3309878077281407	-0.6003962740044698	1.5754837950029987	1.456661578315386	1.8688356829189725	1.2660084930881206	-0.693955240881751	2.578745358632116	3.621898165141475	4.3047985921892895	3.0674064081948744	3.4752774150844106	3.6956355478440996	4.9881844394629296	0.8462126233670585	1.7598037675295788	4.022472848273187
112	-4.218528260070675	-4.612292278088968	-4.315230358672962	-1.9553310821756904	-2.5841607982241563	-3.078315011835546	-2.5387415821828228	-1.6622210699076043	-1.2820595470484502	-2.047788853243526	-1.858075375634128	-1.5835534294201858	-1.0388891670700502	-2.2357814255533146	0.10087472919983316	-0.25342425640018906	-0.8769779779227148	0.4594193685376484	-0.646115539826845	2.0213277288901685	1.6955972867117652	1.5328630170268045	0.8261741974952569	-0.5611628875869535	3.146752349538124	4.184071530268755	4.086413850003842	2.797151558489629	4.46350001161893	4.680674064262757	5.098450170996059	1.8178980304596872	2.4738135275371804	3.849418630417871
116	-4.333641518141859	-4.538018692003297	-4.345881927962029	-2.112533564002303	-2.1580674593798945	-2.9263029024628695	-2.5965819293268293	-1.8122433378241225	-1.345719214856475	-1.526388998946226	-1.7792841151137575	-1.5160062274804356	-1.2753946748957827	-2.671850436140579	0.30236771626425907	-0.12218130349067424	-0.8740671851024576	-0.3946732272674009	-0.6444076879444076	2.288659089985851	1.9188009452058472	1.385496732074772	0.5115812407928847	-0.33677217279284416	3.453696480614361	4.695881831710933	3.9399199386305392	2.569558613965369	5.265545354900356	5.603493199506104	5.271856771510397	2.843500130149954	3.1635820785758333	3.81838153828737
120	-4.224054802720296	-3.9815151590913174	-3.7664022350586195	-2.1573235934149757	-1.4364229404422895	-2.456708425041304	-2.219643110393254	-1.6067541797125617	-1.3818674052635616	-0.6967647654107905	-1.4743934832541379	-0.9824280117980195	-1.2073539464985383	-2.8502147125762383	0.5580006227710239	0.1756051625348119	-0.3603639295539594	-0.7285732012473826	-0.5393469916077926	2.386266702349279	2.253937238724639	1.6529132086029794	0.5685861096331837	-0.07799146304705182	3.4939198405744523	5.219441877538729	4.166154850931665	2.648755305278478	5.711633667830488	6.361330493124975	5.6978711938051765	3.6234102157663193	3.7230064774930125	4.070214738106264
124	-3.9001600643870513	-3.174722186656228	-2.822032206086113	-2.0772914834028042	-0.690378783390323	-1.8257095767656486	-1.526926394422164	-1.0733214589676752	-1.3420604433508199	0.101498275738996	-1.0134756539506193	-0.1449765708362475	-0.8167154768350864	-2.5778007442241004	0.7856866101455434	0.6096910818919219	0.5106897937278746	-0.2744467251524255	-0.3504748633595971	2.3233213366024392	2.7103996208424457	2.3124413431911877	1.076068637038437	0.11447292537397803	3.3140633022559634	5.742872700496978	4.825271594262673	3.1201028745077513	5.7522892806733985	6.889030915986996	6.389907343943939	3.986543645330453	4.103997220168188	4.567820060641435
128	-3.447795859215074	-2.444766992118572	-1.9149452399543516	-1.924370283990309	-0.20894601888354905	-1.2675050465053628	-0.776779113238864	-0.40254464643888793	-1.2422511546242374	0.51502466071751	-0.558459042092834	0.675569651805398	-0.1732304240859888	-1.8698397827623237	0.8597139694442685	1.0507861349278915	1.3943992817959476	0.8507582523800875	-0.16953872101417847	2.1123292392805286	3.1898126521637824	3.1310200612172485	1.924667115120541	0.13930420542355162	2.984508983706294	6.193603976824812	5.732820496390278	3.865792979970646	5.462681279695604	7.182066422449301	7.199392300548868	3.949863423865444	4.333801258589453	5.14426706922633
132	-2.979553691970758	-2.0324368425553576	-1.3915903533133542	-1.7641794637007822	-0.15025818309994363	-0.9574788188602168	-0.21876715068420016	0.1722943331421547	-1.1379214496493024	0.3655800810166963	-0.2594863765840872	1.180616852640567	0.6004176720718901	-0.960588393170298	0.6937524658807371	1.3553838695638245	1.9474619577830214	2.1762938444504547	-0.1170219627048455	1.7766772463764426	3.552401295276044	3.8036620520879607	2.872349731822721	-0.06035589038988478	2.563214534010073	6.4822759464634165	6.571288569071933	4.633949744922716	4.983640181356727	7.285477143013409	7.90072772892343	3.66963075664999	4.480999935280801	5.599827275443094
136	-2.588911288400761	-1.9813088128611405	-1.380980488151543	-1.6362082916911147	-0.4779194879386482	-0.9251819229609236	0.02466658124060411	0.49322366589950534	-1.089879033198027	-0.26910054615743945	-0.17407107309261727	1.2435281245306813	1.3577929700902738	-0.20881362206667597	0.293252795194285	1.4425110780535664	2.0010762164138325	3.086517803028825	-0.28766143249363435	1.3472077812513372	3.6908605005539097	4.105839718942833	3.6387905982653295	-0.47698545335505366	2.0660018868736905	6.545885069532799	7.0466956914373196	5.154752241471586	4.433897960912417	7.25447462157679	8.293619134944414	3.317130080431204	4.589721668099567	5.790862068814537
140	-2.3311853349956704	-2.1538298075656424	-1.7642793610851737	-1.5500134190525958	-1.0104871962784159	-1.0640870305852281	-0.014151390606198893	0.5315366969993685	-1.142286297775184	-1.119311210667358	-0.254406779362186	0.9495605802403768	1.944559926845524	0.056169472492978045	-0.25286585028702063	1.3202573027656088	1.6229256350550336	3.121907464728415	-0.7125732880721413	0.8482316710990825	3.57217763952543	3.981761207064329	4.0015482801497475	-1.0520913574358877	1.4630013667362693	6.370869143613588	7.012837869104589	5.247770296198896	3.8517348669079947	7.116793614539148	8.277276971899736	2.9683074876229316	4.630957591762546	5.671576008782454
144	-2.2321867886452758	-2.346181863583296	-2.2723674716798157	-1.5128790101955454	-1.5396107396355005	-1.2200416295719736	-0.20935223943782894	0.3595648398857957	-1.3174582686540233	-1.880014414809084	-0.40000486272909846	0.5150707351078051	2.221827501409468	-0.32729765690184803	-0.8289952257207089	1.0573548051841344	1.045344707710795	2.221885437124043	-1.35169958727027	0.2867637269409387	3.234395495831739	3.535222998276568	3.8630859754303613	-1.7094436840767087	0.7087859493480302	5.9924678651194965	6.511501295815899	4.878440367779557	3.202444068452692	6.864785177065056	7.872649649770687	2.580492251556783	4.512205112509144	5.281896101013859
148	-2.30273508444189	-2.4239318309620694	-2.6474285058891276	-1.562093134750857	-1.939669008126183	-1.2950129476276233	-0.43806597479845444	0.07751245777110437	-1.622225280480691	-2.3644905030634384	-0.5319709764401055	0.15117239913920041	2.1004819816963045	-1.2904059854352754	-1.3562289442153164	0.7307819109586029	0.5228611217649245	0.7759858946281958	-2.1122431701736906	-0.3424386671480445	2.755794518188772	2.9536528512768743	3.274990311937133	-2.3845512806769746	-0.20630080945857932	5.483039842113686	5.732910141775793	4.15506409549702	2.446514838717553	6.487840636085597	7.205384713100877	2.0667898602756316	4.1502017870070995	4.721637237071932
152	-2.539741032863893	-2.388927215266756	-2.7640268732857853	-1.7679448083110267	-2.202612871331027	-1.2966175046609258	-0.643893419070584	-0.24775743421944332	-2.0480189271717784	-2.564264529429785	-0.6352602823431129	-0.040417648749826736	1.585841770936625	-2.557843678692212	-1.817625518024462	0.39063498279174136	0.20950053579365568	-0.5466629848983425	-2.873239271539103	-1.0312441561411707	2.2254507485469266	2.4213209091089203	2.4201538501671647	-3.0292196197323267	-1.209760782048492	4.942384707370311	4.932952391567709	3.280701152147934	1.623751874638824	6.025234684037012	6.469446642754352	1.417987819906253	3.5658247380827293	4.133602608734799
156	-2.911617033283029	-2.3443195760666358	-2.6564192704843483	-2.1948144380468833	-2.3870866238407396	-1.3066210713776125	-0.8344702699573741	-0.596338449403051	-2.560406439992504	-2.5943775111500216	-0.7437562923726841	-0.08526544996430231	0.8066623786587163	-3.753205766738666	-2.231743091670688	0.06235431118957825	0.11906766116359738	-1.1148842545017772	-3.5085620791544274	-1.7270824865605563	1.731061692635715	2.065048212559692	1.5557224711240583	-3.595427504044977	-2.138584369982063	4.4895253068107905	4.34756611680055	2.4840788778530594	0.8896923042722975	5.596470818694977	5.881887421062748	0.7758299092732124	2.929401390309051	3.6933929826947325
160	-3.336129180114681	-2.3921112953826187	-2.454700702191759	-2.835134260648981	-2.5308346684454617	-1.3950934374872492	-1.0257078383298313	-0.9602683162286623	-3.0835525911680253	-2.575593226605773	-0.8829286672234866	-0.06791083497544562	0.004204249930197877	-4.5368761901751276	-2.595532410744274	-0.22136442307373033	0.17893910362842239	-0.6398341639576941	-3.90304755179126	-2.3170018137607284	1.3639851774110658	1.9508100698808915	0.937594232576192	-4.013322820067529	-2.7787053514896924	4.251904476874836	4.138081540150493	1.9570521066845898	0.47518050550652235	5.382410512686355	5.636777863576121	0.40074154633433995	2.516698115670484	3.589440575120273
164	-3.678905716190782	-2.537990325241971	-2.2799220027581546	-3.5625646024403257	-2.5930178099968386	-1.5439156254888897	-1.1839266985565877	-1.298061129153741	-3.498353949297388	-2.5363047058919785	-1.0171650622436117	-0.03571792310399091	-0.5349837528073159	-4.721719729900093	-2.842243664241261	-0.39310467143945194	0.3252255312337856	0.6904159766885689	-3.9683611292783367	-2.6464836530625337	1.2211587398215336	2.107900852603477	0.7426692228640152	-4.1881918801423845	-2.9416699335214838	4.340907562740213	4.369267452652742	1.8088132097352487	0.5816118702509315	5.553306088731936	5.854912266254145	0.5380710349803074	2.5804562503514292	3.96621059370027
168	-3.7919421100246553	-2.6730921200974045	-2.1730215494605476	-4.145070065523473	-2.4746744570241423	-1.6383283096911332	-1.2179036109692785	-1.520933624242287	-3.669486274991419	-2.4031443535212667	-1.0466711494722776	0.051669027525865004	-0.5894525632281145	-4.32930802205905	-2.8527362274624504	-0.3590190699572877	0.5647313580560019	2.3157808722202318	-3.66642402676917	-2.5748052532038317	1.386214014368188	2.5448791916491387	1.0110151742205034	-4.031119813278211	-2.5450036461471153	4.813754069572513	5.008783804645296	2.0425364919591797	1.2672917810868949	6.176698669097718	6.537261946385625	1.2568699089742306	3.2017962851749084	4.841203677352331
172	-3.5780894665979064	-2.643413537027194	-2.093955034691299	-4.327804077665874	-2.0999734348683647	-1.534337874353403	-1.02925479152217	-1.524699684108267	-3.4964036853252614	-2.0741305298890564	-0.8612693526457553	0.29563355371221517	-0.10655941042222464	-3.562651148384321	-2.517055981956812	-0.044220495857411064	0.9652160977789754	3.5852575211604973	-3.0311298293832656	-2.0393021055232543	1.8933796834826153	3.2424714483412567	1.633329506565021	-3.5073747546334997	-1.652084584833404	5.640080437725498	5.941520199079914	2.559861653540633	2.3966963230657448	7.161113244096441	7.544800739313025	2.3707394540059132	4.214089859813327	6.042336448672789
176	-3.049074403694039	-2.357481235274128	-1.9755117843342116	-3.951768865144813	-1.4959440193554285	-1.1567476958633673	-0.5856514558310951	-1.2488431899011732	-2.967370979446585	-1.513783570282373	-0.4160050441252406	0.7782141546628532	0.7577712516726269	-2.7088954380306918	-1.8073967649603824	0.5543572888683267	1.5887614448489313	4.06899498865866	-2.1724944059834845	-1.0925247641636373	2.6983549526752237	4.136550416039368	2.395571225793805	-2.671545975615835	-0.4462008763015059	6.699570638907964	7.001672727073452	3.197020761047561	3.6917910482657934	8.279674509125128	8.634677865162425	3.5035929591413386	5.260101305078896	7.232193928578845
180	-2.345124238769072	-1.8640869808817064	-1.7892852976446594	-3.050191871571467	-0.8146096447404886	-0.5679010138478651	0.03071895233981576	-0.7276095729577317	-2.1851484720373517	-0.806702790607772	0.21760515813723766	1.4797308407617193	1.6900688367135162	-2.0151474424983014	-0.8182589391076482	1.3411951031201554	2.415151828390243	3.7400395775781816	-1.249767896357884	0.1092706915957611	3.677173605217982	5.111989485231895	3.062511436359699	-1.6618099170689817	0.8497832396033134	7.8190293114661245	8.019781092422898	3.783148994431011	4.862081515434385	9.268472648108146	9.550982451166849	4.274215210613673	5.962651714529492	8.033263186199894
184	-1.6918251471720336	-1.3437677587914556	-1.5764157732263537	-1.8626180840195703	-0.26650339297719855	0.04603768873512252	0.6432970746011117	-0.09394237375383088	-1.3436430658749003	-0.1244793233112845	0.8675202705415028	2.2587950172615683	2.350917094970877	-1.5937596519285973	0.2598573856945549	2.149790043171545	3.31805395242289	2.9354159757888603	-0.41647827520124003	1.3676580156128524	4.66699169887982	6.030702098879165	3.46962522584392	-0.6495510919383798	2.070767635839319	8.84096238765186	8.879766441814143	4.204732884281531	5.746494755541544	9.95415685047852	10.138616536292103	4.499871242606202	6.121824249070246	8.211457231770504
188	-1.3133496012907395	-1.020222303675712	-1.4261941873782098	-0.7503606062064127	-0.009188912785695336	0.46316185476667915	1.0595042678785977	0.4647531497665525	-0.6613174064152034	0.36759877112085254	1.3365679945579243	2.9073073790580697	2.5272483761876705	-1.4059162104396605	1.2193357913703256	2.8103063035583453	4.109593381042731	2.1410131400412387	0.236591204403542	2.518512719471445	5.528199181904455	6.781543714567701	3.5799350648140718	0.23074243904507874	3.169037334070483	9.686489080768576	9.558628058142174	4.445231903297132	6.385240538688388	10.337273571618178	10.417220089360669	4.298257816906731	5.825172886446417	7.810962180444011
192	-1.3414657082067525	-1.0444587442730904	-1.4264938795313837	-0.05141735436451693	-0.05873601496291378	0.5373268709921655	1.1614737481356758	0.7766905407369514	-0.2996453933303059	0.6012077316363933	1.4948708973336018	3.2477762617128727	2.224707121000586	-1.3303041424542932	1.9217617463229448	3.2195694365277405	4.626116740944689	1.7290601686692106	0.7086697202910117	3.4824817092709335	6.193544849017344	7.3213500791716175	3.477056732935753	0.930520591770687	4.2031087769247915	10.376085255174972	10.123228047561422	4.576772201426938	6.976627332239225	10.580317470540685	10.56724831774165	4.019467343672622	5.399474130349572	7.154290181216939
196	-1.7597427323734829	-1.4147229158922794	-1.6076391894759523	0.06331923588024965	-0.2773115627916769	0.2756880812837061	0.9641898846124685	0.753597615246702	-0.29900056048243134	0.6403464062736005	1.344601150932601	3.223401061502808	1.6582366186237187	-1.2637225357574664	2.3509979188689885	3.3824818048908405	4.810744750274691	1.792608495001076	1.07587110724615	4.2728795897369185	6.685168249417959	7.688239555021434	3.3071284210631453	1.492163296746871	5.272659765282785	11.003344508046862	10.687072726923985	4.713527667542846	7.752389411426854	10.914188357454089	10.835095378222627	4.054735173478598	5.236694322716118	6.698277456538182
200	-2.4163703857449543	-1.9816362807787098	-1.9222704123601737	-0.3429647675438262	-0.45278337483530173	-0.16672596293316813	0.602387009530297	0.4198762465843388	-0.5710865244751984	0.634656427688418	1.0159842942335924	2.9237966463656817	1.1384569377766125	-1.1882419556181416	2.6001288825191677	3.3977079305695614	4.736630904636615	2.1496031230060013	1.4377554618775237	4.955869185333092	7.085621339074637	7.969720343495334	3.196133128679807	2.0041062781279844	6.433744414298349	11.670369118789544	11.337558717713307	4.942697035708146	8.839846588704482	11.509195298700865	11.395688028174455	4.629160392517816	5.587154374321526	6.8017916507653595
204	-3.092465392888076	-2.5304508145340776	-2.2711899223206062	-1.0142687533519983	-0.4217198182425871	-0.5694236144948082	0.2570517652697384	-0.10197225187305324	-0.9486009454619159	0.7241474371746942	0.6987070423605376	2.53663181618168	0.9098564959442578	-1.1603627175598676	2.8050992418039136	3.3989190969483394	4.5617494467956785	2.4949157175016023	1.857266421397279	5.591871247478562	7.481724720185168	8.245810487909358	3.1900100627467802	2.5352716381913396	7.645090560684574	12.421380965343129	12.073978393588401	5.271717058223397	10.186422322304217	12.381365744802068	12.249005286762223	5.690379605231561	6.431233866666748	7.53776214603856
208	-3.5928199200519266	-2.889785282468398	-2.5532834465412497	-1.6293823677886707	-0.1598761673705519	-0.7576988916340524	0.06535905583092541	-0.639214454467529	-1.2641515699894765	0.9559894776049743	0.5474695549494067	2.2539594116524393	1.0264524195504856	-1.23435794995514	3.06482648075693	3.485436907551436	4.443761814342103	2.5893227988672516	2.3284766615253365	6.193639739611586	7.913325289774193	8.541170098674876	3.2458844102924784	3.091687433066432	8.777076699031419	13.211366620086888	12.79244896519973	5.621422276609275	11.588030785867547	13.384989704670504	13.208605732947863	6.956784707625016	7.5028838921898515	8.649411179639387
212	-3.8154117964735788	-3.0070185585396	-2.7143104007855747	-1.9515341471037948	0.2138877356612717	-0.6820344907707042	0.06231727435352445	-1.0306727860177964	-1.4219971859315919	1.2649484840881113	0.6126188024312526	2.18599891110686	1.3298065628809645	-1.376729484896895	3.3920907888601106	3.6792807486147616	4.4655203706531355	2.368205302935041	2.787959091776998	6.722158415035017	8.354096391566626	8.815369583761397	3.2715322888745746	3.6181576160633946	9.675591444382516	13.925476039060303	13.330153431615594	5.869059547865154	12.79704281437026	14.290236437004117	13.992050135571906	8.08240983829749	8.44286153569066	9.682206129424408
216	-3.7712554836425576	-2.952936403448483	-2.7664732863197696	-1.9233736943321806	0.5180712329182227	-0.42704248320526866	0.1813352848481493	-1.1777013510533842	-1.423948999624479	1.5200465879209792	0.8285528996529475	2.3239753187632637	1.5400344094494944	-1.4425789081391494	3.718352070003543	3.926432838063395	4.607542503168099	1.9281336020426363	3.16237019694132	7.117234212072215	8.730152108085438	8.992849327270823	3.1873307147616012	4.040836800863541	10.24075124062408	14.43376823595814	13.54475494779741	5.914802059498934	13.640525783432077	14.89447303826177	14.360363924009679	8.829404808640513	8.982211090298172	10.216356251672
220	-3.553599587051583	-2.8602871822621116	-2.770837538399205	-1.6643872219025626	0.623309372281886	-0.15037421844186716	0.30665901225867365	-1.070992228665023	-1.342514273114994	1.608914132824479	1.062155720890092	2.5645284587961843	1.41123008371726	-1.2492681710173488	3.944078197058151	4.136991013572436	4.776736724237507	1.4235519134819878	3.416556111292848	7.340108376090811	8.963008857985812	9.011655784742873	2.9709570332857975	4.320578087388708	10.475670788065633	14.650530778135478	13.385085072101905	5.733519062825281	14.084378206933039	15.106366119391831	14.22803589089651	9.154552436603774	9.057267166158477	10.065445874550571
224	-3.2803101456791945	-2.839241020663637	-2.7953970361704505	-1.3819516862310612	0.5279705511114605	0.006888972112279783	0.34098794970251894	-0.7890870551213942	-1.2641159264119908	1.5039031467614812	1.187936779837662	2.773232691438812	0.8653674699869406	-0.713137267219582	3.9985480207579083	4.235459793841404	4.866599547496953	0.9598016714658939	3.5676510243940363	7.397183399597833	9.007987953331236	8.85758206992191	2.66007065101407	4.476217258596098	10.474712345380066	14.563254319615595	12.910639730282186	5.380073056942744	14.209308588392522	14.957555733109825	13.681087459355059	9.166027045949804	8.793263413162913	9.33208463220047
228	-3.0400807780758767	-2.91537975528891	-2.8718001769992796	-1.2474920718168159	0.35315748960023013	-0.008239222669661029	0.2535579198157604	-0.46643543125644576	-1.2341449229552506	1.2717910972910502	1.1522489757056582	2.8524665760501673	0.03698933115203328	0.03963948776250689	3.877492656454779	4.197988499532934	4.81371973729721	0.5557304606711952	3.6597299483406367	7.335319500523068	8.873249985226591	8.567665078466382	2.3204867781226572	4.564421642223501	10.364711735306228	14.225835764254116	12.25551602130389	4.950828539746453	14.12959285983402	14.553492509337506	12.908744779420271	9.001056648417094	8.390431382929966	8.317130067807417
232	-2.864324085633267	-3.0186126155934576	-2.9690413400075535	-1.3079171147703366	0.26538851790181206	-0.1390005644626712	0.08936145879118393	-0.24091030596467408	-1.2344092099495174	1.0339347097995388	0.9993078087372137	2.783335440284155	-0.7905365208693825	0.6900036913616985	3.6436715034043736	4.064480771293348	4.624544608838063	0.18435402167982215	3.7198512460251485	7.217115384000215	8.617464043794753	8.207486131927014	2.0047917315411707	4.631487834681129	10.23892876901003	13.730707133912398	11.562633485211453	4.5280933265803585	13.917225802569902	14.007658923069119	12.098809211701978	8.724171616462353	7.997678259684513	7.348488789125072
236	-2.7317531039886065	-3.0254619045165945	-3.000658504539544	-1.4755535088478278	0.375815420394007	-0.2549501651049089	-0.060463167574338735	-0.1994003648491931	-1.2041758268471385	0.9021621919742736	0.8472726323670678	2.6253409319397667	-1.3243621554316365	0.8768553711687214	3.394314757360355	3.9217183490921435	4.365299690669351	-0.14822089634666444	3.7273881341286783	7.0931434452263	8.329915979335194	7.841064910165373	1.7285369590986932	4.670588004717908	10.120466206748084	13.178173031913857	10.926873179504582	4.1422862902009125	13.578126873067157	13.400568928263985	11.359462709357222	8.312712648384977	7.651061992401676	6.630428774305919
240	-2.5941893988915856	-2.829911463268368	-2.8662927078359384	-1.5990581472078835	0.6760172826865309	-0.22229312304163093	-0.1073329073461026	-0.3456700435494167	-1.0925332280231739	0.9259446239935439	0.8294965007820044	2.479969018396883	-1.4022302592160565	0.41166517034545674	3.214047423831111	3.8677694699864076	4.125228394583579	-0.35875412731193	3.6201012043153233	6.9849829497413225	8.103665331407887	7.512842159376624	1.4759010039259908	4.614477145942338	9.970300649265887	12.658105818261081	10.379091236612696	3.773197879801594	13.087215390541942	12.783749548107435	10.712424251213006	7.729337195908884	7.308139305736955	6.203876002860889
244	-2.404981607087185	-2.3997600017994647	-2.5051245626143777	-1.561232205263895	1.0511053774045025	0.03345457828539119	-0.0034189170605796663	-0.6017208680219691	-0.9022987462151092	1.083232042438747	1.035117265948897	2.4434833464919303	-1.0586318942998676	-0.5773601517405479	3.1437556664249624	3.977390040846117	3.9796168703693033	-0.3163889042495652	3.3382556354163193	6.889663678894334	8.013846377166885	7.251258354952831	1.2279175488941299	4.3747615703756875	9.730869268644808	12.246661155298414	9.914130185845693	3.3885774526873402	12.449655501404555	12.212311713856819	10.14916035950767	7.01648615019279	6.935334188117406	6.014128669813343
248	-2.136062139840116	-1.7924309923693833	-1.9341440151973222	-1.3451099361791192	1.360640522382584	0.5014770614360711	0.24660973188602964	-0.8444720485347221	-0.6985924226289238	1.3135845627998508	1.4756694994862678	2.5706865722602505	-0.4899165617971372	-1.6738249021231806	3.1788425365298583	4.279861439389701	3.969432105532957	0.06585744751753711	2.877005331405083	6.797961217883184	8.103492716357055	7.08271453976557	0.9878012513016654	3.9043669602046767	9.375050521069042	12.0056810075914	9.533167814981358	2.9878876133822123	11.737734764981768	11.767312020156115	9.694331144652585	6.331072791327589	6.5749006105362024	6.008120521635153
252	-1.7811543896527977	-1.12440538122487	-1.2479590146028074	-1.0301431391456597	1.5341423711190334	1.1038928004050772	0.6012742504197947	-0.9582900976782063	-0.5746031985080676	1.56500541768723	2.089600080936425	2.8632442878912423	0.05701187238604238	-2.3759753644083434	3.289321414272166	4.7539639352935374	4.100209702630143	0.7382417898612773	2.3069806040692327	6.710131151424026	8.375286081149357	7.037255269403048	0.7866650203870612	3.240959874553569	8.927285171857744	11.972347229294213	9.264819121811216	2.6200549536358517	11.070435496036653	11.53819748826387	9.420585608539527	5.878814205585888	6.3351764519007245	6.180102809561535
256	-1.3500114645252035	-0.5122109638633469	-0.5789120182680019	-0.7262694221279854	1.6200180012809415	1.7422845319628488	1.0106713746303069	-0.8788222648366986	-0.5915480241145475	1.8256752444903446	2.7770385672074016	3.278953067130375	0.4093376387751766	-2.371616834374792	3.447114458917722	5.338606344095777	4.349482048497373	1.4979075155586623	1.7485045150480358	6.639662249014052	8.789925553063918	7.134820443259503	0.6669139249176141	2.503475659725474	8.448166825899433	12.140535323962352	9.147396064551529	2.360980504750767	10.549280139991605	11.5720586484567	9.400450682748078	5.787447437933266	6.31189297036161	6.5350041224472335
260	-0.8610686042026587	-0.0145430806657063	-0.031778402546281684	-0.4910970019816111	1.761199231469537	2.3478326738208275	1.442619796925362	-0.6079716667084273	-0.7300450187371053	2.1256506389356162	3.4478189858171886	3.7564072514107587	0.5411578403161419	-1.7137259201651402	3.6444089320676727	5.956994041661696	4.678542602170969	2.0718824811123833	1.3148322072211394	6.606077654372283	9.276761031571105	7.3631086163586685	0.6547424180666304	1.8426805688111187	8.000536898440723	12.450419394530067	9.188100791621611	2.2661468925481825	10.196825955395626	11.826983421982998	9.632180189609306	6.006374820803379	6.500902636327277	7.010179501954318
264	-0.33315014755060035	0.39654451508539973	0.3739451458549668	-0.28453800010367786	2.114559168245236	2.9103341029121226	1.8967012119089826	-0.19200551461380444	-0.8830246903059774	2.514094107956111	4.059998502017556	4.244402874720924	0.5665954337120012	-0.7875053862716277	3.895994891820663	6.546434385937662	5.046110617295196	2.2549183311751646	1.056981799318072	6.625749094447129	9.75812432686457	7.669251422592568	0.7474828343592778	1.3730477059984147	7.621554832289406	12.802434888941608	9.336194014819489	2.3342018068508477	9.943981145548157	12.170586555270758	10.00138661720498	6.31245230034677	6.773200494831686	7.441757660196964
268	0.21846370343841479	0.8134250620332132	0.713574586497195	0.005477047977179349	2.7510785987060498	3.4669787796225746	2.394175523435268	0.3144151262451338	-0.8999418593573513	3.021700851440763	4.62516640449079	4.716361987604049	0.6621463878126466	-0.07966637591275334	4.223261822528207	7.076581460252246	5.414185033480155	2.016286844884951	0.9459227299649852	6.704722864389341	10.175179455816489	7.971668223281676	0.9203942990907176	1.123932954811573	7.315819721824741	13.092300381984181	9.490686392664298	2.502667659162939	9.676698660261067	12.432004897201072	10.31156728048435	6.430563433624007	6.937225801119221	7.6138067053253256
272	0.7858048061558346	1.3348801102314363	1.1106095285985684	0.48277869698704884	3.601021042315156	4.064565171470137	2.954779855897442	0.8745221473548795	-0.6596710069213744	3.6353137401350697	5.1849374640211074	5.170727239905374	0.9686453914028247	0.1123117056633625	4.632558334098592	7.552624683385069	5.7561974380121645	1.5188273153105323	0.9048781968158965	6.838090879341926	10.507839176351116	8.197540262506326	1.1480491132360982	1.039467928169358	7.071062546997137	13.255444493205584	9.550423598018845	2.6850264004627813	9.313279128402735	12.485666243501138	10.382616970551549	6.196282847972833	6.854430658200818	7.382049541908992
276	1.366527792341475	2.0018010088924716	1.6585048395245308	1.1587158412288816	4.476115692281658	4.716240870966171	3.5719940572199853	1.4667159281892932	-0.13570786978314114	4.294596661215291	5.7711143347945715	5.618640885472499	1.5248172244674674	-0.15298026761531835	5.100165354249786	8.00010679132511	6.06593368906121	1.039902684447252	0.8681312777535528	7.013431054527897	10.776322337599531	8.324957826576718	1.4217236006127634	1.023154613772679	6.879131776607692	13.294838871768231	9.477592444333098	2.824524633905748	8.861176468411372	12.317322699919815	10.15993878660448	5.660431847586225	6.532869799332505	6.7940654583105005
280	1.9538969944260152	2.7566828658122615	2.3505818784495065	1.9171284388776726	5.1527967322907315	5.373424039625547	4.197630394828027	2.059689993426492	0.5800052270550673	4.9064879293542525	6.368103011265836	6.0624899711133615	2.25672745134882	-0.5177148567480104	5.56828688169338	8.434364297552934	6.355733378576119	0.8410925247891348	0.8244556763814317	7.208682995715841	11.016413660845897	8.396038034221963	1.74833380734583	0.9945928429288053	6.73967884269464	13.26770588386066	9.326950049693902	2.92860697960549	8.40782449506867	12.022304504558708	9.754625295806509	5.053338038083833	6.125730022223228	6.104413970793891
284	2.5244195397537728	3.4502754124314703	3.0591180247319136	2.5545425350543063	5.470052228468498	5.929032787612418	4.744345652999706	2.590545170919219	1.3090597358077958	5.370399938375858	6.899053556189963	6.4774446323887	3.013003341697097	-0.5680230245554122	5.9552883951511095	8.831438042277957	6.6425580810685085	1.0540142032714872	0.8144569972456042	7.385969620176682	11.241145105591006	8.488208749321286	2.1292078441268303	0.9245340800784956	6.643681509410398	13.236037220915714	9.215185142139168	3.058564655211216	8.050875643430818	11.734728783544044	9.382128691827539	4.629552352660869	5.830411896290367	5.654462800054908
288	3.02509712409149	3.8955643078678928	3.581622114675535	2.8743741439727613	5.391080365874915	6.250448211147846	5.1057596077757	2.9636070653478117	1.8576232148000036	5.602034554642843	7.242560368372008	6.802563173285384	3.625601282502731	-0.12372459439988281	6.173554881721622	9.115402198665508	6.920790177991773	1.6399059254250652	0.8849723316737407	7.485424499686325	11.408707589909161	8.653071381656513	2.5322101052248263	0.8313208797446834	6.550061209353799	13.206940617595622	9.2408780818326	3.27720426685708	7.812486628834938	11.527283639414472	9.226537681173005	4.487933147543569	5.746615872179422	5.669913277615997
292	3.3743903551737207	3.9496545691906784	3.737140646082205	2.78429602873693	5.005054461240405	6.2315440020586115	5.192240225080551	3.0847208422026733	2.0925264305689293	5.553778634354522	7.277801972134349	6.952989560692459	3.9657325644503785	0.6286087020261968	6.153767093380468	9.176844573693488	7.141769391148453	2.4372930465197666	1.033974406492859	7.4327058604456475	11.421897859346073	8.863361336264742	2.8833727763810724	0.7483090739430681	6.380851729495367	13.10417076617052	9.405675864314475	3.590391626829908	7.59982393253348	11.34809681888299	9.31349751982064	4.485792148708644	5.789716705963425	6.103431686250473
296	3.484445324683456	3.584485760221894	3.460659495199442	2.343378299518719	4.4721116906743354	5.840421185052938	4.968218790862215	2.9169497416283297	1.9871343324082	5.226452337420931	6.938689214354052	6.8511886423703805	3.9744593996792	1.250999089897256	5.867905125108059	8.918911911380837	7.216413479705112	3.249139062307577	1.1868653267458849	7.165135842352886	11.167213411746904	9.005028701934899	3.0905051153356524	0.6883110982682851	6.04973171614069	12.796309438822796	9.589102720845995	3.922081937424355	7.247701149761617	11.042042704360291	9.476108527100516	4.317883480614506	5.726491913642584	6.6308231186347575
300	3.2993745720531806	2.9125521109479044	2.844344847173578	1.733171935474015	3.9471216102126987	5.142714964280297	4.47580860915255	2.518289559681969	1.6217144686762555	4.675299155829061	6.2531680902913696	6.464997752079549	3.6773412134786674	1.3348071541464155	5.346569047780507	8.312045076365179	7.047239285796298	3.9130039116294038	1.2297329871601153	6.668707830758346	10.579047176354438	8.927930809368322	3.090634099786621	0.6336477978920754	5.515960202595756	12.173849075098946	9.602046942309896	4.143872727422249	6.6254167389487	10.451366398173382	9.444762206073701	3.720826378011212	5.321051584160851	6.820765954916673
304	2.8348052430106514	2.1502902453492374	2.101113075673593	1.1703977555289165	3.525502672831139	4.288485993048346	3.8329958818936607	2.0340683408880307	1.1436459989283674	4.006922711746285	5.3480281694809255	5.838169559997588	3.1841354289725494	0.7732067088632704	4.682846534350045	7.429375152904008	6.585651857915064	4.328076351682521	1.0811527940156518	6.0054139939320255	9.695098852475354	8.535500504878156	2.896362297374888	0.5555273280423135	4.8310398933508925	11.233131380330477	9.296480155361651	4.149095047965704	5.741943344877987	9.536187147859478	9.013308502329032	2.674735777777581	4.5029768830097385	6.38607929524755
308	2.191412443350272	1.534990187584178	1.4720981083896327	0.8128534534912604	3.23091053146981	3.4656200321437054	3.2021269717432874	1.6413662392183754	0.7084279042477685	3.35862397299612	4.413459766689116	5.093843924059446	2.6695296696974635	-0.14593629502167535	4.014623631831823	6.439683421088774	5.881764873913399	4.442770469892702	0.7570353727300879	5.310612665119824	8.668626763392142	7.860490779104364	2.6093039446755686	0.44641050583665165	4.144282807377268	10.115502331943722	8.6672000666184	3.9256563087532212	4.780245292038707	8.438953378351894	8.18270585855208	1.4718086682353342	3.4510934265743023	5.369093881402837
312	1.5231471023250776	1.2290062873328484	1.1238391371009335	0.7037378531808133	3.038088314015355	2.8338935303664687	2.7348315646741934	1.4700733386117248	0.4256637979727723	2.860588066508178	3.636540880558607	4.400626648282796	2.325552457660039	-0.8998810626198339	3.485661021015226	5.551605687430076	5.091626154442243	4.231695641324052	0.3807152500077195	4.749504077364124	7.720042209207498	7.074917775411476	2.3830845295820446	0.33632904206238035	3.6488611606025745	9.067185379024062	7.878832320348339	3.579750290415735	4.024774064392866	7.4409279635437855	7.188441258401223	0.5873461350870703	2.52596926051402	4.141982544931904
316	0.9788458918653521	1.2564233509767007	1.0853373976961878	0.779282031475953	2.911795608798325	2.4706191954224423	2.518289559681969	1.5445154866323947	0.33197292601693623	2.593517535337374	3.1361532132123453	3.916044225342431	2.2961010874951384	-1.045087096436726	3.198560945064669	4.936634528094057	4.433125007880921	3.705437889280533	0.12761552599635187	4.451340664115449	7.051640969592558	6.425676806439079	2.354646438375768	0.2816564433616092	3.493469706298245	8.338382699894874	7.200240117014013	3.2941622650900224	3.720720520162358	6.831716043390003	6.390462382394686	0.42393442881362536	2.085997099378139	3.213755361072449
320	0.6398870928821211	1.4977496824596954	1.2532646624394486	0.924609956791103	2.829307072171872	2.3460221231357012	2.5414872105328246	1.7772582724522463	0.3928626765822748	2.5568635399160002	2.922828905355552	3.725540628563885	2.606809847925884	-0.4967887985084547	3.1755413928919527	4.661937701852786	4.098754872464139	2.938040249082406	0.12968566980998056	4.450136173456869	6.76200340471103	6.120049461171895	2.573895924745434	0.3303561202291634	3.7019431497568855	8.067528704301859	6.872549516492475	3.2355787672368326	3.9383025069939976	6.758224947078968	6.081601127528734	1.070719239392641	2.2862744273636983	2.951368324457691
324	0.4837990092937379	1.7439284280616036	1.4538805448064773	1.0368860933827857	2.773257486970976	2.337421172916328	2.6966302326783573	2.017579073580419	0.5230678306724837	2.6630549363611493	2.8993496821634883	3.80371617310528	3.125842086529394	0.4068694998482263	3.343764296672553	4.664010036137104	4.163104523638341	2.080144161694552	0.39385515351992406	4.661420810374598	6.801992399208456	6.218433364426918	2.9696845933323455	0.4851011621625359	4.144826401736247	8.21056649996123	6.979569894335067	3.4602405937570184	4.518662441289228	7.136962395768744	6.322905524502507	2.2185718957200558	2.9764354153825616	3.375685683310709
328	0.40926429525996566	1.7896574690456972	1.5241635999345107	1.062969443498511	2.7157628467657946	2.285939210842328	2.824614756128421	2.130690807685098	0.6212849601318458	2.771707766210729	2.9108819888055146	4.0246953862619606	3.595167389375834	1.0992902489564316	3.562340488976536	4.785601126986122	4.540548313121178	1.3381533588956576	0.7901500443536347	4.918467986086701	7.004674416976762	6.60209272625124	3.3789892111343995	0.6943355781191025	4.5916519049110995	8.563745477035848	7.403517704391411	3.8769483468400643	5.144069181806175	7.691270808828478	6.909960729319163	3.2985222256350446	3.770466318147724	4.163715828873614
332	0.308082818207151	1.525702353440147	1.3775520289927186	1.0029463742683409	2.6151945524945583	2.073056692611494	2.787543528194673	2.0633301682830236	0.60853296364686	2.7558441092531	2.822672121550806	4.2205815208687145	3.737307300668576	1.1170550556590162	3.684491863485028	4.858748900544118	5.021040903765962	0.9152916050690242	1.1192063064928182	5.053542124387029	7.1742763338154045	7.035969716427779	3.6260707286837968	0.8801152683925466	4.821602809176721	8.869034744758718	7.890145281898146	4.290667523041617	5.49773167175799	8.094805697030841	7.489567737743491	3.778037538526558	4.250637997385846	4.848063933530079
336	0.14397992157347447	0.9898033117099713	1.0286771033064654	0.8905551411078877	2.4352586207894293	1.682682152314441	2.5371484692412887	1.8642955971378936	0.45885127666972847	2.567890876008764	2.588660710474758	4.262126911846586	3.3976406965304244	0.3719844510700306	3.627217283627801	4.792043673814339	5.369588361534645	0.9265785789937744	1.2231340377444029	4.9826879375542	7.1877884683332915	7.29291532582544	3.613348474916479	0.9853314732469879	4.7345366358430745	8.946408249202042	8.18676278908383	4.505657661506388	5.424811349523883	8.142409304088389	7.759632567841672	3.447590103981829	4.191344250587306	5.093275057331146
340	-0.008670236893459717	0.35796737580520366	0.5814003333671578	0.7731180171520685	2.1851575319433345	1.2230551211949197	2.149358505544461	1.6540290075503576	0.21541292911025603	2.276577466938962	2.281703227958125	4.1250166788858715	2.653071635223635	-0.7977367619400709	3.416906586603243	4.620361793296866	5.441859231560919	1.3440062965792445	1.0755345794225977	4.751720416469856	7.057696324649291	7.273333531136109	3.3771397982209783	1.0092314456254585	4.403091419547326	8.782855965374248	8.177984217023473	4.433924663793209	5.006851660485135	7.8531274597259815	7.635609130654801	2.5355422432779364	3.676913967385996	4.880938040807919
344	0.0029131674599857864	-0.11871135949919086	0.19457861731993922	0.7053189259841335	1.9481764982627847	0.8929046965943567	1.8041987373576778	1.5636746843913343	-0.018175015180119006	2.0469686933334876	2.0669696278838203	3.907161464363271	1.8179383231994537	-1.8145873500786416	3.182202569556653	4.488172042959226	5.256294714054571	2.0181372114726863	0.7962697724265627	4.513691413927511	6.919164163286405	7.053456765486411	3.0769548338452055	1.0054256890661584	4.033023347208952	8.52600858443093	7.939906577091114	4.147155751248189	4.505664337226586	7.443133335394906	7.282701473922517	1.5795737465078703	3.0400845927731326	4.490278232681692
348	0.3170350185972991	-0.21265552884294106	0.038277421049990046	0.7466856818420643	1.8663719845380469	0.8981556273672322	1.7116289095579469	1.675928588450572	-0.1141094786027971	2.0626585431473905	2.1247022098303447	3.7816743755229907	1.3196939196646142	-2.1792924349122442	3.090339652842174	4.570707786464222	4.977980601140303	2.7527553965686375	0.5813797697647621	4.443860996470759	6.946478349313635	6.832524282371116	2.918197624468197	1.0417810652179613	3.8487560651882204	8.386203744696012	7.681375960983587	3.840241184075685	4.208563794000863	7.185990792251404	6.996977311588481	1.1237808437584902	2.6613273553413412	4.2919049154640305
352	0.9569389199892044	0.18867456865358637	0.25023063954118674	0.9477578377636967	2.0826630539764004	1.3566991056521176	2.016153092062413	1.9954934069796857	0.024245893521486685	2.4318971572511634	2.5601684982511617	3.908850898410519	1.4946675262861417	-1.7289998487688503	3.2596805013373586	4.975716578318871	4.825035559869958	3.395073643695719	0.5855708703515622	4.639833915440087	7.247774582683794	6.81306265064535	3.0473680419277174	1.1450372905432018	3.9672167201015385	8.506984689215288	7.612559299322616	3.7266130353299762	4.265201557834917	7.246520024123729	7.014079076224258	1.4161699974544828	2.7507355143715886	4.49353455362684
356	1.7836977198389423	1.034025428068658	0.8909152127660667	1.3207447495493512	2.6573522023820173	2.2326033059019146	2.721823208612676	2.457264894003522	0.4121355702008365	3.118492595428565	3.341958275940418	4.3488397488468955	2.404156917224155	-0.6917012316406157	3.6899375822365377	5.675871357892703	4.947011458304674	3.8856444260722593	0.8280228951529429	5.059676634411824	7.795733432160927	7.082600575685047	3.4735848815956416	1.2693750826258245	4.330068100487306	8.878662086958533	7.819602469728837	3.9221131702581387	4.607597339441154	7.58645532599985	7.366660576341156	2.2748963775419613	3.238065711429162	5.010105120407341
360	2.5376214917010316	2.122501844769372	1.9085650395844127	1.8083975269436345	3.510853758530966	3.335290661974098	3.6770381834653945	2.9612605496982183	0.9650042628719786	3.9408280749960443	4.302415360078608	5.023688303661621	3.7731966877087015	0.4714432644862186	4.251733292335474	6.510526640666993	5.344450937129117	4.23368071440864	1.178556320075884	5.535634980530701	8.435003259343313	7.564814548466598	4.057153214701741	1.3157457080046606	4.735181796516495	9.345671630152006	8.21877858947907	4.3827538379641515	4.999568926586286	7.997482279612986	7.875336627150378	3.2019815364104027	3.8331365488549753	5.535677419037674
364	2.9618537351215255	3.1778678813809518	3.1303026597145434	2.2774524631220556	4.438726413964192	4.391024578452303	4.631846416223192	3.4132511529576868	1.5235162934938842	4.6528482319660665	5.205293642253404	5.7507958266976775	5.095511423597473	1.329779621581594	4.747247207100046	7.259267311841789	5.875704273647939	4.450724590508606	1.4325869047235198	5.860373959050413	8.96387193323998	8.067069986956826	4.572412479300495	1.192974683610648	4.950454222578209	9.701655363384093	8.613262154767275	4.927119242626138	5.181607233316625	8.237104395096866	8.271653154470087	3.670211544307215	4.210857380726029	5.7627429816662925
368	2.9366016313797387	3.9499552150181665	4.2900819670128225	2.5573902065559055	5.1905112135492715	5.151292311060399	5.338588701120969	3.7496471310359807	1.9170335482834298	5.056822287190027	5.844597801711094	6.326603873492193	5.862989887693711	1.6818643765901875	5.006958472008304	7.745321731085812	6.338981135576422	4.506605613774503	1.4278618061255253	5.896624073399809	9.24149320176513	8.391210534844504	4.814343917135721	0.8828513003947636	4.84472845761687	9.8133229961588	8.814090706506326	5.330232606781714	5.024957644173553	8.182666757905206	8.372662523111547	3.42124675840625	4.206532944549203	5.60762690082013
372	2.545362466107757	4.29867123472185	5.099180685520582	2.517193311058028	5.573580727810386	5.485163197973804	5.646502480555963	3.9372739692463505	2.033153051965171	5.085569845711196	6.12337778452775	6.614042265405641	5.805558189993254	1.5892679651189539	4.967339026307552	7.9104132452563976	6.576830370510578	4.339392651092426	1.1339629859904732	5.645720467618484	9.255738234993323	8.436755159058128	4.691401946620925	0.4662716078906942	4.458885658450648	9.693795179688118	8.745346047256062	5.431271062489751	4.60157536298541	7.903109053685483	8.18868539650085	2.600497716060107	3.898755063703953	5.28075502969716
376	2.0360820242020385	4.2296061409020815	5.344520078516882	2.143464083028215	5.533357129431716	5.414966092743319	5.548531995116059	3.9608218569890217	1.8585381460949957	4.8185171959337785	6.075972064890358	6.588645441586705	5.0146036021464715	1.2594529358536952	4.690550315458524	7.822272280970876	6.542972071340691	3.9221460720219716	0.6655716283206613	5.237371908316214	9.112336135746004	8.2360372335395	4.257749069908176	0.0898498592492404	3.974846114613526	9.478900885491903	8.467802980024661	5.196065412753999	4.128201474257469	7.600654106023816	7.890893439397478	1.651545878055284	3.530858269359976	5.135997759249649
380	1.6960074858760739	3.8722269437300363	4.976249682260396	1.5732613762235146	5.168386446301665	5.085286604439938	5.164657102896774	3.816060533425676	1.4783475361692646	4.425022114072034	5.8306960912359385	6.329342349284839	3.887714376170793	0.8769671894820377	4.320345390856092	7.619044761494962	6.303821547805084	3.340842000155883	0.21575023179418837	4.852418887284953	8.958970047266028	7.912670592357633	3.6756987478913836	-0.10906800600171411	3.607422581147871	9.328717208197741	8.119052866464253	4.712331283115935	3.8287172220839065	7.467482071142758	7.670796851818403	1.0490919325090733	3.3336179172273446	5.4019932610499986
384	1.7096903280961666	3.416136971431846	4.143736351995347	1.0515836450729728	4.676189887638335	4.6870593906321325	4.676368224735053	3.5150802046720284	1.0367356512597523	4.073345650879121	5.538451180779939	5.965555652815617	2.9272172377114156	0.49593382948595505	4.002825726893348	7.426533680285449	5.981821521915175	2.8161570954747255	-0.04930713015266829	4.623476970443542	8.891903854808401	7.594998340504648	3.1327917496740794	-0.07544721643949609	3.482162228375744	9.317393279393324	7.813605765642415	4.127684582779282	3.7988049888067663	7.549500923169567	7.58762166968587	1.028691766049043	3.3668243800036137	5.974357589896666
388	2.0777244515413593	3.0395014209301228	3.1575095573814482	0.8257904627931618	4.2621717345393435	4.379513252645184	4.25143669962382	3.1014454286472644	0.6826475245406713	3.859706630498708	5.30930708498396	5.61638592255705	2.503719085094122	0.06534107012940985	3.8216144942118246	7.29956243579401	5.683872208549992	2.625431292581018	-0.06850653124440748	4.574614990128675	8.904828049111709	7.34437511497164	2.7603762080117993	0.1380819078773899	3.5742227940917997	9.384729361681813	7.57258937831147	3.5743486791012473	3.9577405352804926	7.709427337255538	7.512530307875946	1.4745047055210079	3.48493408276938	6.418313963897854
392	2.6386816434997122	2.8612089084865913	2.3846654831760756	1.0255357001161545	4.064051617852049	4.250182617900912	3.997761954704595	2.6639096669650706	0.5260139690470035	3.797082414577107	5.192321764234398	5.3606004579623665	2.7024278572517324	-0.44589918739273693	3.784616460781676	7.223617535473056	5.465702996759508	2.954937927414987	0.10430359069000882	4.635674464919582	8.914835907362809	7.147276860311794	2.5950009757327983	0.4096864153531992	3.745288601002429	9.386704421186103	7.33428619440385	3.1276783864209983	4.118974675269534	7.722173194462127	7.221690636521623	2.0257773348207064	3.4540245445783766	6.2163433871677904
396	3.176709882345179	2.9266264364738936	2.1132523960164793	1.5942044217867883	4.124991883353707	4.3196201215402965	3.956991900944004	2.327754968488218	0.6191767438514629	3.8597094915216497	5.196215139621296	5.241231428264966	3.3268668567585498	-0.9415394043992698	3.860172977238253	7.165070992499534	5.342062936646865	3.765511503249345	0.35830607919828467	4.714743125456037	8.842430092421104	6.9646401229494215	2.594224446422625	0.6285302027092259	3.849984636123229	9.209005332584457	7.029271584883411	2.8104648519130473	4.130112160745565	7.43984506636024	6.574934942811506	2.3281679094661794	3.1375691811500546	5.115180479486534
400	3.5418031126245793	3.214471570482262	2.439827674427796	2.3110797346893768	4.407597530680968	4.566909778508724	4.120863904085565	2.2168180886566122	0.9539930796379078	4.035577763858997	5.3203425273083935	5.2830419407021285	4.0334968465058525	-1.2021272152113804	4.024625291199882	7.124912720811373	5.3187641963187255	4.755084025775329	0.6032050832777738	4.772972094882998	8.68604753208595	6.792561037080168	2.6829559735270907	0.7604005913609653	3.8378181360623937	8.864241577656562	6.660292608611623	2.622657292420175	3.985581387947628	6.915214044277824	5.657312855742293	2.2635080757213486	2.6217174463837294	3.350804320458489
404	3.708924522572511	3.6494052317987107	3.2270390905921333	2.8926708625239788	4.826246726248736	4.9466895932237	4.444744098885522	2.391482585591115	1.4641191922415648	4.340240944394728	5.564018235463923	5.494265542463762	4.518008697546982	-1.0103679869891662	4.2809605490365845	7.1520662127166945	5.408483491593915	5.472420201790157	0.8149152973581251	4.849204528009621	8.536752679252436	6.68357275229064	2.7970199514342973	0.8566423036881687	3.7831582927555725	8.504590966687152	6.325968726399069	2.5661849910795995	3.836375226825314	6.398289187489672	4.783039080941565	2.013443703336343	2.19211673183116	1.5996173579837543
408	3.7523407841358694	4.117407788371635	4.155601490972958	3.1272032181940483	5.2775878773003715	5.390770421722865	4.853023993637184	2.8039710450904534	2.028729433659689	4.786483275726571	5.910444244721117	5.850598320494773	4.648116576857163	-0.31893947640003173	4.637026298259675	7.30811451020479	5.617578492286705	5.5398568967187725	1.0244722340467571	5.020320879658892	8.522971131740844	6.713347894885143	2.9023914263879864	1.002775547356846	3.826317777509886	8.337536790778357	6.168403133077402	2.6455969743690937	3.890205373478957	6.199362262332734	4.342824924948507	1.922744388494231	2.16741179872703	0.6551539881377653
412	3.7558731937949195	4.477605331560124	4.842836367777896	2.970674745688854	5.644212708528053	5.794219479236969	5.233217703004437	3.2956163800002916	2.483802789139157	5.31876038162147	6.293591960275979	6.268382056622587	4.477612007280322	0.6575827581969409	5.054847704522893	7.6008229063773936	5.907360538826803	4.856582152502713	1.2620900837504796	5.320007310787023	8.713701226168965	6.908990365704669	2.9819219037109947	1.23822569534485	4.060678948640594	8.488942124868752	6.271746142765217	2.8421080040700946	4.259139527057986	6.492463095485548	4.574286926164659	2.246697181751341	2.684891693965929	0.9985485647739817
416	3.734312286485464	4.587399947982138	4.988013731760724	2.5558173591935436	5.800464615482188	6.019086822571821	5.445670590956814	3.64765261682816	2.656926863637974	5.7822751852912955	6.588539583737851	6.601411802791045	4.166100491495768	1.50581180669166	5.422350869793767	7.942249754880608	6.1709875904683384	3.6747054960933543	1.50462638951936	5.680976376495536	9.050779319800347	7.197697144455735	3.013637535115906	1.506379242908489	4.446428287724043	8.906124092504433	6.585217459265038	3.091279498878619	4.85896300042761	7.186832409833508	5.401104436589352	2.9525000974498288	3.582517853274958	2.514317267745587
420	3.6250693706540984	4.353054989314768	4.494754303074444	2.1137211269418095	5.645775780728696	5.941266998549548	5.370913491993946	3.678285351049526	2.433443301732733	5.972559436977622	6.655512792949864	6.691068155561511	3.8684620759569492	1.81772279280449	5.586835370263493	8.176506975511089	6.266791327866838	2.4970049795049944	1.6698989826003166	5.950843319173563	9.366895652010042	7.428009968123519	2.968676082745292	1.6754889445918186	4.815531718493807	9.373282408890889	6.934989911690052	3.2965824520803717	5.433289991012486	7.9569978513094375	6.453763945497805	3.706609955012437	4.460376728240584	4.5326981430055
424	3.3522961055041613	3.785675039270214	3.5143592268906456	1.8561698151454697	5.155692087508031	5.520848737129312	4.9757637851974135	3.339447728308817	1.82879209056707	5.741603836822203	6.4179696874705	6.45125244419189	3.6630115416551052	1.4267959558703427	5.437547193150175	8.165566423780898	6.097836479050244	1.838182087071988	1.6657977062129663	5.9767980424661875	9.48118493547393	7.455341797125557	2.834475748535165	1.620246883116301	4.967479216431709	9.632165884494595	7.119913083220236	3.376481047688584	5.691571221286902	8.41637513896798	7.260413628367216	4.060561646699972	4.889478671126933	6.171140655195734
428	2.918074123644534	3.027359716401451	2.392256969134082	1.879395957016456	4.426515568047756	4.854263770245383	4.359532822092603	2.757726662348933	1.0175325844823688	5.105360971912448	5.928970798782008	5.938404068258924	3.5485312849098385	0.527828572847964	4.989253985206079	7.883208254938121	5.689692482888326	1.972452635553483	1.4607377015427048	5.708443627250163	9.3159541848535	7.239863854249177	2.6442365579601748	1.3133437600355662	4.797507273959236	9.53786179995486	7.034337979676527	3.3151569282755413	5.48187778996208	8.336656549386536	7.50090263380252	3.7266642953243534	4.652585971529716	6.790734750768861
432	2.4464998183471076	2.3186619223228213	1.5341072043787047	2.1335203593747316	3.6709957030119003	4.163028706530379	3.7394122982981495	2.1871735994431276	0.2886540286405729	4.275640953713101	5.374592767497353	5.354519830536312	3.4928302676707093	-0.4003649343872775	4.406730163892386	7.452533226270832	5.2096776830748555	2.7968926359133786	1.1252504558763619	5.24888037310039	8.957801796231381	6.890219194182238	2.4823064741404934	0.8658919312549951	4.373037804053135	9.151442504665825	6.738548261795395	3.1801063934144844	4.889997469953748	7.780246714975906	7.173351746567983	2.7710566450728464	3.869779577021738	6.308999522492938
436	2.137701029148722	1.9029678058262665	1.2383972375120804	2.464456313586806	3.1429734150689055	3.7042462732251917	3.3616866980555256	1.8876116228129742	-0.07167661916994413	3.57544468930661	4.994639860894385	4.963167654858122	3.4809796722263857	-0.8429745414431661	3.9378137489080736	7.091355305887553	4.8968071813928535	3.883368005484745	0.8086014965622983	4.811464297544603	8.61639020651719	6.612246973509539	2.4495797095441656	0.48186755058699027	3.904392709411155	8.70701215453058	6.424901946058955	3.086233369664675	4.201172818067374	7.0637326062197445	6.572576029395831	1.6053496558666205	2.932895176158384	5.195534692998258
440	2.151494020752082	1.9093074750378605	1.5684045513608988	2.6981611183709036	3.0169069690828714	3.6415145305246877	3.376909724292726	1.9889483401627144	0.07879247496500474	3.275895110442539	4.956448065641689	4.952873217475666	3.5251321703601506	-0.5334279523733166	3.7846009635740736	6.990777474873177	4.930681693026079	4.700888621859424	0.6589161737018446	4.601786601845961	8.501597383015511	6.5878481698602025	2.60363721190179	0.3481137147697485	3.6241402534536853	8.471882798739946	6.299022181819886	3.1243615071569115	3.745257129750067	6.5754074884340925	6.100280746317022	0.7786340693842356	2.29154657739006	4.173369397117064
444	2.4972166952027024	2.2819740714633006	2.327542060697618	2.72756385114579	3.2903947747125715	3.9529037375784712	3.753916015684016	2.4226972995625986	0.6558268053662912	3.4495139034917424	5.258559690550317	5.330116735352563	3.6398534682882806	0.38897636434576416	3.9894802469618322	7.203152638368963	5.321168409264316	4.884542452877676	0.7374575119473029	4.698472011147753	8.69772718140949	6.8622741525962985	2.916244499473128	0.527468799213008	3.6515211966828947	8.589217164288433	6.454859240447432	3.304069033863838	3.7168798352813077	6.559438688883345	6.031051143678089	0.6838532668967885	2.2186105195297725	3.8144895934119423
448	3.006205551186916	2.8030385900299413	3.151049605997001	2.559341662620925	3.7768826389323054	4.438055980921451	4.289174069065896	2.960737220918412	1.3779078687211292	3.930197705836482	5.728872284730324	5.910411342957285	3.80945586196408	1.4427162372403652	4.408470619515434	7.612717132421583	5.891807541276959	4.409893501591919	0.9817311738977098	5.008928286303867	9.116084075800018	7.312977772369026	3.277946702310528	0.9211280918706947	3.929076900098955	9.002593017736945	6.82328031724553	3.548853149990813	4.0820913211756436	6.997137052036075	6.377492411724307	1.358022567181369	2.6918041638123684	4.266113270479099
452	3.4116835508040517	3.2021427073694686	3.673411598467837	2.298922056115946	4.1991658104735645	4.825996386741312	4.712120521092541	3.3411843692346084	1.9001842689222834	4.407986629801079	6.121540054124675	6.415697558417399	3.9754323858980567	2.058224672843033	4.791478621783295	8.006664255908163	6.371019347318042	3.5850133805361137	1.239287492484198	5.325793729687208	9.552569365225342	7.71961114841757	3.549916496850921	1.3229424920059607	4.265705574709865	9.502270674556437	7.2211365517451895	3.745710840304952	4.617362010742184	7.644123058093022	6.920587999037204	2.4803614553770936	3.444818964843928	5.238461958057114
456	3.498591175782995	3.2999870693813462	3.6984503175818664	2.0912537521968986	4.341661919122586	4.928637015296866	4.834705817413902	3.414543143234576	1.9881029078833548	4.606928813747041	6.260714991975196	6.6283669304390544	4.062580098385549	1.8822504234475426	4.924680697405243	8.206193903231547	6.544352038073047	2.8727569507547983	1.3558624948601625	5.450991616791768	9.814969991699074	7.895182589624685	3.639507284512299	1.5344328841569352	4.457681167792067	9.86058423413762	7.467866878728456	3.8187146090415336	5.049997316961896	8.190281847302483	7.371979217990325	3.5565540700763503	4.140740860975078	6.231116755965941
460	3.234175912320941	3.1062512319340807	3.2881820118855165	2.0511331506441404	4.175741661973135	4.751483428402827	4.658315169971062	3.222840777843334	1.6357486206717675	4.442960251081188	6.145765289048864	6.5112695529575975	4.028730382284488	0.9668801998522581	4.75120018713157	8.176305750230835	6.375921710129152	2.6442096166608047	1.2642637459306605	5.311248765887261	9.838842367127084	7.795621375429032	3.550033321954386	1.4734626971236753	4.4091825373908335	9.967701886760242	7.491286258857317	3.7748134040895076	5.2102584707320805	8.437000253356825	7.5529222297710366	4.177758206310084	4.552509773204504	6.833009225759785
464	2.7939131189378688	2.808746330799222	2.7213978698686327	2.2107119504426587	3.8737788102574906	4.486966121789175	4.367772091328392	2.962365142972407	1.0573023530968646	4.062292088742722	5.945919975527546	6.21778629640487	3.8959302803858895	-0.26312848859156956	4.394062507979545	8.038971880643489	6.021346077021684	2.9894587918145246	1.0158717606645404	4.989699351110716	9.713649725231251	7.535342674303946	3.3687446032348496	1.2081766098036513	4.172128666834552	9.877698873376637	7.3514852338196555	3.6857693102286286	5.099091516972223	8.379843690695957	7.471559982509415	4.201309193494277	4.642025935850812	6.909261686047002
468	2.4641728338969697	2.6559255056082756	2.342338794516461	2.5051374372176163	3.699051370818264	4.390695083976817	4.213025082441748	2.851713411760687	0.5557386265075088	3.7361817265594794	5.885074600620131	5.98374985137808	3.738777866460762	-1.245897766782389	4.066084374652337	7.979858855127452	5.72075603948104	3.684554567571173	0.7373585682372256	4.654414165189652	9.602799391343641	7.298431378057607	3.199722043541962	0.896149633052381	3.882426967355407	9.73869035169391	7.170211297051986	3.6173252968058525	4.836372840114771	8.153755167402029	7.257992249283974	3.755872478539184	4.503621566846001	6.5799956155587385
472	2.480780118400939	2.8090853620178486	2.3870007931524793	2.8074731755900344	3.8414544962216697	4.620895850912706	4.354227055046673	2.9910488053145388	0.3525244584719913	3.689464798195373	6.094314559808647	5.976662143876443	3.638908377043108	-1.5767874677902345	3.9325654407395616	8.115740755571736	5.6462693071861905	4.327645290892594	0.5505524263786961	4.442060936203087	9.619609808476492	7.210926037702365	3.0895087640961023	0.6809439045880024	3.649721851670958	9.66758820953944	7.025478822136638	3.5624024778069456	4.545112121550818	7.900838355143853	7.026302319906776	3.1040351312469268	4.242206085938629	6.05361078641288
476	2.8988716529135967	3.255922070865891	2.8798615859755086	2.9960853977853428	4.300064552894601	5.1415619720346735	4.768268573166357	3.302203646905657	0.4829372751440734	3.967868794913735	6.527156336517341	6.198192103949458	3.6453971770755538	-1.1964395016026936	4.016267766349157	8.412255265931508	5.802546963346804	4.564743507304477	0.506402968081807	4.376155842222753	9.746204351613903	7.261964302801777	3.001431695989618	0.6114355310261589	3.481080523285091	9.661010717795794	6.891796571497592	3.4340395840728033	4.258513916708003	7.6615152165574125	6.774585229935611	2.4652717051252746	3.8837673566037316	5.456822381547555
480	3.5711486249406255	3.8319942854453837	3.6458027270775815	3.018828145988421	4.888249384936189	5.748369679242865	5.27284954647127	3.5896418004005266	0.8111611584210702	4.426785934715774	6.991628152361264	6.500228865424437	3.758469810533359	-0.38687541983202556	4.204078663702128	8.707244851063194	6.042669757845532	4.2770442854661495	0.570890484799027	4.372055519509717	9.850799535675996	7.325209122283213	2.8568224834793554	0.6303407533943519	3.291692725453923	9.604215597699929	6.66894720301116	3.1303136269691545	3.914661636005712	7.363908272270956	6.395980818812638	1.9140312623336733	3.383747569124095	4.778965937946478
484	4.244770516168971	4.337125767248052	4.428421963001438	2.9241163656794495	5.360626207168845	6.204183562827153	5.654309735327511	3.685040226215577	1.149668213802689	4.8453197356915485	7.283094387739884	6.706061823126195	3.9465765853422483	0.42404264104594186	4.348247517097902	8.829883553146141	6.190889819727172	3.6428496745642853	0.6729644519981327	4.32567070822546	9.796199773850958	7.2692374999574865	2.618251317089502	0.6399273260172429	2.999050848064721	9.375820136240439	6.284236892092811	2.6350314550628835	3.443606367953679	6.918467981037186	5.797733292246896	1.407640095971502	2.7233278682615873	3.964137067323059
488	4.708144176040324	4.66376923337282	5.031747805289222	2.838886015400251	5.573469624752804	6.390165789683032	5.809472069377903	3.5756478219354917	1.3948968613692763	5.077046858366992	7.323324661838752	6.744073850770702	4.178415287912429	0.9127932763895713	4.383910168069875	8.728236176388615	6.177904113430611	3.0375411433776986	0.7687047104501068	4.214157093852464	9.556622481059836	7.07135437133722	2.350989097381584	0.5887650236523662	2.623956673672998	8.965302444710979	5.785133824047506	2.0769386239066248	2.8730952667176894	6.33529804537576	5.027718054475422	0.900512693038924	2.0034282156907315	3.0487530154502216
492	4.895617949523298	4.84940479961556	5.3995156151822306	2.899638168643473	5.570814595462633	6.371265872128212	5.804815754539805	3.425186625415956	1.583888526732267	5.134074198158314	7.210216027175593	6.699793798697439	4.43863438439289	1.0162405942054793	4.3770751842614475	8.514087655505948	6.093650325648947	2.827977173341001	0.8715242721488253	4.130030144754561	9.256089187140875	6.850669843543565	2.2096047345641066	0.5143733607656936	2.31643270861385	8.513550736867167	5.3476610048700355	1.6924540953821154	2.3665907323214417	5.769929871296585	4.3044948469202815	0.44892334824707064	1.4513148032739538	2.2228963318968815
496	4.89130495743824	5.020708071430376	5.59246586341334	3.1705703655302355	5.538943276725962	6.334996684292536	5.81425093136535	3.466058960746723	1.8345854236060322	5.154180513720344	7.144485455594721	6.7501172848985105	4.716459739221234	0.9187568998982268	4.4684080964759225	8.391313531670415	6.119763358877696	3.1786355892037204	1.0264959309410617	4.219302166776485	9.096568084638355	6.793917161954674	2.348615163595463	0.5107348548392111	2.2761318626157463	8.241035440619166	5.186001287718373	1.702380652897947	2.1511383002329603	5.454130635796294	3.9185001751195556	0.21212480908720094	1.3138350215165646	1.761724586807261
500	4.838256823722076	5.270187364623744	5.691182599003948	3.5941102413987664	5.657995209713959	6.4440612630271845	5.976754173447744	3.8281578920987465	2.2175528947155483	5.2753939495410185	7.278945904473991	7.019020062845084	4.979422079865912	0.8864788390666352	4.749865043091972	8.509480454895021	6.382045252899336	3.9731440443816175	1.2485779492325924	4.561305034565355	9.216885543441027	7.017603856488797	2.8088009286536986	0.6429668648698899	2.611076825225292	8.303447702424481	5.413047300023555	2.1703522150556656	2.3739416539337417	5.548966393766086	4.055057038559573	0.3491758695369643	1.6977586703351535	1.854734416093613
504	4.824765670039096	5.560850606229978	5.7097968911017265	4.006361951249654	5.958617672181278	6.710295183406034	6.279040320755834	4.422207821171424	2.6570510797173723	5.517336354630856	7.598825435526724	7.461449604269561	5.160262094820712	1.068207738086726	5.167579637832022	8.846654869632117	6.832640153800267	4.888541686113429	1.4764262400544255	5.078338133388145	9.582921957616971	7.466496925576398	3.457561484190418	0.8745927788587601	3.232682696763798	8.676879860905483	5.951261028523095	2.938354484768868	2.984334222888254	6.0246934738638185	4.6645092846404825	0.8875930882932531	2.469610207998232	2.467480414836495
508	4.832958686070658	5.735234722916164	5.586550221643607	4.218185414154793	6.289006217337118	6.98173378135353	6.5510234667366225	4.964566695076758	2.944380991177603	5.7604656074044644	7.921326617268639	7.866598586248367	5.1832504141596445	1.3983900511721632	5.52954910789592	9.208400703069383	7.253673535153031	5.5736527302210925	1.5877722461667365	5.550041184717962	9.99160287241767	7.926890830053663	4.03612708026386	1.0678751441697192	3.8699521920725717	9.157175994641584	6.561914427402486	3.6909351255689797	3.7282304669665174	6.65619180906143	5.4735317092031215	1.66136049804851	3.296700469276729	3.338862172280022
512	4.7795524476495865	5.629635319801429	5.256822572787369	4.12501048000283	6.416855795871751	7.054601174663209	6.584012968606458	5.142005430590682	2.8667762207131355	5.835064873268366	8.019924143569998	7.988527277804541	5.022324549392604	1.6477261740091418	5.619988427278178	9.35045239948808	7.3903207592343	5.82703779656744	1.4715682230989173	5.731857285333139	10.193326924337565	8.154368379985929	4.297827709791118	1.0628387901174934	4.206289280761976	9.479815459159028	6.980497819442587	4.120171536533602	4.268922795008139	7.143686753356747	6.13591383338526	2.367434257252173	3.8145246409429814	4.11886404904911
516	4.612966048991808	5.220165716343054	4.758691298868028	3.7774639034266877	6.208400710643654	6.838620645423352	6.29791401226702	4.822452532990494	2.3702533185243526	5.663708672529124	7.796142558441632	7.725014190243528	4.743388640825609	1.5904791314977318	5.35213039954259	9.151943183680673	7.133084756008026	5.675645813917442	1.115966913266744	5.511796460540839	10.060916875233392	8.039605120387984	4.154548634530304	0.7899348715865387	4.065795411335195	9.490559553980535	7.078773003825814	4.0983471766949044	4.372561443733293	7.291271668145264	6.435570223772499	2.721262448116045	3.830276002750137	4.569926250363901
520	4.389157284145494	4.689620006165219	4.277719486880461	3.3667335425252056	5.755984291802986	6.454691393768168	5.835391029883753	4.168669690097679	1.6414906937163523	5.3479904993455225	7.37697599455852	7.220220547566594	4.495157707309265	1.1720612019511083	4.853373992110423	8.719967820086248	6.6229290795006355	5.315763460089729	0.6486191137150248	5.000811087380269	9.689851736399733	7.698020915622959	3.737430801492239	0.3389729848886518	3.530986061718052	9.251560187823696	6.943688851945189	3.747432460860298	4.04444264344477	7.125484925399772	6.405493243257616	2.617429488249414	3.4341545018276403	4.689977157195811
524	4.261540402143477	4.3532962689162105	4.078621854021318	3.126256696437405	5.3577585085066515	6.188190921418556	5.5082874159024815	3.572643032590661	1.0395202610473386	5.129825102252294	7.062953931142365	6.810858232468543	4.442196834792832	0.5622081742397405	4.4158263094993035	8.348228433512594	6.197204097360156	4.956699358823427	0.29119989202411406	4.490845192061364	9.357567763544823	7.416403751722158	3.3282937919508697	-0.0667922569615118	2.9143369124265526	9.0104312669237	6.819654447503708	3.363445750327696	3.532422533653512	6.877353650849241	6.2886900743020275	2.1963236276487854	2.947607032963281	4.680293071374314
528	4.381709564590323	4.4769649392582735	4.3531632313494075	3.198914519816584	5.348822103347329	6.315681441573968	5.6164717532453095	3.4380524071675302	0.9048121548696522	5.241951452372034	7.148115616870956	6.835687620070649	4.670556533465547	0.06746535731209967	4.332346905260606	8.345297792345676	6.198927386845551	4.675865638371576	0.24595896837601494	4.296793449997587	9.358908629630305	7.482681255522109	3.1978411593761784	-0.18602491868259205	2.591469996585219	9.046860672044126	6.949302178957384	3.2406656660277005	3.190874330093841	6.837647420785916	6.370013220916774	1.7712874367815912	2.7376971175691804	4.790916430775193
