time	FP1	FPZ	FP2	F7	F3	FZ	F4	F8	FT7	FC3	FCZ	FC4	FT8	T7	C3	CZ	C4	T8	TP7	CP3	CPZ	CP4	TP8	P7	P3	PZ	P4	P8	PO3	POZ	PO4	O1	OZ	O2
-200	-0.8557753541320995	-0.6546015722913817	0.07903996090006792	-1.3011116948656436	-1.3156079020662879	-1.2065737217003982	-1.1265892954039265	-0.7101898771475252	-0.47421362876373946	-1.199168798280068	-1.2042773931615793	-1.0861078473326093	-0.9297671294579836	-0.5495086298420248	-1.1639515132127332	-1.3052127328344154	-1.4245501720701657	-0.7415816765181892	-0.36664003041206095	-1.3404564823639638	-1.4732789956089414	-1.4889874420719669	-0.7122878414290326	-0.14496882223244625	-1.1880201071308476	-1.4706435166422067	-0.9987487171706321	-0.457468478716753	-1.038433906794405	-0.9559955572787261	-0.6756456477272947	-0.2729758911393391	-0.8105631450215485	-0.5607955441621303
-196	-0.598556278624899	-0.6541866047555032	0.2941094331468341	-1.1634196013641005	-0.7530847768843493	-0.4632537055240461	-0.5184807168267958	-0.48130437610225185	-0.40291067856152946	-0.7251548748781443	-0.31266254107690544	-0.4687347698298184	-0.7098971587377723	-0.5909855946878669	-0.9618743633780803	-0.48723900195129727	-1.020858762071017	-0.4956263887289798	-0.4514976430460979	-1.0508649322680856	-0.8521132447663454	-1.0194884512910904	-0.5801433310166632	-0.22724188806858048	-0.9614976024194063	-1.1036646338254532	-0.664541004410452	-0.30749231499285207	-0.8924735165951402	-0.7474720459186006	-0.49984267227813395	-0.30497512144337546	-0.6844889504317131	-0.4435873020416708
-192	-0.21476936286107978	-0.3948844065233069	0.48418050882165964	-0.7630337457465597	0.0269205923443846	0.43127420435738056	0.32349863566739057	-0.07232139986375459	-0.2680913799192952	-0.0009684336230853916	0.7244902234859321	0.3539802125099877	-0.3149370841181141	-0.6061905011131014	-0.5411249981569536	0.5037091957726291	-0.3888811757282982	-0.11719700664494767	-0.4897477912458818	-0.562061427604674	-0.006390949695067978	-0.40593388574154915	-0.3837461759892182	-0.2852973930785214	-0.5811586961378484	-0.5628119096851462	-0.26842102340639323	-0.13729290629532886	-0.64115214185964	-0.46419986965282184	-0.27443674137445084	-0.32839673674640896	-0.5058660494430258	-0.2786547534582991
-188	0.23557029605040666	0.1962991500905205	0.7338149529049858	-0.14052331412122593	0.8149954656051456	1.2812962499693836	1.2291628091296334	0.47255971908468763	-0.06900688988429181	0.7893908003904027	1.6725323157998448	1.1966952055281346	0.19863802144444057	-0.5561674223209404	0.022050119880795017	1.4735189639082011	0.327290116914303	0.30603754443149206	-0.42347127092256753	0.053927503390056926	0.9095771885795454	0.2370949828599117	-0.15985727269820582	-0.2528042488868008	-0.07384051363898719	0.07771880905079577	0.13305245306277938	0.02078704158183898	-0.2869461171534909	-0.13405333425532076	-0.032465681351709706	-0.28084015775347115	-0.28776234315698435	-0.09917096768613318
-184	0.6552286131528356	1.0160040829756078	1.0708894702576899	0.5692498669557265	1.3978604043000264	1.8754216385221567	1.9606635521024127	1.0253123019081005	0.18301562918709224	1.4354505502698787	2.300937408360003	1.8309445334937644	0.7090402823666447	-0.39717101950505207	0.6002346262082471	2.208078855661709	0.933435378102134	0.6658719165202815	-0.21698796694330794	0.6867136937923376	1.701769824499831	0.7729700784241096	0.0436468235046381	-0.0886696872856673	0.49676406258093536	0.711811361899901	0.4772506940236345	0.1410390433088429	0.14921124241826836	0.21877740268307563	0.19194394301590692	-0.11364399613059892	-0.04053039093513474	0.06576671434725685
-180	0.9276736951294677	1.7992483332030011	1.4261889421694827	1.1677725285610572	1.632962938000578	2.0567302651929973	2.297645563046659	1.4138328993387403	0.45021477227983614	1.7679356291957544	2.4552726683615793	2.068495506786218	1.0653645965381182	-0.1184152957787584	1.0470648977546697	2.5332088406501607	1.257292029067464	0.8662365653102163	0.11469420761714798	1.210138317867546	2.187185281953474	1.0853308411852791	0.17813453033295312	0.1959847504912853	1.0344580385793456	1.2163518636511137	0.7036475521442066	0.20326025732697373	0.6163023098644269	0.5579313621739698	0.3576937308817307	0.1718746717405119	0.21593446975072395	0.1883366252197243
-176	0.9588823294271994	2.2327387276545028	1.6607707696945913	1.4687843285670668	1.4905854425943605	1.78074085262839	2.13196968494017	1.5007836780803923	0.6725779754823848	1.7121733383819508	2.108536476533757	1.8428211165631443	1.15539657777901	0.23765696525175758	1.2445239989330743	2.3712434708808616	1.2249569861956109	0.863734183514929	0.5010018932091214	1.5162095985278958	2.2503814640448954	1.1249784202782938	0.21515445356884014	0.5347321616023542	1.4324430191113953	1.481624718740031	0.773048816159659	0.19736905346153755	1.0334734890594315	0.8279022553522221	0.42173141134596664	0.5119250403830812	0.4450577188222449	0.24234381256906415
-172	0.725485919074391	2.11110710564714	1.6480853515976515	1.3852667773558092	1.0503469679062953	1.1358305187158608	1.5256439408884148	1.2611610857593558	0.7922902087235365	1.3081977334372306	1.3715010846796876	1.2478784291232745	0.9704060530003997	0.5862413033943031	1.1462917298939774	1.7712125733479422	0.9015387869961418	0.6960306746075902	0.8390583970820207	1.5476883610750676	1.8834891271721372	0.936640796680772	0.16836671488691898	0.8288816192680539	1.6054384667871116	1.4474172555619313	0.6889064294587985	0.1333171125860751	1.306884166278987	0.9652542447515354	0.3568847468425592	0.801364062193364	0.5989251717704825	0.21083550101931964
-168	0.30056288762501704	1.4523847066449707	1.3583887781179445	0.9776260232084588	0.46073475363755306	0.31468576113405317	0.6967179757647599	0.8097067454875778	0.7848848084660492	0.6921021324803628	0.4563294339579711	0.508532284406387	0.6236482842912231	0.8368267395826197	0.7974655012023829	0.8977459050400807	0.4686188089937006	0.4750718164370488	1.0342113945598876	1.315074082869027	1.1912641495192027	0.6454399807846664	0.0974348706527242	0.9856148337275347	1.517821665746421	1.1276963920731895	0.5041747676517943	0.04580280918239751	1.3577856983236296	0.9229994988979828	0.17073677437113902	0.9376401877571978	0.6340612157071938	0.09610371267373566
-164	-0.16671557682384225	0.506421385916996	0.8924192167638869	0.43236148248230577	-0.1152150628042027	-0.4520456779511016	-0.06501267833984894	0.3564254334510797	0.6763443929762325	0.04743407282178215	-0.3928840448473728	-0.10793456407952694	0.3048797242096533	0.9342207288997117	0.31938913383908196	-0.0197053644308634	0.14522239529184175	0.3409804097149739	1.0363669369281028	0.8897876717036974	0.35711398630578656	0.40430706637347935	0.08543633648044191	0.9516925191693204	1.1938954561608135	0.6100520476197703	0.30426084918451296	-0.014435896613509568	1.149894353824396	0.6940317732454494	-0.08883104450924749	0.8637478329785481	0.5285967575078897	-0.07611725460146636
-160	-0.513776301040486	-0.3554238668051251	0.43887129315198153	-0.023214559943477417	-0.5463882670912664	-0.9740437244618575	-0.5157684074731396	0.10868622335173045	0.5325626121426523	-0.45654478553900085	-0.978103516016549	-0.40069094199105343	0.18903118324237714	0.8789282418948416	-0.13807612622686127	-0.761558888419961	0.08765780903619264	0.39431759615524636	0.8531922080433455	0.3743264367666323	-0.4199607063657723	0.32359814562159184	0.19634897957342695	0.7255926113882696	0.7033725363139073	0.024705897954314812	0.16852557616600553	-0.004274209019181213	0.7020859700596788	0.3168489626991025	-0.3506074240892429	0.5869561418972896	0.28995269463766027	-0.265450894162412
-156	-0.6428233368856331	-0.8152951577583195	0.17582003727868467	-0.23069232644011037	-0.7616116385304541	-1.162613388940904	-0.555344997434406	0.1686366643224252	0.4233127225678653	-0.7192302328070735	-1.207014915279912	-0.314772634903594	0.34435921820482585	0.7164322715790913	-0.4577231693632352	-1.1900542944426062	0.316951929722692	0.6396199448649122	0.536653994158995	-0.13796056772209472	-0.9937092040722412	0.4165368665669063	0.43316802273104765	0.3456102302885356	0.12929537859697668	-0.5054531084650645	0.12790346113337364	0.08327434190944626	0.07999290505716972	-0.14212176167845428	-0.5545493350333082	0.16463535982527194	-0.05167311044402181	-0.43724384793514315
-152	-0.5679277167286569	-0.7546482663175051	0.1728914822743293	-0.17376495853898494	-0.7577735762537673	-1.0514658662951941	-0.25820007855075944	0.4832956480698806	0.3826215853567578	-0.7369625549783376	-1.1134078474544182	0.0460337101250938	0.6936834437022614	0.5046698438300486	-0.6011129602514397	-1.2902328935472847	0.711336253277596	0.9747002100177562	0.152837544293764	-0.5944315180075666	-1.3153574433495738	0.5909305796008781	0.7234121542786014	-0.13499665226231564	-0.46369707467308846	-0.9103107429409442	0.14386315607465427	0.20438425191298784	-0.6275297387491968	-0.6191152318582099	-0.6840893012895032	-0.32985776579545456	-0.4580567169545562	-0.5824257716732846
-148	-0.4001527716547352	-0.2955165497948165	0.3522349885153705	0.02471769408601511	-0.5927828535372417	-0.7716395239421479	0.17413619116686999	0.8753263332201587	0.38941123983294745	-0.5955829009277858	-0.8332850315990079	0.476195721616096	1.0525525781759952	0.28192216086734706	-0.6181259735713704	-1.1640181512054237	1.0672285529848282	1.2359316317825266	-0.24526752469604376	-0.99179935204917	-1.4367135726894804	0.6937870365746196	0.9450206136685873	-0.6685765368747811	-1.043836829411074	-1.1916633814289002	0.12398923902201739	0.27697580982850484	-1.3346779312768686	-1.0783650847865451	-0.7761358599140721	-0.8383977988056428	-0.8959320760995002	-0.7235732656330225
-144	-0.27893033553272234	0.2781997614035549	0.5330440984619322	0.1791004235990997	-0.3679505279311064	-0.4941824364106192	0.5128766881391623	1.1380709380980216	0.38100379609234863	-0.4305745352364512	-0.5476539121152316	0.7658958415721583	1.225796338801219	0.05554813877624689	-0.6150462015836017	-0.9798784231241894	1.198045965984624	1.2790955272805429	-0.6261128767418183	-1.357951995282133	-1.4707817994177363	0.589237807693531	0.9843052600804809	-1.2154755561658384	-1.6014543731310937	-1.4056471550738239	-0.0289977229399504	0.21974736396621786	-1.9731581161272633	-1.5149490795033684	-0.8984000064101944	-1.3266779150846033	-1.3383065428323435	-0.8992457963174216
-140	-0.2895961992581587	0.6701612455614234	0.5338920937410108	0.14738504551392825	-0.20153811523098755	-0.36628326681165857	0.6020395144521338	1.1415554256227936	0.2914465360435719	-0.37120145465591553	-0.4159482408989131	0.7893348912337446	1.1095857592224911	-0.18406893266458121	-0.6972836238422503	-0.9003468133129329	1.019839045810774	1.0536522838693247	-0.9683911775934995	-1.7185292200568827	-1.5300922355167712	0.2301775807291297	0.7958253601962395	-1.730232830447561	-2.1221642440622164	-1.6195573765872802	-0.3594036391244076	-0.001099455167557528	-2.491360896496173	-1.9347479294566616	-1.1049647303340115	-1.768892164532695	-1.75499355349906	-1.1335720987310232
-136	-0.4163534928777178	0.7118885499146903	0.27703434158952644	-0.0922292543109248	-0.1948590571728994	-0.4631541359652002	0.41593649878392197	0.8950806237510335	0.09132289863417795	-0.49043869848405136	-0.5230954872275897	0.5474795089250591	0.7456757407435399	-0.4387656737217062	-0.9156942344434654	-1.0164843772019951	0.585165856791336	0.6325659735921334	-1.2444041935973782	-2.0676827378521128	-1.6709935622942083	-0.3113414935357614	0.4331086267026789	-2.147401089014979	-2.5635695392734585	-1.8652603579157925	-0.8220618346440063	-0.3424418261942096	-2.8447766232192406	-2.324261421057463	-1.3941115105716986	-2.124369615913338	-2.101301903187765	-1.408239837905718
-132	-0.5591190443227656	0.4235196996963253	-0.1663502301546139	-0.4361755240872087	-0.3979031433549798	-0.7699637393585187	0.053068522229916	0.5348282442894895	-0.1944928760386463	-0.780464110788154	-0.8567486383741796	0.15248711368685305	0.29912051482973895	-0.6869086009802611	-1.2425261704545367	-1.3149170842350852	0.05318582044524752	0.18064314081360375	-1.415477272274652	-2.359430307153363	-1.8683233213937769	-0.8695932008722678	0.0310992616374901	-2.384911531149087	-2.853677504010367	-2.11370515289705	-1.2883865800753838	-0.6914343220419854	-2.989941351017408	-2.6309680872295145	-1.6928945737058936	-2.3288705290170175	-2.3166801870983327	-1.6548548895062802
-128	-0.6054621919604296	-0.03014188811023461	-0.6154249891001929	-0.722406027877333	-0.7862837890800404	-1.1968373030009203	-0.3251109115021719	0.24439278183268984	-0.4996253239415092	-1.1622595757704106	-1.3201484646845236	-0.23338615835393287	-0.029121788145091993	-0.886787769939726	-1.5867779214851039	-1.6897019105212052	-0.38591700694877945	-0.12395601688321958	-1.443693038156478	-2.5240864689996085	-2.03111600363047	-1.2551119295856636	-0.25409799750070666	-2.369122499206529	-2.915313713342665	-2.2848234118949495	-1.5960346420046405	-0.910581705655409	-2.891153566690407	-2.771259300864571	-1.8815805864512478	-2.3124077261716196	-2.340039724163989	-1.7770249798731845
-124	-0.5101283179755081	-0.4482189703592159	-0.8782887436626611	-0.8268191197500984	-1.260751721060072	-1.6157056052423298	-0.5735185727898283	0.15584498604528046	-0.7493523340379379	-1.5220785102562422	-1.77177702933254	-0.470252363686613	-0.10551482412401206	-0.9973214839550888	-1.839125509387111	-1.991255516746855	-0.5926278814612169	-0.17491632655804304	-1.3140772547923203	-2.5008439954559956	-2.0496313520181713	-1.3351206745771425	-0.3177465192401866	-2.071444744602258	-2.704378359642438	-2.286616081186688	-1.6192871291285509	-0.9005902982862256	-2.5380709107215034	-2.6645469598254	-1.8474029255954605	-2.0359508939838635	-2.1358368342834337	-1.6936657385980505
-120	-0.3287761203094465	-0.6981982571140194	-0.8546256997465744	-0.730949400009999	-1.6764886336914675	-1.904506559331903	-0.6234457477087877	0.28470614480616474	-0.8944219328232836	-1.7578858092748386	-2.076528782370184	-0.49303069586253223	0.07201411556897148	-1.001536724422962	-1.9227522563073214	-2.090881342377282	-0.5300086723297645	0.01364843916427338	-1.0538085672475312	-2.2705509605302274	-1.8517264080979725	-1.08838963233814	-0.15527814587489763	-1.536683317119393	-2.2422871533048334	-2.064979071171927	-1.3271599974503296	-0.6496762020874475	-1.966112012667575	-2.2791275920545937	-1.5419580897501186	-1.5267046651441596	-1.7188016132828186	-1.3825135196112956
-116	-0.18172289385214502	-0.7584685068054491	-0.582935629803406	-0.5224745260398874	-1.89279257773306	-1.982196683647473	-0.4990065681256581	0.5309714065497458	-0.9244857407117048	-1.8130906774521103	-2.1481020396357677	-0.326000451218554	0.3809714307703173	-0.9150152779365431	-1.8225328876257196	-1.9313836048954536	-0.2668516927180642	0.31895792403754314	-0.7295136433302742	-1.8688570213817484	-1.439834233463462	-0.6102076753468859	0.13828365469828402	-0.8805207587899297	-1.6199699599373738	-1.6362940031700854	-0.7996274212675728	-0.2422922247491413	-1.262216326387795	-1.6620852905271488	-1.0109475825534988	-0.8849183298657105	-1.160109397820212	-0.898966071720197
-112	-0.17109811262801636	-0.6890541893728237	-0.21118213183013576	-0.33361515318564156	-1.823376293347162	-1.8260359717996144	-0.2917856864714876	0.7377534490078655	-0.8582590796736193	-1.684579010524984	-1.9696479986053028	-0.06255841239393507	0.641659675408621	-0.7747246603479329	-1.5805947740702948	-1.5435290297638524	0.06113903954090167	0.57079309080971	-0.4217036355815714	-1.3725997174894138	-0.891186890736267	-0.06851021183121307	0.4151415814408819	-0.2522790425606885	-0.9675308441529836	-1.0843087407392513	-0.19366322408895112	0.17786583259498406	-0.5457640276481098	-0.9319909787489388	-0.37817829751854976	-0.2519064241248159	-0.5664482102397776	-0.3568306854298844
-108	-0.3048315338544741	-0.5667930231089326	0.08571260400827833	-0.2587343447828548	-1.4663355313472972	-1.4705827199046893	-0.11359428585698175	0.7706145028685334	-0.7230296116693987	-1.4070124590636017	-1.5891870220115532	0.17451249018954815	0.705651281482562	-0.6168438776654888	-1.2651177612788462	-1.0248972151629325	0.3093306414423734	0.6303228720009645	-0.18972785722991417	-0.867193696693603	-0.3232592932168993	0.3661186983878492	0.5443285093869636	0.22139415089023698	-0.40378960865116825	-0.5241708146212676	0.3238737276960151	0.47336155056650414	0.06946245563374052	-0.23624397754627963	0.20799913949903784	0.24602571067683368	-0.04127867509433636	0.12036343633542046
-104	-0.48015484092601596	-0.4337929774299398	0.194282531247765	-0.3004903487725085	-0.9001109577341522	-0.9909689401402558	-0.05019751923523626	0.5764217362155735	-0.5399771319107671	-1.026503202707706	-1.0946164103528142	0.2760905020418911	0.5203104006028464	-0.4600938844985461	-0.9320393181157295	-0.49396091574887074	0.37634992504468084	0.4481819260725815	-0.048039622483558565	-0.41194644466344166	0.15788142343237374	0.5851880893237811	0.46945711851802757	0.4835047411632248	0.009318220405596203	-0.051705039907089315	0.6443110688154706	0.5737776741800127	0.5152221309051523	0.3079482607219103	0.6385151727767897	0.5487476573440986	0.3535015574113274	0.4526530790821517
-100	-0.5429787622094326	-0.2928936772104199	0.10522109243530053	-0.37813377284901495	-0.2505493157736738	-0.47941282270508057	-0.1351992037459122	0.19318200599057195	-0.3265600792269372	-0.5818519577594806	-0.582114098986541	0.17951029493786283	0.13841259444576884	-0.3049366764475924	-0.6022436603599741	-0.044104922451483376	0.232805296190902	0.07607085983620644	0.033209368502694625	-0.021328454783353854	0.49942088001044577	0.574871061781012	0.22624446394542735	0.5601716027421968	0.28390791940534804	0.29570805951799634	0.7538771014253481	0.5012561070184466	0.7899241427505063	0.6593939645331578	0.8849947430201197	0.6803781373012228	0.6159549936001976	0.6339738949028183
-96	-0.38782384893729704	-0.1457222696439885	-0.10849725427652776	-0.3891951431938599	0.35352280646713613	-0.023551337361478988	-0.3498156955946903	-0.2853805415577732	-0.110396526475178	-0.10374465558561936	-0.13121578064214645	-0.11592607170877202	-0.3233271233024824	-0.14744392000165651	-0.2656914287057958	0.2811586551720244	-0.07798375914673406	-0.3672581305768212	0.10294835988517238	0.3284989587119407	0.7134838682280759	0.40664419429154414	-0.08431576171091314	0.5341303335055765	0.4863842415450539	0.5460057840867084	0.7236570697633651	0.3495269408938049	0.9488666033630091	0.8609911777692909	0.9979651545123931	0.7245186549014181	0.7925568799035883	0.7234059553955604
-92	-0.036901578213984265	-0.033967696044515536	-0.3554893723095679	-0.28322076725978984	0.8146790841514765	0.3077667943813498	-0.6410259588269691	-0.7616315464817588	0.060849476452023606	0.36999374534652574	0.2051888252084571	-0.5512983785061767	-0.7462996821634734	0.003538957089563933	0.09191017574708653	0.4828624117104245	-0.46195599320127273	-0.7530298214020051	0.19454351018425514	0.6714897138808233	0.8535528757479708	0.19477005253731325	-0.349265693736414	0.4933889793813725	0.6911501270964138	0.7636578063757824	0.6608337147240724	0.22923724295436607	1.067251918005521	1.0052108739269303	1.0648578378495173	0.771154520948835	0.9433957314514677	0.8027368763683648
-88	0.3528630426557831	-0.0404154471032659	-0.5867053851573526	-0.100200839087704	1.0791643830709652	0.4715981471552764	-0.9445575451844963	-1.1703656882301083	0.12721538511582375	0.7782607058903052	0.3983094086127431	-1.0250654194700641	-1.0563610765489482	0.12000229179363818	0.4590070236061333	0.5806549176814787	-0.8075417855855122	-0.991620120882783	0.3024389140122635	1.018499491027474	0.9707518195438688	0.04305551562763675	-0.49408292645641794	0.48400828120101597	0.9333742833413935	1.0021088098020718	0.6486629231288241	0.2103109801466205	1.195054766498768	1.1753748625643852	1.152638790081505	0.8650138952350257	1.103007909850976	0.9248021817700184
-84	0.566634057521718	-0.2410894477240942	-0.8137244561631641	0.0529889351281806	1.1328422994622358	0.45451214794800243	-1.203856822789106	-1.4845223389338262	0.045526713017914375	1.0393283340916464	0.4374651003759908	-1.4223071300836412	-1.235111948709645	0.16760086970929478	0.7868486026925059	0.5866103753538205	-1.0206524107913255	-1.0555529567771236	0.3848018040478475	1.3394975628412382	1.0764601203443331	0.0038602815377852115	-0.5078120218807397	0.49335867041958076	1.1878493994286419	1.265239831591038	0.7059310060797866	0.29022446201482754	1.3291908469019893	1.3956441844035832	1.2678627935824014	0.9849729513095691	1.2592313257849799	1.0817691060410735
-80	0.4513662148047	-0.6384683235261145	-1.077048895023938	0.07234813254686887	0.9916647647616069	0.27436926891673546	-1.3816959823056203	-1.6975552992876932	-0.17571869448166116	1.078343031068034	0.3278897396392295	-1.650664444570571	-1.3005210128374107	0.13082502749314673	1.0063695882184385	0.49574309462315536	-1.0533751222718188	-0.97256630413554	0.39256349106858013	1.5725192983979346	1.1325740785614238	0.06381858124117536	-0.4346946764938253	0.4718549239643205	1.3851710522965415	1.4996703825280884	0.7842976431118494	0.40281572836264196	1.419073458903451	1.6172130067048935	1.355791207705191	1.0648608180817485	1.3617263997983604	1.2107490270563728
-76	0.009133156365939029	-1.1256345482063248	-1.3916668856770527	-0.07191738468132584	0.6951032263372267	-0.02023332560914449	-1.4641094170798463	-1.802548165538725	-0.4611895668783634	0.8675069191011069	0.09491225308058673	-1.6712458091502609	-1.2775028911761654	0.03148020050922329	1.0644165250607145	0.2985987953753372	-0.9187145209958985	-0.800522504215905	0.30482920927333373	1.6554068285155068	1.075404402878737	0.15860290785323589	-0.3423369220196698	0.37683924937472896	1.4551565610386072	1.6226594407121386	0.8016537407662411	0.4597024607972944	1.4022998774409785	1.7477737621049345	1.3373149599643637	1.040756819004727	1.3546924556861757	1.2327593533863002
-72	-0.592586873465715	-1.5157818755980674	-1.7111551718424682	-0.3086487643078645	0.3058738998796744	-0.35472178369608837	-1.4579497538950195	-1.7871900751768046	-0.689900158093985	0.4566837239656215	-0.20910850114479654	-1.5113037786473984	-1.1810526818020641	-0.07335650157289124	0.9589356159794941	0.00703413736161859	-0.6852725130899521	-0.6004701837638047	0.1496904935633749	1.564153190478383	0.8606654979910605	0.20752146787701387	-0.2858017377790151	0.21110118872273514	1.3733613456384308	1.5713281591797503	0.6918444019970047	0.40010216731144865	1.2507386176002453	1.7088999705084404	1.1622074813110084	0.8960978962208467	1.2158162563145143	1.1027944060139296
-68	-1.0995411845103022	-1.6297275978903383	-1.9357944678069858	-0.5003052937273901	-0.08947764314471902	-0.638813851651005	-1.382418748226342	-1.646851058616759	-0.7456073742161552	-0.025648388946865518	-0.5033906685517536	-1.2503766981980828	-1.0197527382853573	-0.11445867986391269	0.7526088337970194	-0.3251917354002833	-0.4506476510114245	-0.41945651067689027	-0.0014008954131996818	1.3371932472800394	0.5045688139574095	0.1521976437302322	-0.2853524677701549	0.03350397563462408	1.1843198507925337	1.3457779850360752	0.4440693248027524	0.22230094615123797	1.0001851295014477	1.4885215721695786	0.8471233227322824	0.6776855570849374	0.9781674121955869	0.8415839054794224
-64	-1.2956503596972422	-1.3938004935360457	-1.961583728606132	-0.5184487687372769	-0.3910414566657609	-0.7843545059428214	-1.257351633712089	-1.402763005529714	-0.5730262384252266	-0.4101047207491768	-0.6915726644221598	-0.9839578246069624	-0.8111724236989042	-0.044116090871769965	0.5535297379823546	-0.6051450952510251	-0.3023833922857954	-0.28670331763361134	-0.06610389782189993	1.068663475199528	0.09484454220429284	-0.017668968021963286	-0.32709202087789213	-0.0669733507730434	0.9858828758144128	1.0192972395911337	0.11071421923102874	-0.019701803053347063	0.7430170755700461	1.1561523646728538	0.4742816376632565	0.4724224793904388	0.7199418526592503	0.529001294230959
-60	-1.1046906681780262	-0.8869575239676177	-1.7383713678339345	-0.31559872547577283	-0.5102342950336511	-0.7267239671478949	-1.0899413796563047	-1.1055741282206566	-0.20914076215869976	-0.5494128451781125	-0.6879781467234103	-0.7777246813211934	-0.5904099926347243	0.1397181149769881	0.4704251873537029	-0.7292906623547325	-0.2795225970840377	-0.21523128395576163	0.007976020666190894	0.8712180234847426	-0.2370360189652165	-0.25945097142518	-0.3783775558455308	-0.018537890119240563	0.8817308522851046	0.7087300401913721	-0.21727605109194126	-0.24757796463447773	0.5856904372686798	0.8313986042012743	0.1522015925379386	0.3597435346103811	0.5274919258151225	0.26370379262148913
-56	-0.6138268097638654	-0.30272188706262027	-1.2982960906628522	0.05053313808795793	-0.40069362420006155	-0.44329175241129826	-0.8658291079595605	-0.8146186450418269	0.23002618493178242	-0.37885990643215783	-0.4486750352975633	-0.6341037734234559	-0.3991380621846408	0.39215934177570094	0.5636144862250204	-0.6259782894542553	-0.35246637374580436	-0.20217961021876307	0.2156478310147228	0.8245353081866506	-0.37137856985741846	-0.49449595684134623	-0.4058913578276093	0.192159607521321	0.9262878871419388	0.5182896243361284	-0.45261302476096377	-0.3981256176910422	0.5921744093249106	0.6214914306208263	-0.039747677643081666	0.36717337277216455	0.45088955646163464	0.11194825889218157
-52	-0.013194477152294104	0.1545216586264795	-0.7389128785551091	0.4515256572290716	-0.08110138008383962	0.036031357853041256	-0.5543774948428546	-0.5657370076201133	0.6023738369038348	0.05476943017125455	0.005438360371866212	-0.4921238409968866	-0.2620754533349814	0.6428357942563596	0.8159139731788153	-0.2913302473819087	-0.43482121715436395	-0.22849833907611228	0.4937618958404682	0.9347906685116151	-0.25704646045636675	-0.6402639730500843	-0.38849639794492213	0.5075650202334141	1.0919387312976852	0.48635074373477466	-0.5498836026613599	-0.4499333489502397	0.7448165993959166	0.562543688784334	-0.0920043808879162	0.45496672277023426	0.4767797279241308	0.07457633297688163
-48	0.5074511157575359	0.3778788139816319	-0.17272679464123067	0.7588299493704544	0.3655037572692541	0.6319548471707943	-0.12956617739866877	-0.3497396102658266	0.806812582363171	0.6115079506693782	0.5870063886127084	-0.26343786649949513	-0.1678089793260026	0.8285360911431633	1.139006492600054	0.20184779116213625	-0.4244210411323431	-0.26126706534225613	0.7492337207951343	1.1276330919405977	0.060533847506993005	-0.6436938031157351	-0.3202784947415302	0.8231949189383257	1.2777203289197572	0.5654981718091013	-0.5203816877578178	-0.42429062616990376	0.9465807056369995	0.59926563350058	-0.06628754718256984	0.5385836349240816	0.5349820242726218	0.09153894311920148
-44	0.8437075593627631	0.40475022690626555	0.32203882851355975	0.9065667367934754	0.8183017948471335	1.2325166432733874	0.4009335626969991	-0.12103752761322523	0.8265382626646258	1.114542481469498	1.1649614543112574	0.11095762224793511	-0.07242190074517275	0.9186788178137681	1.4113365376125602	0.7267637830505044	-0.25679126317040524	-0.26373511486223955	0.9006186700970671	1.2797542778129374	0.4542024720168537	-0.5036699759164659	-0.2074950034148004	1.034831878910433	1.355918642435399	0.6467822177769745	-0.4193869818589353	-0.3639540663113289	1.0653523179813256	0.6158657654471942	-0.05728166163406614	0.5355360494444102	0.536212383346969	0.08104101547999575
-40	1.0014258597839596	0.3757979562331319	0.7172300201427511	0.9107156372918811	1.160421964576625	1.718895311784169	0.973177788184747	0.16323071677004147	0.7253615837857035	1.4184629881332027	1.6039880473648092	0.6116921886259138	0.0701710580007831	0.9204115844376587	1.5289553365251958	1.147114631617669	0.054395142805332475	-0.2132253939490386	0.9125829315986901	1.2753543821560163	0.7667583207798806	-0.2740509503121162	-0.0656588224899052	1.0843489142697285	1.2343912093468408	0.6166799648927703	-0.31585273066884184	-0.3055343322192463	0.9995034907855173	0.50282871596223	-0.1362820860282963	0.4106733192565761	0.42150142682468145	-0.009266832820026386
-36	1.0576882335661661	0.43374216447039704	1.0130112145597021	0.83921819713426	1.3166587319510248	1.9944503256987498	1.4688262902368825	0.49735900634125885	0.602251766591643	1.4587019645101857	1.8068982317127398	1.1286307544823293	0.2687663429150276	0.8631052353048471	1.4459118806572848	1.3647021020766141	0.41268923774475724	-0.11800351709136725	0.8061342815073397	1.0611925098329535	0.8765158035082933	-0.0446904524032464	0.08037037382099865	0.9811513399147987	0.9034668184358234	0.41819682611738757	-0.2608155601592225	-0.2625038319159006	0.7311449032443686	0.2237818831515883	-0.30778035443800195	0.19567359934518216	0.19739378938905688	-0.1681962008998083
-32	1.0926147671770208	0.6262531264706207	1.2010350197032738	0.757601676458669	1.2716126409850435	2.0099778124606944	1.7494151548086152	0.80614614283162	0.5312759266791345	1.2634578911353318	1.7446614459812007	1.4967143497825608	0.4728836405259017	0.7753607611153698	1.187418100220136	1.350939389632724	0.6766571981512239	-0.021367290934617266	0.6418116672524146	0.6734281165286699	0.7475806455811072	0.0939668414604494	0.19712258825601356	0.7909818271693753	0.44410532600810587	0.08496072121865748	-0.2681193642999466	-0.22573643865812815	0.3389336756255217	-0.1546082641751195	-0.5022771345808712	-0.026119273089982832	-0.06158819779105321	-0.3227795950369581
-28	1.1358734340599907	0.8744788743828819	1.2460129229558043	0.6873815042307151	1.0630990239959257	1.777992601674025	1.7130322413109957	0.9691956018773572	0.5214596377558592	0.9277138686599449	1.4630253278034084	1.566909547664417	0.5881038293295421	0.6682911498363171	0.8325054624519588	1.1509610385446032	0.7249650936896587	0.014373868667551633	0.4853378820086637	0.222160070573667	0.442838757112149	0.08983602352110684	0.24927905138975015	0.5990366920605757	-0.007323447596418291	-0.26941534808802586	-0.31298535983219394	-0.17700140133515024	-0.037389174009338284	-0.4882729041169609	-0.6091766342041643	-0.1614059801794947	-0.24624079403696264	-0.37525135183959923
-24	1.1562089890852474	1.0257918808787523	1.1039720745824284	0.6012347921450529	0.7574938516565426	1.370351668712741	1.3478031124418508	0.883176503335837	0.5173560367873684	0.5651928768193325	1.0633480522011685	1.279512163746471	0.5261937366551921	0.5334013090971693	0.4767669725301811	0.860806522580243	0.5184635506891438	-0.0592453627282656	0.3739157309628444	-0.1590500320948896	0.0948314813365394	-0.04385763768209581	0.21444040482739496	0.4680360841855252	-0.3203388742465352	-0.5015421497080015	-0.344837575280263	-0.10351509574742712	-0.2630328231369466	-0.6246203764404107	-0.5315330015114017	-0.1528686579182582	-0.2649188333021678	-0.25491246516718363
-20	1.0932525368745072	0.954209146474673	0.7659449557993292	0.4533492315290482	0.4215246130314405	0.8968408681160961	0.751630840788014	0.5279468880675444	0.4385024298087203	0.262339621119959	0.6645563228041207	0.7016512733864293	0.26255950265398026	0.35412955194709533	0.19324848007048986	0.5880377873832977	0.12713314560740255	-0.24444578526292252	0.29945319815371285	-0.374681233413762	-0.1522784229248601	-0.22757743241549638	0.09885527168587738	0.411407469664421	-0.42841559540349256	-0.5041753636982405	-0.3070760361547918	-0.004497875448136163	-0.27230575611982133	-0.4798026072786051	-0.2345953130759548	-0.007241099588917411	-0.0892247629893173	0.042287766826674816
-16	0.9016666389588621	0.6406675560988395	0.29312199280165563	0.21859136168604015	0.10214167062481895	0.46974477053298735	0.1029626202963989	-0.004683712951189602	0.2312414342287173	0.052083197849621725	0.3610692015114836	0.008215537274003207	-0.13476349379370417	0.12166868119515833	0.007436364870369881	0.4115982939341876	-0.2937657229636046	-0.4844538557219094	0.21612675433428388	-0.4106555570724778	-0.20458716102445218	-0.3443385949977856	-0.05554242790623377	0.39171340962693973	-0.35656225591281615	-0.2571595304672202	-0.15714609583279748	0.11270483554756663	-0.0992200148580789	-0.08491692670601934	0.23485404193711035	0.2065587783605159	0.22889295162585147	0.44659945256011263
-12	0.5792952165282954	0.183658673895628	-0.18729107034603656	-0.08739009477485987	-0.17807699694972895	0.1680918331670701	-0.40681680934237785	-0.540961562221392	-0.09631389355184422	-0.08444916435616426	0.19374075483044695	-0.5857475981228751	-0.5265709148463785	-0.15332482716473375	-0.10408305350489667	0.35588776975424075	-0.5687257037108951	-0.6822394711435693	0.07045316678379278	-0.3370057931974515	-0.0580940952920453	-0.28906705902550117	-0.18140371098017868	0.3452502778396458	-0.20504447766033676	0.16000166494980966	0.11712963849536039	0.24045096277087225	0.1413989510542492	0.4233152855675842	0.7655327300771033	0.38842344185990124	0.5777143225389091	0.8425931313222113
-8	0.167312264020021	-0.26522979073317593	-0.533349870288858	-0.418496846096107	-0.41472881927685445	0.013712494599471133	-0.6500957591809622	-0.9022712088692926	-0.4757351863294017	-0.1959745431958933	0.14258377218010304	-0.9108203030478425	-0.7672216872871946	-0.44009780772675045	-0.19532440553464717	0.3852742006588222	-0.5794011339817938	-0.7455316167128369	-0.1635863031787125	-0.2705909900986075	0.19776982019083422	-0.020384848066361577	-0.21391110068196464	0.21790987198172132	-0.1001633254144932	0.5965377077300321	0.4861250209455802	0.3731369664784977	0.3101057402410756	0.8606491663184332	1.2227553098324564	0.45019316559615963	0.8323257544484147	1.1161222429706363
-4	-0.2714529030622059	-0.5950751289602262	-0.6618411524275225	-0.7282181959839966	-0.6134432538757042	-0.031012782748719943	-0.6121927484314738	-0.989695606117134	-0.8144283274115396	-0.33347308551517807	0.14202576839828587	-0.9079957581483575	-0.7791341523526385	-0.6977124196556818	-0.32453974999505375	0.41891002549264683	-0.31854832091968077	-0.6366030557772228	-0.46368682267421296	-0.31875815907108274	0.41245278611953023	0.408284275693043	-0.12522891132208727	-0.006490875019136484	-0.13749246264553305	0.8847833253456351	0.8747668840257093	0.5006753789658661	0.306187479915046	1.0711234780924872	1.4918270073418973	0.3505727043837489	0.9041936374723796	1.1964880197834185
0	-0.674579678262823	-0.7930130938535473	-0.5979967698258051	-0.9937207077686537	-0.7838137726067843	-0.04061717902299889	-0.3882857253284954	-0.829261539272893	-1.0419170830169953	-0.5283531533253077	0.1124760580203351	-0.6436026676141037	-0.594991742062396	-0.888237772129516	-0.5298232422803364	0.36207500008720656	0.10499184552149257	-0.4003544141675012	-0.7627561669165415	-0.5305370675043642	0.43101614604847704	0.8561291673025929	0.05221025632551057	-0.2963232688574923	-0.34339779528702613	0.8982642866343834	1.172336456199986	0.5980449899833067	0.10790923955614194	0.9845916007932589	1.5062944851038325	0.10854414823068641	0.7717437724655968	1.0754618617561553
4	-0.9871770118585087	-0.9284816956920029	-0.46372863533241737	-1.213179466045598	-0.93519747021118	-0.08764702059551552	-0.1292210665062906	-0.5504334555080247	-1.1390315265507966	-0.7811599950141498	-0.0038253012948016147	-0.2690385573270296	-0.3397337785726441	-0.9869883035536263	-0.8140202144097929	0.14511628412324826	0.513979374064723	-0.15079042277412172	-0.9766358112473054	-0.8776466824307616	0.15548051854456033	1.1440945834838143	0.23127181769631483	-0.58444458098673	-0.6704105121852448	0.5930588826464996	1.26096498647854	0.6232265814305019	-0.22742776515284324	0.6323398335704266	1.2562227217428934	-0.20847359247025207	0.4806417214656345	0.799246189960552
8	-1.1607922286290349	-1.0780389281711578	-0.4057396342047166	-1.3809965814055918	-1.0715776654845288	-0.20491303451777768	0.034790109755179086	-0.31109771053924556	-1.1351599664638305	-1.060656306449908	-0.21653254275489023	0.05241523297308533	-0.16088288981826654	-0.9867462490918045	-1.1420334548726851	-0.24280850527972106	0.741522429501432	-0.017711130857454828	-1.0428305838005165	-1.2712833849281353	-0.41101392999828507	1.1296552391141423	0.30696213167891356	-0.7963029722136188	-1.0242893669970479	0.021101230702172857	1.0597000095315459	0.5316988812373928	-0.5992450698981845	0.12011548846436144	0.7824439982686594	-0.5145567642572045	0.11728091508341838	0.4426961529998839
12	-1.1578929395051902	-1.247733589836836	-0.5058523999794068	-1.4655611478043304	-1.1862456768603642	-0.36863902118116865	0.05183693008448307	-0.21297064369791177	-1.0802000733759674	-1.3127950396771493	-0.4820221054305026	0.21459531729877507	-0.14705097638196685	-0.8989676214409572	-1.451480027348854	-0.7396870236794973	0.70338004649913	-0.08051443824705704	-0.9535621976619144	-1.604711409331977	-1.1553957433139852	0.7743650059222662	0.20864005334152827	-0.8823069311754043	-1.3084374633179119	-0.6868700963798334	0.5677369818658573	0.3028773657781243	-0.9142815447612106	-0.4221160103154088	0.1653676028844889	-0.7401918750194703	-0.22968870343391623	0.08065915832420631
16	-0.9694755648931603	-1.3519121374330023	-0.7275624256838334	-1.4133774006445168	-1.2592816321050433	-0.5113208877051632	-0.040472291307786616	-0.2545793944130197	-1.010747310947559	-1.4762123785895114	-0.7208037358205264	0.20294906147738712	-0.28061073947630993	-0.752868710047584	-1.6721736150484923	-1.2242413728322443	0.43138831744951495	-0.3231382361836661	-0.7643637637867198	-1.798998708951312	-1.885998125082978	0.17234839455482948	-0.057957038137020626	-0.8399795272600539	-1.462708231094004	-1.3601449693671726	-0.1143374514673262	-0.03534127017873528	-1.124296543143785	-0.8855342842632643	-0.48618173476494075	-0.8571218230541761	-0.500621675181059	-0.23065204860150507
20	-0.6368598325862669	-1.2674554554410349	-0.9345350241908188	-1.1842695444724702	-1.2615661589242266	-0.5573023543592432	-0.15096230766805876	-0.3468377879445855	-0.9327724552446158	-1.5003532133369113	-0.8491332509536788	0.08349574336190546	-0.452321468641781	-0.5917854890187332	-1.748339529391714	-1.5545268019528826	0.05436571301204893	-0.6363937838699447	-0.5722794518327212	-1.8294438077513986	-2.3945794045072466	-0.4776530253748526	-0.40387406843260176	-0.7161885481872201	-1.4795210324126398	-1.8363621188530113	-0.803051946519852	-0.40186396139727154	-1.233640667661724	-1.2043024271123217	-1.048652765487477	-0.8833680130590168	-0.6764739138690024	-0.4583663630833825
24	-0.2558573477960999	-0.9288591719064124	-0.9719325875538881	-0.7965371588623501	-1.1682106226990503	-0.46291386964271725	-0.19359676491019434	-0.377043752910437	-0.828948495679323	-1.3625824417044634	-0.811953006124912	-0.041728686435964085	-0.5279489742301063	-0.46583768607782494	-1.6572252470137234	-1.619140620912063	-0.2631621652157827	-0.8690103270524808	-0.47446074962035434	-1.7239692167625085	-2.5282213624065277	-0.9494834518302322	-0.6921714526820615	-0.5878704175411911	-1.3944599593241758	-2.0071418234694414	-1.2921372619430502	-0.6868462545219834	-1.2782143322144084	-1.3529115881140727	-1.4058904612331826	-0.8674057104145338	-0.7699733357063032	-0.5889280423554153
28	0.05482951537832675	-0.39495098491135294	-0.7614583949891235	-0.34421950491782505	-0.9744058822825985	-0.238796725266275	-0.13317404653781417	-0.2789536409487707	-0.6810598952264424	-1.0777184936016542	-0.6033026560810247	-0.0863026825394843	-0.4262306083408328	-0.4171432246166754	-1.4166327679153505	-1.3807753289647442	-0.39426985283490185	-0.9020926333539964	-0.5238301144725916	-1.5388014277707835	-2.2442672195992728	-1.0833600732154014	-0.7999508360693075	-0.527574001410771	-1.2598041264198252	-1.8490672064826772	-1.4331649505670923	-0.7972556332486587	-1.291793462352854	-1.331975695108154	-1.48032188041782	-0.8594908096547929	-0.8058400133768265	-0.6228528007040591
32	0.21360945647667917	0.16610461431527582	-0.34998333365769785	0.03537143757949606	-0.7038077098243136	0.05847354218501773	0.006429180952320706	-0.06670414639559502	-0.49012154217000226	-0.6947671753508314	-0.26573136381769447	-0.012888139081244414	-0.1628073449792708	-0.4621201145902474	-1.0782240601973627	-0.8926439262741228	-0.3014376751918544	-0.7089084964973791	-0.7038161736838504	-1.3269287314291849	-1.6261520344685796	-0.8541478493106166	-0.6772867424077522	-0.5698299393572162	-1.116797802012815	-1.4304699861650219	-1.2010325163081996	-0.7015963775087297	-1.2816442218847037	-1.1586191624953	-1.264889594699222	-0.8838618375397341	-0.8029702881567159	-0.5730783328846287
36	0.23128727020043383	0.5706989154712026	0.11824346303888537	0.2315680825824229	-0.4014320959446418	0.36060160307440126	0.17178529457589686	0.18465088261237647	-0.27934509445234473	-0.28064110804274633	0.1299727555808164	0.1637910600341602	0.16387951332678355	-0.579596577611519	-0.7086170297851633	-0.2792961292367854	-0.04503598425342726	-0.36807486321979394	-0.9352730489005644	-1.1164331407969998	-0.8522322156370168	-0.38128453396853196	-0.37209731246462785	-0.6934161764757634	-0.980463085083315	-0.889729259151965	-0.7103514653391033	-0.44884115344213293	-1.2269765107647919	-0.8681119062440497	-0.8391343930039173	-0.9252113080507237	-0.7673254589734866	-0.4659105527558789
40	0.22519954982166931	0.7355481367613887	0.48808732505592123	0.23019908310467813	-0.11191586376782794	0.6268596037296791	0.3230326167533908	0.39461830158737904	-0.0790701953560539	0.10305726502148266	0.5130938874641755	0.3969448496810229	0.4328608501949732	-0.714065907582838	-0.36699306872217424	0.30903687995133955	0.25044789847084453	-0.025397434766543228	-1.1135621042747077	-0.9094845033571537	-0.13158032264867237	0.12370549856186111	-0.010346192840442171	-0.8298094251662851	-0.8436233976045527	-0.39212494989575236	-0.17258396701154827	-0.15121489725081796	-1.1010634871340224	-0.5233420716424029	-0.3570898762270358	-0.9381076669849909	-0.6991143208972596	-0.3416787973360439
44	0.37011167313591614	0.7410538773900357	0.6884578449033516	0.13633640076071074	0.14727057479392613	0.8671467282336386	0.46333148958528164	0.5317493067667455	0.09502752101271071	0.4220280338599425	0.8384652116587136	0.6372615678910387	0.5705064520737088	-0.7956343869148613	-0.08787504561410867	0.7507333736538968	0.45634418610751576	0.17748829677592992	-1.1562172145262057	-0.6971029621643922	0.36907911207475663	0.450274853761618	0.26217076116173665	-0.8947450496017952	-0.6936338526379335	-0.07688476870914009	0.19168612312558192	0.06478977187011295	-0.9006242729336619	-0.21626926903958202	-0.002288880752208631	-0.8744633771752793	-0.6061550363495495	-0.2492411130334464
48	0.799772320158656	0.7904008606982162	0.7711733560165365	0.12383892355885395	0.39885115522773884	1.1321573228862065	0.6331395490873589	0.6281145199176118	0.25233220990369387	0.6768365485269002	1.0962117882708444	0.8527622201370214	0.5847576841849447	-0.7705975155448153	0.12187580733522987	0.9898991559785281	0.49467790001906375	0.16775467949474934	-1.0391944620598188	-0.47947054980339976	0.5755642637979996	0.4775187957151573	0.34488102706619456	-0.8289745429090242	-0.531070231050534	-0.014701518193022444	0.24378116367303254	0.11327364267122209	-0.6634566171107912	-0.05087852092652722	0.07554573546648047	-0.7161989790000295	-0.5135250078587474	-0.23437444806529723
52	1.5086185894070465	1.0793503495621948	0.8670312144323555	0.3313537529685727	0.6902881247258484	1.4727545939455315	0.8716429449962736	0.7437211256323555	0.4152772416120482	0.8896384812782012	1.3007289138378624	1.0288823817025536	0.5435374961481465	-0.6302061661067889	0.270504146131389	1.0402016613446905	0.36273059157343585	-0.03468018016403932	-0.8060756305370287	-0.27916559506505684	0.5136004077341979	0.21680477206805332	0.22055974547013296	-0.6293455346430499	-0.37947463893449673	-0.19196021508388952	-0.02182523714456069	-0.018236244051309938	-0.4615523207455506	-0.10815051915758354	-0.18294911040369086	-0.49425747865820197	-0.46124017122164995	-0.3250902882951317
56	2.3164439142870394	1.6550034242806855	1.0863174172631105	0.7652257661572851	1.0539319488619048	1.8915767621920012	1.1718261212327077	0.9077706314056092	0.5922510608978983	1.07743155684243	1.4666271172688021	1.1547434300832102	0.5163625465707605	-0.4217187155566615	0.36265882758130746	0.9581904387123935	0.12119795351423315	-0.3409324875806955	-0.5459752665086605	-0.1374243643390491	0.2765810780694764	-0.20681805856463423	-0.0475468671611542	-0.35373026043275313	-0.2785080366255549	-0.524598835574319	-0.4859760093340179	-0.2709541313959847	-0.36929023172601805	-0.40498316185745964	-0.718830047223062	-0.2806137793131858	-0.486707984172334	-0.5175625072763491
60	2.9252037928159864	2.351699584745513	1.4226230347001532	1.2686281172193852	1.4620799981396575	2.3128671587723884	1.4564766847077597	1.0758931609646611	0.7537068705602994	1.2259551255744996	1.5828487833114302	1.2064782350597092	0.5173421489051708	-0.2337761962471971	0.38610511920721563	0.8011627177038211	-0.14512963556364422	-0.6483811719736822	-0.35351499825869026	-0.09563340222532285	-0.02734455273102096	-0.6214607938334892	-0.3548337808233386	-0.09593214070418288	-0.2638618045343898	-0.8938360191666208	-0.9648606752830772	-0.5476585016728677	-0.42183050406765554	-0.8673391916311324	-1.3670573200043226	-0.1538767214704769	-0.5982943162117726	-0.7674539069826533
64	3.0461094302518177	2.8512799667849746	1.723644967495749	1.5841985900936058	1.806870694366923	2.591066115513241	1.5932228524991054	1.1345404357875992	0.8313775041570771	1.2814799514841175	1.599738474621632	1.140828368167659	0.4871985900022416	-0.1594387735871332	0.3143780223538548	0.5933313950817246	-0.3711949279473291	-0.8947867728530327	-0.290022014839359	-0.1707657869319102	-0.3204341224686458	-0.8866744019056494	-0.6070732458999961	0.058344054819860415	-0.3427474192072015	-1.1852419346448808	-1.2870446411062986	-0.754758415700772	-0.584140120461986	-1.3330646719654509	-1.9027228307368582	-0.15157633981582339	-0.7513590436085245	-0.9887882446120091
68	2.5348281796353302	2.839967958909482	1.7534583762721008	1.4832699261409676	1.9255123089813222	2.560462468358452	1.445716854260072	0.9553443169315543	0.7451074104570414	1.1688724726729651	1.4393711053747265	0.9068444348327829	0.3279754809205224	-0.2544991963636769	0.12509886888867688	0.31815075794003267	-0.5371546135691995	-1.080561635150262	-0.3629738977327947	-0.33855906043405415	-0.5722864255761423	-0.9439175105105141	-0.7559759001718802	0.07236549239961586	-0.47854137299834215	-1.3147530522530775	-1.3494789566301246	-0.830852506447221	-0.7488729934858643	-1.5898860652837141	-2.10373711054856	-0.23492640197568498	-0.841558692714746	-1.0636572810974825
72	1.464048262714461	2.180730098940597	1.3163905110502128	0.8925852156991673	1.6679497915117931	2.1071236080375684	0.9384611821322613	0.4708447742495399	0.44746276623285974	0.8308239558224456	1.029086825633617	0.4727123069749274	-0.029833622201460335	-0.5115380870301762	-0.17601782039071126	-0.05989651366847036	-0.6644741876038276	-1.2496752707401368	-0.5303060995064427	-0.5338119254939903	-0.7856072763635477	-0.8185785988167716	-0.802549658179598	-0.024173362119558756	-0.5937051758081674	-1.2348779408748476	-1.1299799652180587	-0.7499927859444324	-0.7669923882193226	-1.4375134670203467	-1.8079546644340716	-0.2871552698514797	-0.7235519271702467	-0.8633308388847523
76	0.09289076900871371	0.9968319510087845	0.37218969966379645	-0.05530818537814819	0.9773648952603572	1.230153676741878	0.10357493136004994	-0.2742433839072877	-0.04068429757813682	0.2674829059046419	0.3449346116417123	-0.1450074758444855	-0.5711853489759865	-0.8626508690988713	-0.5419789539004946	-0.5585513696873581	-0.7881908396848141	-1.4462420903885067	-0.7244196515866961	-0.6701596958406633	-0.9669604277039233	-0.5812981710062707	-0.7735463361283431	-0.14991657398043717	-0.5931175932214552	-0.9282571053910563	-0.6618267877081678	-0.5063287006946043	-0.5015680181237687	-0.7536032180832967	-0.9508159732654666	-0.1526339199265642	-0.2550793581721334	-0.2805209748815048
80	-1.2506172625437888	-0.38245087765455205	-0.9210071540467508	-1.0781160565813024	-0.05853211864952285	0.06206972881381665	-0.9159824825048715	-1.1279016704692777	-0.6258479340964606	-0.4455774415210517	-0.5555418119709574	-0.8673971869503524	-1.1869887083602584	-1.209530827329529	-0.89347463620626	-1.1480356425864129	-0.924758074332996	-1.6757742124209933	-0.8819450117732418	-0.6729572398361331	-1.1051155300849125	-0.2976479820842807	-0.6907138807024041	-0.21119248813713934	-0.40085449713590415	-0.4023417224262624	0.002819316687394873	-0.09857559179213618	0.11602918029339253	0.45806574705821684	0.4200073470001913	0.2958296231907088	0.6455586536321145	0.731325028480425
84	-2.3076615275294277	-1.5818023641703953	-2.2630574646079844	-1.878372783686825	-1.218177315497396	-1.163638350409874	-1.910054559653589	-1.8920837592991806	-1.174170371905805	-1.1730344265885437	-1.5293599328529097	-1.5651999672472856	-1.719572539756397	-1.4654977284624495	-1.147687313043225	-1.7454651550093228	-1.0546982261732025	-1.8949953269798179	-0.9638495420916603	-0.5103626834381731	-1.1710822552677889	0.003645496433710015	-0.5541912899330463	-0.1448049988666947	0.0059530888533792905	0.30730312985081265	0.814549980491219	0.47131484627937426	1.051977989401811	2.055454964216603	2.152612203885245	1.0930669280111454	1.951786274750558	2.125131363271644
88	-2.9773104115656555	-2.3588228166153455	-3.3413531695881864	-2.2843928279421792	-2.221955055348965	-2.1877028886873964	-2.675025933187615	-2.409910434360507	-1.5665044744995462	-1.7654490426312928	-2.3815150200797817	-2.096912855576165	-2.0395832010273054	-1.5893589218066515	-1.2530840603662352	-2.238812917778937	-1.1308497161924254	-2.0372579046311987	-0.9612405275871391	-0.20838765747386412	-1.1392959327543526	0.32806566274783994	-0.35084170014494104	0.056568972623576456	0.5810900315872405	1.1270827026521315	1.722045894089752	1.1822731465054037	2.1720595304963015	3.78678487775313	4.017692078937113	2.1508760397966107	3.511623612120941	3.748579254222881
92	-3.3147246753927213	-2.700232975818065	-3.96528266859275	-2.3187079371084716	-2.840587370376424	-2.813932888555903	-3.0886192243797206	-2.632755034475369	-1.7465400651704883	-2.1136457866710034	-2.9279115126120066	-2.3612787663924704	-2.110266918576507	-1.5944405753887922	-1.2105513780547965	-2.5294797356638483	-1.1080466480889868	-2.0566534944107207	-0.8878463484282643	0.15808711906097428	-1.013675925556559	0.6852638108118368	-0.07940605262735408	0.34763953001943504	1.220036503572536	1.9416840027423725	2.651684754352503	1.973644728445981	3.279912940327414	5.3527898653307195	5.751377091192059	3.277836314508683	5.074644075932873	5.36614893512121
96	-3.453627816063753	-2.78964471112699	-4.136808861778462	-2.16147517612239	-2.9850854798291064	-2.9751191064106655	-3.153929940843855	-2.6336531572605772	-1.7377573207850088	-2.1856069509638063	-3.0632553023246176	-2.3411910474795636	-2.003254885384162	-1.5304264983638278	-1.0677970620852606	-2.5719237262640853	-0.9760235523377183	-1.9614609430382046	-0.7662086467471497	0.49594315761283886	-0.8374939539745508	1.0566111776377942	0.2283159786658824	0.6583139879771992	1.7955801441634953	2.6113705569140033	3.496205082649371	2.7409219672619662	4.177332867566041	6.485765440778336	7.11039255254359	4.244733322870725	6.359882815516325	6.7163214513961895
100	-3.5087935835941506	-2.8728156017251094	-4.024250497194481	-2.0337047525558187	-2.7315964629825324	-2.7471229960701624	-2.991403095322189	-2.5611438686558037	-1.621209855754861	-2.02753114188415	-2.8024735379988974	-2.1155288166039936	-1.8576562357731257	-1.4509967528902352	-0.8893564320998362	-2.3902113377305554	-0.7748970369801881	-1.8168647243404699	-0.6170646532691795	0.7329013329121753	-0.6771340353082231	1.3843719924307	0.5068491088468243	0.9279062724527941	2.203108781974306	3.0119993610630353	4.129809845988027	3.357545128928409	4.723390567298218	7.021012765324184	7.92816732312295	4.8663010474366715	7.141674023717053	7.587344627297654
104	-3.5148720652529986	-3.100529901305826	-3.8564634225753776	-2.0665812440194444	-2.2667739334096364	-2.303668016339559	-2.7796084810650488	-2.557934754589199	-1.4858373366035407	-1.7288163856726948	-2.272303098663621	-1.8278698875054336	-1.804920311185507	-1.3852176631286381	-0.7182799559578187	-2.062042946377704	-0.5819881543724486	-1.7146713690381805	-0.456429480353974	0.8470783212255907	-0.5863078221777045	1.5911686380267527	0.6798950416565379	1.125690457362983	2.3954856335241237	3.083385459744497	4.447912204956625	3.715684404528711	4.869739520175793	6.937614900239333	8.154396036541035	5.062525259587737	7.320559006328156	7.882379035122099
108	-3.4319121750968513	-3.4410703095341786	-3.795915832472508	-2.2314429226803574	-1.7826255514914295	-1.8318482591155674	-2.668434851584993	-2.686729424369004	-1.3800454104866675	-1.3707567418776119	-1.6521415668736654	-1.6204093653775486	-1.9005012464223987	-1.3273254599438082	-0.5519908056627841	-1.6773320394129099	-0.4740509974908804	-1.7256172851863871	-0.29870060010835653	0.8722289778622256	-0.5711986408117378	1.6187411505837868	0.6950860601995746	1.248099562354833	2.3917183815652514	2.860300295283929	4.410643566439879	3.7663690948762083	4.660260188734463	6.354187949350284	7.8609046737566395	4.873279082392198	6.9497675720226155	7.645387153396228
112	-3.1983408847167136	-3.7037448789546072	-3.8563268087298974	-2.3640015065589357	-1.3750402892682252	-1.4447596036673962	-2.70122217450026	-2.8984119818942493	-1.2902271715014006	-0.9862156485453537	-1.0883368226230021	-1.5606853922541062	-2.097464317748235	-1.2480758397062723	-0.3468206218069335	-1.291369315701703	-0.4840366232095351	-1.8619188023288311	-0.16148453910111032	0.8754067994904023	-0.5786563739472057	1.4619066678330883	0.5500543103635657	1.2973579135564564	2.255471939114441	2.464828484987844	4.062396992917262	3.535933962477654	4.198194970021914	5.4805936674982805	7.2063054856510425	4.422800529757574	6.205854400225278	7.034258347871308
116	-2.787329666729759	-3.6528615859312197	-3.90284251181375	-2.2631542625508554	-1.0009450887204152	-1.131652233127655	-2.783666603689691	-3.0554749888524397	-1.155681964817474	-0.5518578873052706	-0.6231268628600445	-1.5975056846339832	-2.2727196159202596	-1.118593451536785	-0.049311615402176316	-0.8959198571473521	-0.5756346568833016	-2.0701441712565427	-0.06817216408922293	0.91776561505347	-0.5166060911486979	1.1771093577229699	0.29430270120703034	1.258021113080516	2.0545370526893794	2.058281416464716	3.5133111388195615	3.1090662400904256	3.597756376719761	4.543202388737036	6.370763762601891	3.8553662202771224	5.31625126450134	6.251695140313399
120	-2.22400569354264	-3.1426732460785742	-3.7311324979040146	-1.805032963963848	-0.5169576989473402	-0.7709352950659046	-2.7200548580159447	-2.997040741029391	-0.9085223651836185	-0.015283562204397487	-0.17590287283355213	-1.5735472400991355	-2.2884612025656965	-0.9304954386106553	0.364937751563896	-0.42337861550249817	-0.6508883221405395	-2.2553758564273054	-0.04383017484208488	1.0193394396795281	-0.2970067255150837	0.8609262683112945	0.007970215732597973	1.0895885201601252	1.8236943437308806	1.7740163758310978	2.8914844916773648	2.5888919764959026	2.94305299969536	3.712734928294092	5.488827214688186	3.2759847558280546	4.475837219381971	5.46537064126108
124	-1.5548653563343522	-2.1937107984470083	-3.181265107705993	-1.0085806821154437	0.22229246739054007	-0.2013416881246262	-2.305681699653567	-2.612997286875106	-0.51444703210645	0.659083126311439	0.4097754050876242	-1.2954494920448563	-2.055827612454798	-0.7013728004867418	0.867747006609656	0.21659716909082477	-0.5899394735700553	-2.3239691198802226	-0.10770978006348528	1.1467835874214223	0.12127432196515882	0.6106424316247799	-0.23193091095541585	0.7419960480076215	1.5506265124272074	1.6647962289739786	2.291413301404679	2.054436678467831	2.2705855312241097	3.061642400641068	4.610528934282385	2.722735159675437	3.7878854179114843	4.752868640343911
128	-0.7996862510518176	-0.973077354358554	-2.223330015291172	-0.02069848956902296	1.263805386213495	0.6854549033025042	-1.4320721590125391	-1.8913668346336323	0.008239069001436604	1.4548994266016955	1.277137991541772	-0.6283841117252502	-1.5681421717152602	-0.4633132505640264	1.38659667618668	1.0876873704151693	-0.30132740659929835	-2.2204167786804856	-0.26457762651401256	1.2332605092383062	0.7151067238872781	0.4912645208353294	-0.37816822433360814	0.18751496029240886	1.1941946714768306	1.6943808751242602	1.7494015649496406	1.5392787417649398	1.581374045194121	2.5675847465539707	3.7111923600911996	2.180166000583867	3.253221265208647	4.096162785678691
132	0.07539673130549879	0.30084881110528267	-0.9723695492036333	0.9670352315329275	2.512796872470495	1.8786188316598365	-0.15203522107362935	-0.9179933644005818	0.6017671808308426	2.302401536850569	2.4719593462521887	0.4324242759754181	-0.8898572303239747	-0.24127332805276205	1.8433272792052988	2.190450901223183	0.24291637478533099	-1.9402778099663818	-0.49705821150215923	1.2232217757812909	1.415889974834035	0.5269120322275669	-0.4181379069261758	-0.5475651011947404	0.7270889859915778	1.778751845637257	1.2593107191716202	1.0413502428466124	0.873398301780477	2.158602947507205	2.744875900967804	1.62058078833549	2.8075501847908897	3.424981585438446
136	1.1374416322600718	1.4696037732213698	0.36946645285785157	1.8175432636148798	3.77204965592754	3.242231122414129	1.3311792578466761	0.16664694207555666	1.2025295465625987	3.1120352666484816	3.9074563881448747	1.7510611966745766	-0.1141328361729095	-0.03557040160854427	2.201100105450447	3.456529131745515	1.00328182920829	-1.5173405370550086	-0.7627047877128748	1.118175026931518	2.15270995550243	0.7164820414573532	-0.35890254287704604	-1.3702870572779675	0.1789561207544628	1.8528269482563269	0.8150982836171234	0.553331194911109	0.17531961158357512	1.7751578047756646	1.7109299854950752	1.0466868850984585	2.3832161366373765	2.6823933056818317
140	2.4244859157385026	2.4958853658603606	1.6077390868603436	2.5057616170561285	4.84189509122998	4.573435771839415	2.749026291582325	1.2276239364147077	1.7725130274843686	3.823513975026731	5.39820955820921	3.108958951730101	0.6820326430267208	0.1792147304063291	2.4919154581097636	4.776018607479066	1.8987507772190546	-0.9993000005287679	-0.99980497107803	0.995902118552636	2.8938350604427923	1.0575668785097099	-0.20814959652323226	-2.1390988772744652	-0.34711459191422356	1.9226870488261019	0.44974231606421683	0.09109225846180187	-0.43923017271726805	1.4167140686506188	0.6955881101212502	0.509596167708297	1.960228080568783	1.8764017772983685
144	3.8843526742139485	3.4418239506608157	2.634231560732017	3.1059882562419956	5.623073086846806	5.693841442991376	3.8851396939415754	2.1816840116731737	2.309393638502227	4.439779747244003	6.744594080108988	4.302224625215808	1.4597631656030876	0.4385703194989481	2.806324474878823	6.041957839970133	2.845355026690681	-0.428997277130387	-1.141552445390562	0.9882517432057404	3.6607029345594935	1.5587891300900094	0.034662477584585724	-2.706580870470617	-0.6987006646635627	2.0709185547995093	0.2432382547674666	-0.29838767572407576	-0.8664449431478249	1.1498132915077062	-0.13700172270517508	0.09309787279704351	1.5813033540855956	1.090956565963556
148	5.358561502279038	4.3880948909596995	3.4514906319260827	3.724252929821408	6.163210853274838	6.525311930394068	4.663653361943669	3.0091347618423625	2.8307068276462433	5.024269091318846	7.82042835168476	5.226395593799248	2.2097215596675714	0.7651188354248281	3.248180142784851	7.186833840344979	3.7845799827391655	0.15960292477843022	-1.1342742414447045	1.2243239848696945	4.504491317820368	2.2300362530672095	0.3708035340483997	-2.96756719793669	-0.7311737518923671	2.409726136799327	0.2919208698054969	-0.55389195540774	-1.0094491217876287	1.0751855346236743	-0.6019451006950479	-0.12421176551214388	1.327427026258249	0.4535949814788367
152	6.627473814443995	5.348525987472833	4.1336083307806835	4.416894901568139	6.615984423146099	7.1070504009101825	5.158980833379855	3.7290577794339113	3.342654458189637	5.6575445986005946	8.61319635123961	5.901720508933817	2.922881357442822	1.1479456395730294	3.875245799770999	8.189952829664154	4.685309875103103	0.7318338733315879	-0.9573328470855303	1.763387675601585	5.455868707233557	3.0549476069567985	0.7837219218494174	-2.8942632602097778	-0.37402695322971447	3.0056273861340546	0.6546965820949138	-0.6310420020383639	-0.8220531919705357	1.2716518608412066	-0.5712553844334207	-0.10802317383434244	1.2696614233386025	0.07907875607313815
156	7.49917696013134	6.23190496778646	4.749291407992102	5.141493307484065	7.134907704459234	7.544667224909066	5.521289334662379	4.354625214072767	3.815005531215815	6.376084788436845	9.195648170142595	6.4258894758111005	3.5609810262419312	1.5379542073520853	4.656751144096105	9.05275533297895	5.521462903387527	1.2390658824154825	-0.6351017339884107	2.5514044697240945	6.47599552426858	3.965000380995806	1.2243226735675128	-2.542639487522713	0.3262693575727792	3.818034162418496	1.3080908027047735	-0.5278263674761129	-0.33717161331879797	1.7466678575285641	-0.03234957150398039	0.11348184914547745	1.4263027870407163	0.01999482879954881
160	7.891684035403783	6.8744392221456625	5.297037111260056	5.766082272276758	7.763317088553805	7.9233727255093225	5.864282593226337	4.859228121886901	4.177905072154441	7.128859025122699	9.649623846486652	6.887297136084147	4.050099362638251	1.8613200140689292	5.471519933237742	9.760015463029228	6.246026500190992	1.618034001079957	-0.23442570805967464	3.4260964307115103	7.43900440245245	4.837391364282122	1.6159241158695246	-2.028159851675653	1.2105555503799204	4.688403594577713	2.138735527360832	-0.2875905029665307	0.33611625348106944	2.4198594032227176	0.902838585481477	0.4619630563516608	1.749791498534777	0.24954174395977327
164	7.8638744155704305	7.1269779025383375	5.694094166684585	6.132122977987116	8.389121988096846	8.24104116266505	6.186277850744675	5.178012834827165	4.34782360886533	7.781333903693864	9.993196462196362	7.294856053054427	4.306163300132622	2.0446574636335124	6.150788291660694	10.255354855394339	6.78462503627623	1.808888788424633	0.15317428073357242	4.172700394585794	8.160752275843835	5.525523648616533	1.8794239711994296	-1.4827387295480705	2.060290569825732	5.389814363223081	2.9796578808895626	0.020705990441019978	1.0474218103666835	3.1475775162383113	2.040719503972434	0.8439267256410489	2.1484448855516503	0.6810107809992715
168	7.580955009393864	6.9473342720104485	5.828074917383914	6.137359126808125	8.795560814585336	8.404165246725858	6.3737687903653	5.24573563204998	4.272593487442719	8.17112634503151	10.159354184249999	7.568403224910173	4.279156197234499	2.0450854249819193	6.547213061015042	10.451760265665065	7.058534127534139	1.7826775267415425	0.4436171937709502	4.6085047605509235	8.464951493825806	5.911593899106642	1.9674330900110415	-1.0083277200036558	2.6798405579618363	5.715335354680273	3.67360018756343	0.3331553927593274	1.6593806701726492	3.777157297134737	3.179173699935394	1.1912550896132197	2.531068080233813	1.2106863229702274
172	7.23485944828647	6.441289408633548	5.639343724317934	5.793738827382714	8.781733490706673	8.289924600651984	6.286081298216084	5.048838125833232	3.968242396826244	8.187569597553471	10.04009435026155	7.5954870985905725	3.989965428769079	1.8695338917261086	6.595714552439218	10.27425477294916	7.025732499504162	1.561079975001523	0.592409847671179	4.656160342858583	8.2551059514479	5.954229339825415	1.8864492130334993	-0.6463158114327846	2.9698173924805698	5.560896382597049	4.130172242227347	0.6137508734466133	2.0970046467288874	4.203725327368791	4.174181450795434	1.4868731461178324	2.848466150721522	1.758982534735937
176	6.9620671096502535	5.825878605438776	5.181940542489367	5.231270300055251	8.285551050247987	7.836840609791516	5.867218479601981	4.658178794544161	3.526439419426064	7.832887152922836	9.567938780469742	7.317060452107253	3.5368227869383007	1.57381188472127	6.337113364432455	9.710909818927133	6.714386446213087	1.2146661250918322	0.6108220800236794	4.371044147899721	7.557373981468781	5.705473885436372	1.6938263135106701	-0.3743333211030865	2.9584546014478565	4.963022696362395	4.349320877538307	0.8582063891677708	2.3698205888043757	4.403209675162261	4.971204745139344	1.763379926997784	3.109604589240678	2.2901158275004843
180	6.798521024705502	5.330117689026877	4.618675697109717	4.643782603937197	7.435617904963442	7.104257565681638	5.207659231389278	4.213724125713909	3.0857851427370955	7.228884201872113	8.779928185230274	6.782592279475942	3.060629360101023	1.2436631886554015	5.893938049694432	8.839246727560978	6.222785933996007	0.8357527234911235	0.5596291408714655	3.91070674862556	6.513088209874392	5.2863774166153386	1.4692643843748756	-0.12756121126393744	2.7788257528718345	4.076182355126109	4.4032215960911865	1.0804189416310301	2.5587315494785448	4.430184829970864	5.594582066716103	2.0787258095710577	3.3669855509626796	2.8062956262308245
184	6.688343508046417	5.084049212017526	4.148084630030023	4.20405291449565	6.49810074119275	6.258461936408375	4.508925903380461	3.862019767547311	2.77594875588508	6.561866266849628	7.818855265903819	6.133969768296174	2.683277838608065	0.9639354919892095	5.410709367442788	7.8069529336279615	5.678583130804557	0.4978096174546231	0.5204846845837297	3.461312046848796	5.324135290055165	4.831703650673435	1.275148150085614	0.16497693914245612	2.6033224993781703	3.1043226640525976	4.39013670766597	1.292654868676973	2.773612969071519	4.384719837562459	6.108107551412007	2.4820020136157495	3.680340757614771	3.324471942137521
188	6.5334811045677785	5.053882109279969	3.898680200270304	3.988281001511979	5.743726239008007	5.489242063014776	3.9683780569974103	3.6788420584303223	2.6588773660286793	5.992773517737133	6.867232782191933	5.52624224221213	2.451549762258308	0.7852148989879819	4.989096628944269	6.774132711473619	5.178413854876201	0.22528873327118934	0.5554193244262533	3.156935445444421	4.179229248939428	4.43358610941174	1.1301920385436341	0.5440337644192934	2.5673971111326916	2.2238125744940556	4.388360489256148	1.494885321657601	3.101691476620276	4.367897499500684	6.573329908941047	2.9861793442672626	4.080306519696996	3.8532683752049044
192	6.254065020983686	5.062482344243607	3.8518950841927464	3.9476108451357796	5.309986101095527	4.906506526003375	3.6553907302119435	3.6225080398652767	2.698825114112025	5.582331166478478	6.05365036389691	5.034958826704455	2.3173525274897013	0.7042087894779947	4.651438701329977	5.8486366124308775	4.742527949757225	-0.009439049264799177	0.6755557639232004	3.0314304752107537	3.196637860810491	4.113177289114737	1.0094641421580741	0.9999209021118255	2.7186241081263685	1.5339902600659507	4.4326925165795235	1.6780916410040096	3.5701990037424616	4.446341980198627	7.025325280572085	3.559089651658694	4.55039213939027	4.382034290694239
196	5.828689560479286	4.888354289110729	3.847199191870618	3.94192837673582	5.137412535094466	4.482243526586255	3.461440554462607	3.5514514356593017	2.77790641083314	5.273274885215313	5.390911565521336	4.611816394606283	2.1686603968226326	0.6681116206467069	4.349340904698901	5.052091585755437	4.313473213749419	-0.25889369780025945	0.8363900163514529	3.024031631464175	2.408304446815734	3.833314885951693	0.8704812504725342	1.4769593439959507	3.0129275245891343	1.0529062721371993	4.520159233125049	1.8368527842875635	4.139318932572906	4.637876498910605	7.471248131008738	4.135374058773051	5.034379946395858	4.884139048642855
200	5.300807462660448	4.392214763996173	3.6716439631268405	3.8181447886389197	5.017582403866246	4.078647603227795	3.166035405748594	3.304124823811207	2.751708262171867	4.940265643044606	4.788407313655062	4.123534669001917	1.8977199744949116	0.6005063637830921	4.010732163793552	4.338306416048782	3.804365625313113	-0.5572420344588828	0.9615941619436986	3.0319571418506595	1.7883243515640166	3.5432391077228824	0.6897518617381582	1.8997179221827383	3.3550257598094033	0.7510457019917314	4.6347169759083275	1.9804084250994367	4.726702201353578	4.919703947997642	7.90393588931572	4.642933833797739	5.463134274994753	5.329269872561733
204	4.758143412974635	3.6056983379881618	3.1879880347825247	3.494041910886644	4.728479850274871	3.551416388128262	2.58719372096125	2.800728552422859	2.521627181362385	4.4816808587409955	4.135345448543632	3.4557852657805963	1.4704830609388764	0.4403891254273547	3.599934807271512	3.654684295963849	3.171601049045089	-0.8868412949105992	0.9858579610729596	2.9806418343630305	1.3053460088197966	3.228751889660075	0.4877399789893696	2.209839100026772	3.6594839003676247	0.5982948526535743	4.772240626684161	2.1330187266855685	5.249913202382451	5.250400053119747	8.31725213811961	5.031671034506945	5.785893902475762	5.696214184684604
208	4.298874844187888	2.732453100935081	2.427878850529131	3.0053210182606827	4.177136887494514	2.8635730671109934	1.7222187475591644	2.106682533667344	2.089232677906957	3.8991265198492555	3.4016721162742742	2.6155037813908724	0.957135555711822	0.17712020829304884	3.1561133781857547	3.0073845310575966	2.4669139322939797	-1.176871296772338	0.8950251318268877	2.872740499872882	0.9656035875736819	2.9368362352609827	0.325271069182279	2.39495705953559	3.8981983563231566	0.5948379620792638	4.948565947436492	2.321217769484337	5.663765416150806	5.5917773105586335	8.711066224039387	5.290739522927567	5.989349826949878	5.9787177888602665
212	3.999754418765116	2.055563921506977	1.5913875062818155	2.4912664827390874	3.466335764716361	2.1369786208558685	0.7866296748327987	1.4162833654885594	1.5649321039743413	3.316476813526115	2.6898896626270163	1.763420100528261	0.5037754165328073	-0.13586090470821557	2.7880470682324643	2.486984485069234	1.8341338588183538	-1.3377835716804045	0.7412736993194123	2.790816538440316	0.8217555859799236	2.7599778105671264	0.27253752878044524	2.4951481756156397	4.110457409971214	0.7710901479326401	5.187454687372907	2.5558199817979075	5.975017055684796	5.9215907901031315	9.085053420971137	5.448241220070197	6.097062095507277	6.1836581074041215
216	3.8924684426260754	1.797498817673971	0.9524315571580246	2.1262180751524453	2.8481707501027613	1.606394525286895	0.11988346248399785	0.9604825353214441	1.1255711288644439	2.9271285460002137	2.202169174356439	1.151612874938221	0.25908860498818287	-0.39478129048810584	2.6292073660272948	2.2371590080998853	1.4500406943904518	-1.312107798124624	0.6274327619923922	2.8561716007600513	0.9466517543733923	2.7915680337997464	0.36984196211898845	2.5856413775966387	4.375352371613209	1.164623853604102	5.501277432857436	2.822470657851974	6.2309284052889256	6.2369403681643725	9.431411719352036	5.556738362588016	6.154462321955373	6.327036841630748
220	3.9505889315998184	2.0041475245420646	0.7203706484726818	2.0319652506070858	2.5890588695008523	1.497012611424264	0.005320562501974672	0.8871806241524487	0.9378837919397798	2.895505182585182	2.1368627494267174	0.9970549915889708	0.29612716957667634	-0.48490348335863737	2.774711363462667	2.3813350140530147	1.4397838079341092	-1.1114723654341585	0.6639830453321184	3.166031829469917	1.388863917658922	3.077755920268964	0.603103516963333	2.7415106227322816	4.762395369903598	1.7902402832608395	5.878098473013232	3.087038509204268	6.48796413690926	6.5485968424446535	9.732563947900783	5.668902382843159	6.206876739089885	6.429141982058993
224	4.096918572572535	2.518991940814229	0.9365096664625973	2.2198469582778713	2.8250260281763326	1.8987997722369363	0.5121335970346237	1.1843646734852915	1.0852845879810502	3.269446126312703	2.5764970714368647	1.3667590583626197	0.575617907978162	-0.328145026332158	3.235306254801608	2.9514460489142818	1.8162529422680398	-0.8146109560426703	0.9201405621185493	3.7447006607878492	2.1393399184573285	3.594959965212539	0.9105365253347832	3.0023260040775703	5.290748105996393	2.62375139527691	6.285748942717656	3.3141777431736434	6.779585821201063	6.872317296797016	9.96774194108143	5.815411076168329	6.282492144935351	6.510420305980982
228	4.231880177303811	3.0649778765542774	1.4669370614208517	2.5942799979514155	3.491817465549243	2.7148842743040236	1.457744833126799	1.693095202939701	1.5337974986452338	3.955444325950963	3.4367062958733214	2.1452257579047487	0.9735354756571409	0.08459333309035073	3.933982839188742	3.863425245067566	2.479939692911728	-0.5237562047132567	1.393891331014454	4.5348138694711055	3.1299657742631233	4.266491879181757	1.218010780120314	3.3552892123386457	5.919859394386068	3.6085185913532336	6.690997106825118	3.488220921292576	7.1005692302722485	7.220892887957963	10.12438199348136	5.99424551404079	6.386630995838197	6.586946947633473
232	4.27609871738382	3.3940920744080363	2.09306024976619	3.0133285446381706	4.369091976578966	3.7161209489459437	2.5151750977910288	2.2040195409441745	2.1532533114428305	4.7711286424340384	4.508229244294085	3.104190580160109	1.3574144805969057	0.6905116421431918	4.745891559062698	4.955152499086123	3.2788317120739188	-0.3026783160673995	2.0138575979886184	5.429481492639534	4.262778748240204	5.006353842493228	1.4826399050472825	3.7442011738658927	6.573366148564979	4.676524627322549	7.079965096718312	3.6231348423081524	7.4131898692839835	7.596662979019732	10.204923603995788	6.174436076787757	6.50557564046587	6.6639938186242516
236	4.21522711643277	3.426271429948129	2.6421632700015425	3.37157463176164	5.209886537749621	4.669829356801123	3.4010550889931173	2.581047051588951	2.7840502191824967	5.545188889808338	5.5679445126146545	4.031777371717713	1.6669937330120095	1.3824729884529505	5.559696660310039	6.064961894935246	4.092150677839699	-0.1324312236541763	2.6704435281088523	6.324438555962259	5.450303540774218	5.762757286781003	1.7196106867289571	4.09854649462653	7.180306893339973	5.768159851769804	7.465532760844945	3.7554964924408902	7.6696996495201475	7.985527972087015	10.223939869816917	6.312052710809204	6.615404589163187	6.730499250585248
240	4.122762669644736	3.297069302817668	3.076410047393334	3.655751695939792	5.874778732726203	5.4619340758705865	4.028131951652454	2.8362083363451216	3.3111150181142373	6.203923686576589	6.489357455082012	4.839923369585788	1.9485185097136424	2.052049154822736	6.323896868951908	7.101214867782826	4.885606276574942	0.08516416677192344	3.2587442315795907	7.157616120387009	6.638916475700506	6.532659037309112	1.9942483851627608	4.3647985348173455	7.705763797378313	6.835958940412982	7.874121169237187	3.9231524368418182	7.834726313837382	8.35269258297642	10.196207020765842	6.3684573012734855	6.689190847674405	6.757912141903977
244	4.1376776590785145	3.286922446535303	3.488820305598924	3.9387528796887836	6.392064078405046	6.137732490302055	4.52894161988266	3.1098735253972256	3.7066960241192755	6.7937698192731615	7.285388928139365	5.585136399473105	2.3200373591021854	2.6260142260054495	7.052430135087392	8.060826281223077	5.704624161622599	0.4737436461408721	3.7120895292020935	7.914642314001824	7.800739745472262	7.338194351742616	2.383020633403007	4.5232953911066325	8.152508715073633	7.831344107882786	8.319126108146616	4.142471303017828	7.894917468165394	8.643743493191295	10.124144528577176	6.3228392441376835	6.700765592823404	6.7076988050861726
248	4.400049198485671	3.663956394481699	4.011896600130944	4.3166518102379765	6.911435109808605	6.8379669016811055	5.138075338742695	3.5679521470586812	4.0230016606803	7.427916031203591	8.059661844885685	6.392747862888183	2.8868961261341397	3.0804281156967876	7.788466433888258	8.98731992359826	6.610959990022797	1.1059908838958739	4.01237248361363	8.60179326746713	8.902225471908807	8.18109128793848	2.9247298166819293	4.58382891451337	8.53532979717595	8.687795617103511	8.77768037487218	4.3974704631406185	7.853592852791213	8.795265175547996	9.994290326634518	6.175985797548004	6.6277956795249695	6.547640307107713
252	4.97199677165712	4.523688304924	4.701047885469862	4.828330504624823	7.583137016224293	7.674102763827878	6.01248930366758	4.280917156855297	4.341004360683084	8.189802149122542	8.901000954089632	7.3385686689108605	3.659168949425427	3.428038588451968	8.549699761739278	9.899265264313398	7.606041889060751	1.9483736704272039	4.17730139631368	9.208143211004604	9.875609372954667	9.007616020348776	3.589779367920321	4.565988529121401	8.847987152648773	9.319422698333513	9.188501334833491	4.647698390670475	7.718286494795427	8.756247498339377	9.788263296209863	5.945837959536542	6.457424624352088	6.271407588383747
256	5.782843575182438	5.714858517523274	5.471608148111787	5.4093198639672915	8.438654878291613	8.624201752823152	7.1050271808530345	5.160424696291249	4.706858146227898	9.053783393889441	9.790932630614744	8.366777398919863	4.522949207330651	3.6905889417929987	9.290041900067848	10.738319369861006	8.592578866245278	2.860502235819918	4.2359971893173425	9.684643720970989	10.61814210118249	9.71059892110077	4.285181511550341	4.478705871718478	9.047507263229017	9.643815969914401	9.475955939210277	4.8501553413006775	7.492403965153323	8.513462045155965	9.50340459331578	5.658228383083731	6.194205268479787	5.911172851897012
260	6.637036306790457	6.896138650649227	6.133240684283122	5.912885174127797	9.348381972552389	9.519585585401392	8.17415521465277	5.996148094297216	5.095114218245692	9.874742483003242	10.586603137944248	9.300641036393626	5.288168893814184	3.87582873319543	9.904907201555012	11.375542611965551	9.40504262456998	3.6549610999334874	4.210479248860529	9.958789800295927	11.028554888537412	10.17503449732076	4.895596015014076	4.314566124513262	9.071037269578301	9.623679136774323	9.591199850662479	4.984061705403515	7.179927807800159	8.110969522978802	9.172228790013735	5.340078817236591	5.868128284897535	5.535975442260798
264	7.287719231325619	7.695126037242817	6.500372393408694	6.187247737522012	10.082035039242575	10.133296940968618	8.924020744680927	6.570645315747141	5.418820844320502	10.45579716903622	11.092131586680118	9.94015118950314	5.786073193246794	3.9722521204794505	10.279720280442685	11.676091164673535	9.89414975529311	4.185220230979965	4.111738194574913	9.978260015090518	11.063623400411762	10.343635532966863	5.33707569682181	4.0629072086752505	8.878287292953132	9.305615401615443	9.547840094302224	5.063738333315143	6.800525648113527	7.652327995053509	8.86736295368628	5.018221365656625	5.536837087003496	5.233990179198775
268	7.54577253343899	7.887254695052416	6.506883604787518	6.165461047818717	10.436393711443607	10.315974209489337	9.183443046272043	6.780594331788116	5.580850587105996	10.657273265634476	11.174666376510801	10.182513211291138	5.957918628909117	3.965103377821718	10.355519268593596	11.58337590154092	10.013601277818672	4.411279190370159	3.9501490493224867	9.756617521448451	10.780325862369695	10.261499378999432	5.591959939189763	3.7322809601966473	8.493781068337979	8.829476334214062	9.428396201171173	5.130763517777268	6.402673705148279	7.278000813228818	8.683918931017107	4.721376407147053	5.276143537551821	5.084177004375601
272	7.3661198430051185	7.499282817980194	6.25097511620633	5.910728916503846	10.352857563583227	10.093461964872903	9.010643936295722	6.690239412582646	5.533333764411023	10.481571171046342	10.852425547856607	10.088208173077087	5.882518753458615	3.8583063981871795	10.171081517289238	11.168812723571477	9.855000471029161	4.4086756594929435	3.747755994871322	9.388848281043972	10.332628224034691	10.068720792144841	5.707522854699998	3.3639500056212226	8.018583277484515	8.39366910722599	9.353084540594717	5.230262743142513	6.060546382861433	7.121769887109592	8.70345399566505	4.480527866495372	5.15822361597454	5.1287150253508
276	6.864500982119485	6.783229333917693	5.938930973317408	5.5866417743777514	9.95501515736112	9.663940405288397	8.657061554986281	6.483685477099506	5.3090700969169315	10.082620595271369	10.299491856320502	9.84855077164359	5.724536881298887	3.6855392363003765	9.854475950156461	10.613383266355639	9.605069136210957	4.3155050168753935	3.5403444677613187	9.021577812305713	9.917179082627545	9.938158963861197	5.75979422068741	3.0242111606537856	7.598174075970263	8.185925463036138	9.423109030774366	5.384006963487988	5.850506767760629	7.261660557532768	8.954724289220108	4.324468124915508	5.225252615133921	5.358145223440978
280	6.255754455030933	6.080489143278612	5.763071522467466	5.369223104272384	9.486482596288191	9.295207953826777	8.414470651362926	6.347636683650272	5.006389605280003	9.69409844811997	9.764210676336507	9.675343489060875	5.635201916772239	3.502002707222746	9.567150091812065	10.129625294859725	9.448309874521776	4.249621380567124	3.366716614806132	8.79137132332394	9.694217657409219	9.990050290634482	5.805081352836254	2.77728986038914	7.360389214052302	8.311319330212225	9.667757963567333	5.57588575862732	5.8176746221526034	7.687595824859486	9.391640639435359	4.271327484790886	5.470400319593108	5.715908036105829
284	5.748152241499273	5.652186379467394	5.791745648066457	5.352821813420238	9.186692214659836	9.183214164436682	8.443840005536822	6.360210879480341	4.7376246332718015	9.516022658164294	9.449182486519085	9.682182287566558	5.66702078342164	3.360204926590151	9.430335974725846	9.867535566212355	9.472123122142317	4.246139515646716	3.2521872438336943	8.764688469692578	9.725232099774763	10.23159215251244	5.849493488802005	2.6548860006060173	7.357081394694198	8.753813721490053	10.02580735536354	5.7593431327368885	5.9525661318218015	8.30348775674567	9.90342996004263	4.322519291454852	5.837731823487462	6.121023639483645
288	5.448968396734621	5.561635957027555	5.935320839201767	5.500272260130481	9.173247314181085	9.351481414072884	8.688874222752643	6.4515251950456936	4.5707497481340384	9.620113348514282	9.418471312585392	9.827923749906116	5.750431999946887	3.283724538141888	9.472050642894454	9.854187940513633	9.627768492232748	4.24901818156352	3.197369567427906	8.911953903585905	9.958522771488006	10.555383655601196	5.852446064478144	2.640884631165049	7.541453342470891	9.389770484105608	10.372233364620733	5.881595119885508	6.191969379050618	8.963539100904395	10.353774998273293	4.461740005672445	6.241959079241789	6.497026427078031
292	5.331271158109659	5.6694407319934115	6.009221538630665	5.668385968202129	9.394086814050766	9.648086523492486	8.92426488530531	6.459722502611667	4.498833644952572	9.924915288662701	9.582187628395193	9.955630277293649	5.747503266128597	3.2561898149295456	9.62447736217514	9.999350522544594	9.771782850389656	4.1617565049955045	3.1817226329581336	9.132587409803762	10.271106694038652	10.80207440510043	5.762948498480959	2.683053963562854	7.796822051390356	10.049391721148721	10.5808839530832	5.913605675072023	6.447941763810844	9.529569601794641	10.634612056585244	4.661677825602221	6.60097406628092	6.796175462730222
296	5.277744279887867	5.737918362435757	5.852609142785838	5.692971692017009	9.67105863036808	9.83917519946267	8.905515648292102	6.24535940500835	4.454226005752451	10.251468632564796	9.761472677381018	9.90036294344881	5.548593030272155	3.233838073195207	9.771852468614577	10.15958115873673	9.763442968513738	3.9248180290312167	3.181291095331049	9.317103362401868	10.54193780144813	10.85404584051609	5.565993294968214	2.7264475753612545	8.002044657531155	10.594957324934875	10.591715785941593	5.869676575146311	6.650313360589944	9.923204396943387	10.71038624920399	4.8947543974319725	6.865849954436635	7.00937841553056
300	5.163924681023623	5.573260770078039	5.426017747531091	5.47887276219867	9.80176255612451	9.738492941110911	8.521553971710242	5.787397370031781	4.356707561937382	10.422113392265794	9.788554166875631	9.594623541449732	5.1488160957041025	3.1752970138489904	9.818158124930772	10.21799943251502	9.557449316690073	3.569365969229184	3.1898620048095316	9.408924079027953	10.71224877513923	10.705517741831029	5.308038221309185	2.749138586732798	8.096505144658387	10.974239321657944	10.444660160397346	5.804115757593331	6.778927309087246	10.147733662733927	10.629919978960372	5.1411414016622	7.033483487491185	7.158468228386566
304	4.92689799018529	5.125228392058822	4.8287639496005355	5.043639170310469	9.658284162932071	9.296457267178116	7.854411582189781	5.199581133112554	4.164011467910954	10.343859646430651	9.582034086830639	9.104915595908782	4.656692016288637	3.0691993159051916	9.7341661207483	10.132081006218272	9.233708358339959	3.212530843253275	3.227921716169739	9.428307509459971	10.797822925008626	10.465584728520787	5.082534777206896	2.776885025642848	8.105854013958513	11.219975443168867	10.257758114665615	5.784466252027706	6.864916784120388	10.2669610717957	10.496252033436035	5.387832627998593	7.134084206689097	7.2746405417834445
308	4.584434497702759	4.498449791041188	4.2316012275669665	4.495366561984031	9.233686423830738	8.606584527220658	7.117789727360119	4.66061495557927	3.89443491906154	10.035079930718545	9.163118339292108	8.582658746031065	4.231709946438762	2.9423327371697128	9.559568381015778	9.928997968400928	8.947498298942941	2.996373645846749	3.3308703815287153	9.445222830767362	10.851132365486825	10.291474316362716	4.981806742488065	2.8659744190336416	8.114116648214997	11.400025338954519	10.159620259383605	5.85459993791631	6.959727269720858	10.353301975813551	10.408139202542776	5.61948441040323	7.201236229834984	7.374296646573341
312	4.202254761576606	3.8789975545222686	3.7730615043746925	3.9644846816105113	8.622780778095294	7.839420298810882	6.523914320686903	4.305982102012962	3.6117536930448946	9.590856527909438	8.61903760641285	8.16796586835492	3.9912445444427296	2.844863169163236	9.364666915138228	9.66380307618718	8.832077957742651	3.0078074856158548	3.5237190634453834	9.52072522620662	10.903639765866952	10.291305516009139	5.043741690299224	3.063864938629841	8.200998285568884	11.552156419197866	10.213771794281065	6.008420929044062	7.092334252570872	10.436046573993313	10.405024502233257	5.809957012766572	7.244100075551958	7.446303825651794
316	3.840677251655761	3.4276885899787306	3.4878990562116017	3.536433926236768	7.961219767497509	7.152445775093666	6.1662621342424755	4.151374806413317	3.384962073362972	9.117480254995712	8.047820070928767	7.909753302631111	3.945081224017899	2.8219809460917356	9.199768996853383	9.375418639354246	8.913194633868416	3.2273397364196215	3.797672738977472	9.655143713416074	10.92854210955408	10.453201267553517	5.224740492027304	3.3718337927564694	8.382887819106239	11.643848389791563	10.377057049300937	6.188648685089276	7.240927677946442	10.47812173105261	10.444003078795001	5.922491058655546	7.2378682907471354	7.4565520098300215
320	3.5214321524404153	3.2042205252810927	3.309763184774144	3.224459401572768	7.3643803410563855	6.630099756667589	5.989093288559413	4.094369877968374	3.2504408277461847	8.68002507879305	7.521729450308775	7.751315097312135	3.9960944551665687	2.8902223037227874	9.065897918700163	9.071759201033998	9.088356948794827	3.536607733380494	4.106125344399876	9.778776144134206	10.851320239326682	10.644782039469725	5.416570649776622	3.734269371141334	8.595531441921416	11.58491894658097	10.51817223754329	6.313042147909978	7.340367775504218	10.3977651333551	10.423952076343184	5.923997387234507	7.141116124243364	7.36911485718823
324	3.237245789937702	3.161329976683326	3.1381914536399385	2.994021408151272	6.8970351045043845	6.280446036694667	5.855105862139887	3.9913766283352183	3.1986696639364647	8.290921190310112	7.08459756969856	7.586491088786625	4.005923737902372	3.0320374889116137	8.92404267919015	8.749648072086508	9.184920287784427	3.7815143966568177	4.383773315805816	9.79210278899802	10.60226437752873	10.686167690000001	5.501079545437281	4.061915864225849	8.729271866693617	11.286133737679569	10.48931500647601	6.316592677380994	7.321653347603469	10.123264287185355	10.24629876410861	5.806633934619444	6.930029374745789	7.173638325699339
328	2.989890329441609	3.1993842044162277	2.918478719972248	2.8137154508123112	6.576366407956818	6.07151125328663	5.654190526038262	3.7559432888569986	3.190642825654118	7.935776213637187	6.767186147770454	7.341706257403915	3.881812324260035	3.211629382607968	8.733538605574447	8.425664880460639	9.060948349010511	3.853201379584346	4.580256450533132	9.63080499124852	10.174591992439066	10.454043361972778	5.412219987556162	4.277266014744154	8.695227601032501	10.727100345231129	10.21101090714204	6.1868214451036545	7.158906918571005	9.648026442010703	9.878532384727071	5.602765069167367	6.62738559956995	6.902497750974968
332	2.8143169808858657	3.2369263090425124	2.6790981225083885	2.6890571049508956	6.388166411483735	5.967675670815636	5.375674234169426	3.413073292698126	3.1874234595886377	7.607450466022526	6.592474920794566	7.0261201681128025	3.629176130668754	3.3984444055585468	8.489074685598396	8.146034220155897	8.688093163489478	3.7396538163181696	4.688308703983471	9.313888526289379	9.647093748531613	9.956377957955823	5.170580850898175	4.355226505727743	8.481827714486322	9.99101350169162	9.722864126453105	5.973419174371691	6.8952269380050435	9.05460355379948	9.385621047165401	5.381991372825352	6.30767868356805	6.6278252434287035
336	2.7653403212347394	3.2516012109677424	2.50148200357206	2.6558711461723776	6.29841612179334	5.938995346333603	5.0999770035727705	3.077438108303824	3.172187797166777	7.320556145305214	6.559041006694408	6.718922121250464	3.3405163203776524	3.582458248630333	8.230659464082864	7.962758044165988	8.168599108099414	3.521597614933894	4.746802318032566	8.942392326665793	9.153101897972181	9.334354377067786	4.870927798371035	4.334503639721714	8.166420915966242	9.241508460554153	9.170638061257986	5.766101345763039	6.628012640431404	8.489454247975369	8.909090019620967	5.2262401448860665	6.070074066095435	6.436300261459865
340	2.8695902751951667	3.268898478837889	2.4494829116012946	2.7391188075527735	6.252804263540579	5.943959697975122	4.923946368183465	2.873820059196328	3.1509289661962803	7.095879536833161	6.614845259178027	6.506528361105554	3.1315205018135193	3.771083345428881	8.018470743915463	7.890005091773988	7.677072505641669	3.3190956031923546	4.815586077929704	8.64604184828803	8.81122014682119	8.789051987392297	4.6304902913486865	4.292416084896334	7.873013953358635	8.650992371651997	8.734363533856055	5.650965199508319	6.458871348286423	8.098601320800556	8.601088502149086	5.192311750654101	5.990508541241387	6.391087515907512
344	3.0726547163633864	3.31338214037719	2.5114870008002184	2.9083242342953706	6.174176200537192	5.910901054717523	4.87715767582723	2.8527836727595717	3.1329755703981026	6.928860646873984	6.6488900016763015	6.414860232369708	3.0661222857310753	3.9677259821852138	7.887865046613375	7.872907141835467	7.361176472198507	3.2214243330684678	4.933119761409816	8.506718614081683	8.657960869864382	8.473231294219941	4.526178825395006	4.295200813893209	7.698972205751173	8.31848047063604	8.534987428097224	5.66674898624215	6.434851630176901	7.9573688306175825	8.54603669869921	5.279651151678707	6.07817409888138	6.498916609568376
348	3.2321405329162896	3.36281108007173	2.597284787296246	3.0691797655817545	5.976844295670417	5.74867247083756	4.8910198088183545	2.956665746853374	3.110135785833575	6.773260576313468	6.524815066076474	6.3846015768980084	3.118539802307108	4.1500592126971565	7.817970732977586	7.800072173452463	7.260200958995194	3.2423849023972613	5.0833539834426205	8.506651856879703	8.626080491221728	8.41040513776235	4.556393611848263	4.354539860221664	7.655853252155204	8.224489191271294	8.570995309170863	5.784481987653888	6.517164213892422	8.0331477916079	8.712442376074486	5.423548684732149	6.262533172054835	6.700436098347917
352	3.1787114063116833	3.3429796611307108	2.594990008478187	3.1051092069430677	5.603819356121492	5.393648133965355	4.8437924262776795	3.0575618666700466	3.0535442752037496	6.5599703623134	6.150841697422278	6.307643874455589	3.1947894015713834	4.265417565067038	7.7371244235198375	7.56193159101538	7.287884216981941	3.3242549812310864	5.1936812269690025	8.533869721801219	8.583915688776916	8.486247994931706	4.648370731061844	4.415874946889318	7.659443835947408	8.248388269580095	8.719750382342657	5.9216661303739375	6.596719725166173	8.202121713910774	8.962079979203978	5.520432935128409	6.421262724876737	6.891183835750847
356	2.817125074903434	3.169956437690599	2.447516196747251	2.945228092387012	5.0705718866120995	4.866434085003474	4.648275840467601	3.03858660884442	2.9315669462575626	6.243854030103704	5.549079404172295	6.099703773357053	3.195615283527306	4.249933708904958	7.564905624363584	7.123794060841053	7.2867402846423	3.3825075540973186	5.1679005492386825	8.443955400128816	8.413499810911276	8.515454270797909	4.704251277490583	4.38570164526872	7.575811366981314	8.237770059768037	8.801955200860695	5.983623966368632	6.549019797002912	8.310859659192877	9.112852073549877	5.474347100741591	6.436429961166569	6.965202313957524
360	2.209331506873146	2.8134531903759616	2.196218246637089	2.616549008439015	4.486298549769376	4.297303188918419	4.321115006027489	2.865132086195802	2.737128489259459	5.850458607207772	4.878873335918113	5.761446461436412	3.079322568748285	4.064342011680662	7.267907601126615	6.568972571000388	7.121713620325066	3.361279717542027	4.939401137278967	8.145739534792872	8.08354757175409	8.346738794234128	4.658624160448798	4.184858311577803	7.299610119509709	8.092976549696592	8.67552659705392	5.911353573179515	6.300923808402	8.252612093116793	9.025793052773587	5.243948923222704	6.2521195253831285	6.862469655830668
364	1.579127903766076	2.338680023010806	1.960024709521323	2.2440750542250023	4.02900647099839	3.890103807164516	3.9835462469615557	2.600907796015126	2.5049409803089326	5.4874982695316294	4.385683525456755	5.385785089246438	2.8839337752962817	3.7262194062568734	6.893583757162024	6.077136978064908	6.757129652129341	3.263488284454576	4.515370357557305	7.660688857764333	7.6723398968584515	7.945242384877935	4.512645710042212	3.797949066109953	6.8190221614335265	7.818523864079705	8.307494142538777	5.709928974994216	5.871656403022173	8.017003992820534	8.671136834186585	4.865092265243678	5.902305111288298	6.596358759438324
368	1.2216737239510929	1.895254487974647	1.8598312092554885	1.9916784713051134	3.872835149523789	3.8300280474284976	3.7896571063683147	2.3609793126578746	2.3027543963467485	5.303394781074327	4.289100159306561	5.104603754507134	2.6963052681558626	3.3164737140845943	6.557444079055617	5.840171322382671	6.273303969757134	3.139687768638602	3.9856898684008457	7.1200842677596	7.324830513580555	7.406589966193957	4.32532261710085	3.2905213749777547	6.229542716510686	7.5126061249839085	7.785454253567495	5.44218634185062	5.3646564348198025	7.686708907747467	8.139245012714541	4.436105240112167	5.493385301071942	6.246386512244527
372	1.3542250360630272	1.6505423742583791	1.9364584635481072	1.9729734609382155	4.097940434599984	4.179423798499483	3.8267824553193823	2.2340156975609466	2.1958360616557537	5.409018026046912	4.664559352541968	5.007541643851313	2.589811080116019	2.9510855600235906	6.386788828937164	5.958507999635168	5.816766724205677	3.04575156396549	3.4885537536281617	6.700797540912923	7.16947982885315	6.898995858893966	4.169940461121082	2.7851929594292453	5.689629063546445	7.3047795111287375	7.266748886835107	5.192774759533547	4.916919695837924	7.387513142053889	7.5944332884736045	4.0742497341287915	5.152361379966392	5.921013817143162
376	1.9882980534898567	1.7034876303579207	2.11732339324436	2.1844196264428786	4.632979381308223	4.823466288786274	4.053548802631984	2.225610012157364	2.207321876674973	5.806720718982017	5.386115537396239	5.084439741649108	2.572854035557391	2.7311789920515794	6.4521636799989155	6.377669795146711	5.517133698839131	2.9998435898382323	3.151314250619136	6.536545260138656	7.245170574969421	6.570888025860054	4.084571828066354	2.4107303558519675	5.344575391627094	7.28127716133456	6.897634011973576	5.0240168444627935	4.635741698958719	7.222350102309752	7.199059945050439	3.8661377332351563	4.969131457180712	5.710268959887156
380	2.8962776587795207	2.0223925062617476	2.251569026984402	2.498263829599473	5.264728532850416	5.500412927091796	4.312471855719721	2.2552676143926664	2.298278564372575	6.367839320318015	6.16607712142556	5.22479675881183	2.579461568041929	2.694724076143253	6.723686201286043	6.902669412351488	5.417951570183292	2.9656069203842663	3.034748784986311	6.652633173358745	7.479745845983621	6.476356489996428	4.046771992956711	2.2488367500747963	5.259655939174259	7.440262775709771	6.746447069301087	4.947079646018126	4.556304443299904	7.225094300148283	7.046838265747262	3.8358762167405143	4.962124811995765	5.65119551185515
384	3.6967453863270157	2.4405920443904656	2.1907689516069015	2.719312660981075	5.715634331577712	5.905746921887518	4.407868374186144	2.204756969607474	2.3788247048399924	6.873811704447052	6.675128919914497	5.272652612725429	2.506494992603593	2.7947289873134946	7.075045567769552	7.284888725961672	5.458467946576359	2.8723742889363066	3.1081068437305435	6.956484300216107	7.7301311297752875	6.55725620521576	3.9882419008651055	2.3034787119882303	5.395818696704016	7.699395160309431	6.783857328453461	4.923600661244641	4.639334666936708	7.356245499157978	7.136326295001307	3.9445507426807374	5.082852350753457	5.721978649951586
388	4.023768891665911	2.7183678081544813	1.8660587025258983	2.67640280047845	5.756828770408031	5.821713432872388	4.203575600501494	1.9861388156336748	2.3463184774287766	7.104591828528695	6.685401899624889	5.1054768433416	2.2744541110788443	2.918442957185473	7.335017662602687	7.337967377255884	5.5138087133433755	2.6606397561609483	3.269804707854766	7.287890415864982	7.860606650533515	6.687570078177765	3.8417456053060177	2.507182114946829	5.638763413497866	7.948084811170808	6.916195851984085	4.896847712551199	4.806274401927824	7.538549881021923	7.392803173473638	4.119292725653253	5.253683553782843	5.865916237326216
392	3.691101780155351	2.6408548288427363	1.3157126870315383	2.299030059732006	5.301609979595678	5.206111417977659	3.682428827525271	1.58567893104751	2.1290175861011877	6.929943544057529	6.1640829884349895	4.690934169369909	1.8733266544728806	2.938293926449929	7.360526543153518	7.021564942751989	5.466001019982633	2.3233711660853458	3.400224200247046	7.499567012925765	7.813580016435937	6.749236566669532	3.5894083886121755	2.758466713616596	5.863205894925832	8.11137006619068	7.047257882445422	4.832486140448071	4.98969076804189	7.70914886435585	7.720397929726619	4.29551218855673	5.415840612089256	6.0299591865885604
396	2.7712008883128387	2.110329384244074	0.6519452913036728	1.6431065756321332	4.437082279446858	4.200026978379105	2.940201751915083	1.0619822713742335	1.7155194239219036	6.360453589593254	5.274426923786623	4.094086159859959	1.3680393661291625	2.7715606619477944	7.096368294919086	6.45234726230436	5.265046106396978	1.9180395554754088	3.42055391401713	7.525152664258872	7.635107497965638	6.694578630711339	3.2817358887786225	2.970615617881386	5.996598228573424	8.188698747941245	7.131239873047596	4.7441153406528755	5.169714914621064	7.8570046226495425	8.052878359490213	4.44934462377625	5.5603046276852135	6.195303901289513
400	1.5528346260919816	1.1916712492419907	-0.00855426860676139	0.8564974644017302	3.3798727903863193	3.0550143641587786	2.126014704104985	0.5052577244399841	1.15565085119298	5.534723744723675	4.288216580054642	3.4364914807340936	0.8617897607979754	2.4193367896986464	6.593789560836412	5.839434132137949	4.946999537375749	1.5407381018839361	3.3272452270426287	7.400574665458412	7.443036537452036	6.560719473487045	3.013348810217343	3.1070096414322883	6.048121437061504	8.245944002313317	7.1873192605708045	4.687539565649231	5.376581178442039	8.024154642826895	8.375404336764293	4.6035938146709885	5.72487019047163	6.382741435148555
404	0.4023174335335778	0.09029704309553872	-0.60480427589306	0.10726782652475278	2.3791623055471476	2.019842142727537	1.3682618106629028	-0.012991584804636077	0.5352351651983437	4.653019416505429	3.458067646832573	2.833792917726342	0.44040337093742005	1.9654064128845055	5.982799991761337	5.3814272744686225	4.6022615316543325	1.2758253780578424	3.186095229687816	7.232322197774077	7.35858581592453	6.4319901303977485	2.8680522369452657	3.188322774466738	6.091432556031744	8.368126848074171	7.271382790326826	4.726102340210073	5.661665902148539	8.272133806324343	8.709794022504513	4.8062553284415435	5.96126316472831	6.630848391004078
408	-0.40005099672403815	-0.9274194813201425	-1.1466653318064863	-0.48721957083714956	1.6149861771817071	1.2447979418797703	0.7288852911666385	-0.4682466375926627	-0.059042729288282664	3.8931014439519918	2.9162750170511758	2.3484101236179535	0.13100591268842215	1.535435315070237	5.41461323324714	5.18096445682899	4.317659367150716	1.149972674327433	3.090909234826209	7.134427529442136	7.441976051614869	6.378325923074742	2.8659849094510954	3.2705893433966082	6.213987811612214	8.60303590509827	7.426860790575151	4.887398707448102	6.056298717466884	8.63506791795685	9.078398681608055	5.093978868974877	6.2930335839651335	6.961301309176113
412	-0.7681787590659367	-1.6380625921853955	-1.6796681838543384	-0.8960627890851626	1.1391866178361105	0.7464251499404089	0.2053373152793789	-0.8760444499785995	-0.5655217752483728	3.3493049060183053	2.6466715269023915	1.9794982621760144	-0.10268023584190784	1.2385071484767687	5.002898680453612	5.21763180369076	4.128586281843168	1.1166061134757015	3.1107692639966484	7.1692457018090625	7.666445235923628	6.408893569024177	2.945101492121829	3.4084677610172487	6.462214453594145	8.928499199259464	7.64710138297564	5.137861715696359	6.5424074961468035	9.087612129155595	9.472366309092386	5.461966023960105	6.690054399765731	7.353763561755797
416	-0.8179278949114015	-1.9452639769078335	-2.2285673562050734	-1.1651214331774307	0.8815361835157597	0.4394835222592462	-0.23392417967863954	-1.2614352671246303	-0.9554648971276305	3.018696062095932	2.5324408944088135	1.6871666865667296	-0.32879000819164406	1.118210312881136	4.788084018062617	5.3841361863575345	4.0074109929950525	1.0804741355319527	3.2524435438055814	7.319532852766294	7.939512232762276	6.467547400358024	2.990892402727043	3.62149213830229	6.8099303073610225	9.259394622313193	7.871551493798118	5.391926274991431	7.0496558965079705	9.544890379649027	9.843577360096086	5.855605110643264	7.073390942834764	7.745523910040379
420	-0.7833855132351544	-1.9133171986910669	-2.7606766154207087	-1.3766961062959049	0.7099347096638859	0.20900770969073582	-0.6094774588455862	-1.6290146071313352	-1.226981875182808	2.8314123082200235	2.4437906680396164	1.4319004976360195	-0.599755226051529	1.1360102863240495	4.735556590521896	5.557709203039666	3.8929555317819498	0.9511424875087218	3.455669394351445	7.501434784069731	8.154589632426777	6.4713449314763665	2.901403419798684	3.8793547055528608	7.164534073860753	9.488354658966571	8.017635325216402	5.553877339646021	7.47928998966153	9.894490217023208	10.124552701183568	6.18848751413021	7.347736340091327	8.057205179852826
424	-0.8869302846450241	-1.7326184467440282	-3.191836349058087	-1.5997806747100265	0.5111173974484137	-0.019348295356657337	-0.9113639570114661	-1.9519698570560027	-1.3921850884574216	2.7033941677503917	2.313915008424894	1.2048896520711663	-0.9158743000748772	1.1961134641965956	4.7637495874294755	5.664167389874157	3.7404680157637458	0.6961667520112688	3.6236956028047835	7.607343654499358	8.24194524591472	6.366351588388177	2.6498835019919382	4.113732327565485	7.405960541146718	9.536334967378147	8.027864435908349	5.56937216306271	7.741267184739847	10.043413136874264	10.261802647431283	6.378406031717118	7.443919639866798	8.23016927548547
428	-1.22941124128843	-1.6299003321504613	-3.430770865361574	-1.8572170687515295	0.24908979174190493	-0.24603015122285823	-1.10754716116703	-2.185067409720662	-1.467788096536806	2.5808274680781533	2.164477819700014	1.0334659788742087	-1.2202318875976164	1.1966012686082057	4.785083758670778	5.701895699410249	3.55933498437597	0.3649941077553889	3.6709477808776216	7.554079036713917	8.19230840521973	6.165280326536214	2.3083867968452236	4.248566616775842	7.43714521437731	9.385580039169898	7.902690390661639	5.456793294480978	7.785521010769474	9.955276464123155	10.24067208565602	6.382832034208384	7.3482627683126545	8.253384569311132
432	-1.7468268827204234	-1.7605235532180692	-3.431857100405218	-2.1197984165077646	-0.02245399722748307	-0.4090608944101832	-1.1659374207623456	-2.2886028232013254	-1.470012780292786	2.4593348441020555	2.0773513264660073	0.9644612645594457	-1.4253027403131997	1.0814326974268105	4.744037139359127	5.7224531029228	3.4156715783666147	0.07021015864765705	3.563520184102952	7.316651802663705	8.047653177923817	5.945150837193307	2.0169568010905348	4.234640110768522	7.223873120189208	9.081940628010246	7.700407962430897	5.299108968707218	7.61467836364832	9.661276792929398	10.08783719376894	6.216587050955017	7.104908925238099	8.164615610489843
436	-2.2451221886217727	-2.13041400371546	-3.222014657468833	-2.32423972496682	-0.19482374142095912	-0.42607241761399833	-1.0715362998611593	-2.246307844212651	-1.4120339119546714	2.3753821789850362	2.13674950060193	1.0385110352045497	-1.456288810867902	0.8680018760700721	4.638101089211551	5.786962494544597	3.3970856580796776	-0.06684526039174449	3.3326291953823066	6.936040383946922	7.870177249111646	5.805137142783623	1.9116649579420646	4.071553220005961	6.806719762782946	8.70913503355354	7.503646354803894	5.197931753386493	7.275148850192806	9.241501784833956	9.850223516390342	5.942712291972412	6.791256410618618	8.024826983218263
440	-2.491093867688254	-2.5832917625055254	-2.8850264476415455	-2.4023687778854077	-0.1640658076435587	-0.239840685715719	-0.8281084874226242	-2.067180866744371	-1.3023678031464687	2.3809139668433845	2.3789138733883513	1.2703624931686806	-1.2872931924743845	0.6373718364835947	4.515545356793924	5.927743419939892	3.5605006128062544	0.02301073441060198	3.056463472278899	6.502096636568403	7.710772018038275	5.809870228403997	2.051482195443064	3.8067407511921263	6.283163531652407	8.35165498532279	7.372579555970987	5.215223776047914	6.834806901841672	8.788694359524547	9.564962362935752	5.641931519568969	6.481159193841724	7.8812031546929395
444	-2.3199288786489682	-2.8646345066224734	-2.514063828796642	-2.3086161555177402	0.11499526322656779	0.15456677934246055	-0.45000967269768183	-1.7755231812472154	-1.144539114923427	2.5163292821295453	2.7754447390101316	1.6421481329465648	-0.9539300179238946	0.49217820043278454	4.452661979877494	6.1356406056943	3.89283155412113	0.3194617024939128	2.8208904195136784	6.121445163530432	7.593527297875306	5.9509205667929965	2.3828654229084036	3.5120580107709674	5.770262226795014	8.065712908408004	7.311717968600234	5.334390626790747	6.359240992703005	8.373253801186227	9.23947808793965	5.375843988197318	6.215468390984697	7.740347365863996
448	-1.7131205753943297	-2.7403576304866575	-2.164306635160651	-2.037375921827556	0.6060661658244137	0.7092322689269815	0.04315653804969538	-1.4012174570945901	-0.9398437714689805	2.793638460735437	3.2534003175611	2.108631367128	-0.5394909964292065	0.5047447668683421	4.520606983215471	6.374430163502058	4.307567108722827	0.7172100525868017	2.6802029542011554	5.884177193090658	7.519988517848571	6.148374541971964	2.7615847517862138	3.2508315957963454	5.365323053165287	7.870163420834094	7.269352417712323	5.463790402922784	5.897499546420059	8.025879839660918	8.854547478254768	5.163063513118082	5.994195922976462	7.567889194454928
452	-0.8143690207901378	-2.1167466587029695	-1.8332486106363848	-1.6247132975566236	1.209837672040058	1.345504518926536	0.6237327440726567	-0.9768102740421224	-0.6935571414603013	3.1945567050387678	3.73588131915057	2.6109723978879087	-0.14123626017674554	0.6818256360959386	4.755522715959768	6.608588202003884	4.682623374560569	1.0731644603337331	2.6373138361148603	5.840733513390773	7.485710601980524	6.293917163217053	3.0223476810442325	3.0522394103236214	5.120976435129859	7.757754306280252	7.17130706883877	5.483977780801504	5.481349454392124	7.743843535899114	8.389551141538146	4.981118666470515	5.79242847887528	7.315894585258389
456	0.12490083990749123	-1.1020508976768786	-1.4807257614897984	-1.1356942624982482	1.8103589965889508	1.9834400365343485	1.2468452422133465	-0.5413673506419984	-0.4215630580272236	3.6787128355607757	4.1766142739704435	3.091719381155951	0.16616682666310306	0.9632114147663061	5.14347885740581	6.8243498629886785	4.919371592499214	1.2719979254078988	2.6518921785157974	5.993874534732644	7.495224456936973	6.311303122798401	3.0585582179095967	2.9066939280555903	5.0420541636006035	7.715946178028874	6.9691638770578725	5.3129682406754	5.134042250068795	7.513276081189493	7.853241423806504	4.792128550828284	5.5884284832050275	6.961325151033963
460	0.8481266477152535	0.02472722524121966	-1.0750906440294314	-0.6441659911104536	2.3236992300493613	2.5642013485064825	1.846740717993678	-0.14307340943453548	-0.15295731982713776	4.194773186583288	4.570008266354905	3.5070097357898167	0.3534005871433328	1.2533371416873125	5.625281796558027	7.031547051796611	4.990849959170555	1.2760903803078445	2.6698915890996258	6.3049216111262805	7.565465431185901	6.200231536469944	2.870480053330127	2.783156149513123	5.100554930207053	7.743617515086696	6.675018293694074	4.9537029141288444	4.879770266610429	7.33200262125898	7.2992286497841095	4.576566207775115	5.38599918912993	6.531910402972623
464	1.199692723106321	0.9278148985325841	-0.6342976077277761	-0.21274064427546543	2.7252626350261115	3.058910123731462	2.3492512643629	0.16770729380227253	0.0762273965341526	4.690401065428383	4.935933577473269	3.8347678087690698	0.43758579978135625	1.4676750861305972	6.119070514488576	7.249263745125103	4.953951346287641	1.1358793945244532	2.656112425773819	6.7108082601869645	7.71803806263663	6.039888366708755	2.5570857460311616	2.6565401487036473	5.258046613769386	7.8550634185833985	6.362962229876227	4.496873844237305	4.745688426433816	7.219002228630461	6.814214212379503	4.354932774039032	5.217861639200433	6.102644428104266
468	1.1881010502382483	1.359544392967932	-0.23411600232620364	0.12047927051166839	3.043494932119991	3.4643769176754082	2.6987414291909717	0.35587188511644824	0.23623703360518084	5.1193518509359635	5.293002592074686	4.07784270210678	0.46518903853269444	1.5688786467042455	6.550034983310163	7.487804393936908	4.919386851288238	0.9579629873885048	2.611484997831683	7.144556027493957	7.966405371579875	5.949522003411518	2.2601470890202395	2.528204911524611	5.482600198254933	8.069808939586629	6.134941562422139	4.077214707571013	4.752943026940402	7.204748135496283	6.482065184440023	4.1829919709453085	5.127732263970224	5.762561306709476
472	0.9733766888838602	1.2676266399803975	0.024575447601617777	0.34449312003897564	3.327006808464129	3.791981210671529	2.8861043380349423	0.4204076219911698	0.31719979563736467	5.446653829174546	5.638873086043976	4.261169899672488	0.4868729996309781	1.5755594929016723	6.873860341837066	7.739813308248157	4.995134817863351	0.8491305091400261	2.5664179260307938	7.5514621543963045	8.305972078333635	6.026555522961901	2.0928256458849464	2.4258572994020327	5.752137169620316	8.394067743089243	6.068162902770181	3.8062815570099358	4.89996527388366	7.307263355879547	6.341370566570145	4.120201100437336	5.1405348647984965	5.568386063822036
476	0.7832406143440712	0.8103113153980083	0.07259354722053132	0.46975263834607783	3.6073202995776943	4.057517041452532	2.9580240174950863	0.4001859416394689	0.33516994034068215	5.654294476538488	5.9500737040021665	4.4213690646122625	0.5357972966018012	1.5424275359311843	7.085253220789434	7.986789683204435	5.2324457036472545	0.865579066475359	2.556831353407903	7.897262076466359	8.71283910458911	6.295074923834247	2.0899934715909496	2.383234971705078	6.046556457512232	8.805333115280877	6.172890647561922	3.7179949189729506	5.148945795410806	7.509273510093641	6.361429675253631	4.188695420180176	5.239097105150237	5.511720166595719
480	0.7949532250360879	0.2714598172009824	-0.07800722847555511	0.5184737430833747	3.8777260682431303	4.275626171761234	2.9981520100237775	0.3605235805945872	0.3236047021325006	5.745695099629256	6.199897750460044	4.5922675016807855	0.6198419316854769	1.523929472890424	7.209224682726192	8.215507486582057	5.602874264876319	0.9947931145347451	2.5976695948819444	8.167623499276194	9.150988555692361	6.692545873911051	2.206731313856029	2.4121022163526544	6.337558253499936	9.250057197104836	6.385109408470213	3.7581603432184663	5.4267830711680745	7.753108958696766	6.453352435031314	4.348412979591381	5.363483892250741	5.520932660468944
484	1.0449252102219249	-0.07972040752310582	-0.32607629812883915	0.5173520432761786	4.099759091516779	4.457556713294091	3.085180274803442	0.3637462547178442	0.3166728607765582	5.746396527087202	6.379672988043264	4.7887129662726995	0.7268650513417221	1.5431363543650636	7.28158710548661	8.430378892594733	6.014456733777359	1.173839566128137	2.6699433259311602	8.361330011238303	9.582071280128885	7.099794369892125	2.357327932128153	2.484852069303134	6.585223658148078	9.656219458042264	6.597373468908419	3.8204963110786614	5.644449219757925	7.958567599230279	6.512587530859543	4.505275238106474	5.435205922709309	5.498268113559614
488	1.4163855278494464	-0.11156767578567099	-0.5229606019168035	0.49555396908576055	4.232798565668191	4.611418712417345	3.250017634769348	0.4390008438470738	0.33464237963110716	5.700016961011673	6.50926206852663	4.996443259022156	0.8373955467062751	1.5835884769512254	7.330669861405168	8.653095223514363	6.356998427553638	1.330367561796174	2.7298161914568757	8.483270623723403	9.974309896081937	7.398689728176794	2.4689767298351586	2.5420460636808277	6.747632486473387	9.9582090126387	6.7136449644339535	3.8088266753354194	5.729816422301182	8.05837056986453	6.474101527080979	4.552683818766809	5.396284089769247	5.374334321758258
492	1.711838479488448	0.12640915779146614	-0.5443102703657083	0.48433461663033733	4.267053593352702	4.742681014484622	3.457668772550743	0.5685974345156624	0.37942361735869784	5.6582355356410865	6.62909219975485	5.175302015589624	0.9363009309971209	1.606702800508895	7.369369488230068	8.908587433257491	6.552432520535556	1.4215183222166754	2.7352242400729825	8.541641213785992	10.307802174292684	7.527410965034421	2.5192031796747796	2.5232922967146263	6.799853784559314	10.123476956557377	6.699475748313721	3.6911282446175644	5.660094246879069	8.033900240641644	6.351434214768614	4.4270300753401575	5.243334756964489	5.151146875727514
496	1.769263024631551	0.4554691899244222	-0.3559038332059672	0.5118456469964408	4.237363804609302	4.853419291640337	3.626504650496666	0.698745427751676	0.4409382630182839	5.665670857430175	6.777270776803831	5.276168333083985	1.01617693644502	1.5801575143973265	7.398295860685113	9.205067611341958	6.584444983070699	1.448383446851301	2.6722280911689222	8.548201539391988	10.574633571629253	7.503992538579875	2.535708421027151	2.403192752492702	6.749442083484199	10.166629765591493	6.5991620850843224	3.5144426733931207	5.475202546601247	7.929023245819764	6.235285266392427	4.145613659882453	5.035621153515526	4.907850729948956
500	1.5608001907996538	0.6827241165090143	-0.03471236294684648	0.593569694450935	4.208687771661682	4.943127142823759	3.6789715197184476	0.771792350250966	0.5089358674551422	5.74585340956538	6.9674067321343305	5.267484651617872	1.0749784680882475	1.499929305104339	7.41573284184226	9.522665953435608	6.497269137190943	1.4437491857317148	2.565330498894257	8.520282723849682	10.77695176264677	7.409151058564199	2.5662202770292173	2.2105529252507994	6.637808306147639	10.143878911156746	6.5116042926418105	3.3753585730210074	5.262106405324078	7.831622580782474	6.24962614388918	3.8040990733423503	4.870458590608547	4.764079081904962
504	1.2158012359440689	0.7103857380097627	0.2684084468263774	0.7222193461303679	4.241408814212126	5.011476027233714	3.5954344181837534	0.7615944127881575	0.580616413081051	5.893953308483456	7.180120926848744	5.158529268592177	1.1117547722403913	1.394295927342168	7.425995807972354	9.817837690361268	6.368190749302723	1.4447143041374813	2.4659488138882133	8.479947068739117	10.923461886483409	7.339729290550996	2.6411373548582584	2.017824883134852	6.523661120156536	10.127495740116567	6.536737902350083	3.3638780032105156	5.114101873837401	7.828855494760407	6.484953863937124	3.531381836558361	4.835675704191239	4.817841517682311
508	0.9497877335410424	0.5822175726496098	0.4108132709621553	0.8655107595526189	4.358484734021519	5.063767897218877	3.4409422787575243	0.6934482437745716	0.6586860401689478	6.081072791958778	7.3755116276493755	5.008092867604804	1.1270121307528955	1.3081089225167395	7.441285114574377	10.044298146637654	6.273139937775126	1.4708255492268911	2.425653213098837	8.449688890104575	11.027015658194617	7.3611888699645895	2.7541112830245646	1.9054874133638504	6.45706508913571	10.172787640636981	6.722484571650405	3.513660660455642	5.0855035653463725	7.959581355026059	6.943516713731513	3.4258687409690434	4.964073645456421	5.091040598413448
512	0.9431694722204716	0.4471743691598421	0.34187820467463653	0.9792815422129155	4.53496407317556	5.117102133229241	3.3474914943102374	0.6385300143333013	0.7421421389915972	6.269328101542073	7.521640758597573	4.912105071063703	1.1306321592395445	1.2778806654137982	7.477658252910278	10.181258175893916	6.264411433616255	1.5227673015295276	2.468640559639474	8.44720266116798	11.104844065285718	7.485723476583764	2.87306975592979	1.921046967424603	6.458698256398432	10.294984791512546	7.041340810164218	3.786237468696895	5.166216360400161	8.190263727490517	7.5264248657937465	3.5076458365572534	5.214643465227845	5.5117153982241485
516	1.239110943526819	0.46757799268926054	0.14102257752576527	1.031280038137235	4.7161970019477275	5.2010335790927735	3.455170861103803	0.6829542500419111	0.8199717381755894	6.431022627806198	7.620704631638477	4.9701928966921916	1.1491543025567332	1.3150017228304525	7.548986415877165	10.251874897822558	6.365872367045393	1.5972562988008727	2.5812010699906622	8.482275941413901	11.17909047165344	7.68325851407942	2.9703130647052705	2.0570158906500398	6.516436560390841	10.467285129822645	7.407252769842185	4.0947470561595605	5.291132436744935	8.429517724689193	8.07082269538241	3.713063707513843	5.491061673605884	5.942753299967914
520	1.720113153883145	0.7270110827210531	-0.016160869930115427	1.0220024559920795	4.852832305100071	5.348587499466086	3.8389456175201184	0.8851720668378787	0.8753755666566189	6.562077982547336	7.715311507772908	5.2429976330944905	1.2228637902856736	1.4055801594532653	7.6631202504278715	10.319502804451131	6.580431921557393	1.7027512745782245	2.723731987752144	8.558592774717313	11.275854082248978	7.9140081205830155	3.048134796076172	2.260497087493477	6.602045519372697	10.641597720935282	7.722765903048277	4.351278770904947	5.381409154656656	8.576478936476356	8.42087838907868	3.9354243179143507	5.689821705757872	6.2438812098216525
524	2.1754872743993903	1.1845318049088198	0.047561809300503605	0.9873229240285505	4.928027617410221	5.576342568623725	4.455893028453321	1.2410496441978887	0.8970233775379375	6.679134828870448	7.865599612404454	5.716455921999221	1.3881946767090736	1.5221887788487984	7.819055060672602	10.457952472985857	6.896138650649227	1.8601577234987436	2.8531112598864303	8.675142266305379	11.418045968791834	8.156601885229314	3.139549724281651	2.465330594514164	6.693595392493607	10.77727887293647	7.926830748571882	4.5077733879719935	5.391935334897414	8.574404694843409	8.494818665991609	4.08518265646447	5.750154003884356	6.332718356356394
528	2.4181017814620187	1.6979381995247635	0.4080141474436029	0.9788630580030041	4.959688174123499	5.863197788694163	5.143778311140405	1.6752107101107094	0.8889330007044209	6.80141494941133	8.107308367287361	6.291557772964221	1.6523935753111394	1.638881321583963	8.004174212274313	10.708390208864792	7.283234101026885	2.085230345229684	2.9424662515736726	8.823883988036776	11.612438172585708	8.411812761049813	3.2827935135928468	2.6262481146309575	6.787730676679766	10.860164614914705	8.016305903222687	4.568913925079592	5.336599813339125	8.439370134027111	8.314209917057955	4.13451622872761	5.679051861729888	6.2144694171407835
532	2.3801929890620017	2.0945496506260772	0.9839100216819732	1.0293725702999488	4.978428828067883	6.14339350102995	5.679612622226519	2.0645685143797508	0.8690539576523463	6.927917939814597	8.416009881705719	6.8114480800317505	1.9744157741288488	1.738190288923564	8.19155214148873	11.045388193853798	7.686526755953493	2.363859885923307	2.9868738575864318	8.984107948508715	11.836136788048757	8.680758454340516	3.4854168803908423	2.734073393594565	6.892940980674389	10.900293322699131	8.031174639452237	4.57362412251643	5.275707231553167	8.247071245352464	7.982710341326307	4.121162880983003	5.538559899651735	5.968026622963187
