time	FP1	FPZ	FP2	F7	F3	FZ	F4	F8	FT7	FC3	FCZ	FC4	FT8	T7	C3	CZ	C4	T8	TP7	CP3	CPZ	CP4	TP8	P7	P3	PZ	P4	P8	PO3	POZ	PO4	O1	OZ	O2
-200	0.6608708484176736	0.3912346353189902	0.6987396461011474	0.0567671766934057	1.6988152222657744	1.1369402379894873	0.7470411043379626	0.16893325703407872	0.4134938408425488	2.174448723071446	1.6223926503227977	0.8925322867747403	-0.02068590181313624	0.5124196993288233	1.8976188850176277	2.1858289186603894	1.3326671089858029	-0.03611300131501621	0.37605130577511003	1.616715546340854	2.2699887695221252	1.631021137887988	0.10803073617362922	0.3627817919631686	0.741167126214823	1.7058978037679733	1.0352601978867075	0.28683131860794336	0.6365716441295054	0.8899427033843668	0.60940456236521	0.7451724987289718	0.6737004501499609	0.4207957376346449
-196	0.8088272193514928	0.245926543449339	0.8810696579622805	0.05782202244107436	1.6603730875056537	1.4199769461066754	0.964104947993878	0.2749895744533469	0.20462168701485114	1.935096020581271	1.8564302874424807	1.079648730413187	0.11238779099222619	0.1502298410914245	1.4460191690176096	2.228450769520187	1.41308450342083	0.05976475760152701	-0.10192022446887627	1.1635819644160588	2.0073580691201407	1.4980841837253305	0.027456011553824385	-0.028419606315862597	0.25255915458810324	1.304355975672577	0.7673260550199328	0.12757594851232093	0.1939418161979279	0.5503592477254667	0.2637604766385274	0.4768050300957741	0.4267749477578698	0.19159544955994628
-192	0.9823503469460734	0.2631239288362558	1.065034267597607	0.09486231183897163	1.5167479476781478	1.5893487890170652	1.2295609681557278	0.5091634975929648	0.009221211052501456	1.53086948008268	1.9594910095333515	1.3116669621729784	0.3061036459823811	-0.22949391545528205	0.8778194166908846	2.1421158259667994	1.4093172514619576	0.1404211964638223	-0.5705901369947621	0.6154893621163878	1.611472006543912	1.2378661601284726	-0.02193473646467207	-0.4289815713065283	-0.24776767131715763	0.8226616957875114	0.4536587584485854	-0.020746950007748153	-0.21902406160369464	0.22052928749672965	-0.07660108040304786	0.24270962117428835	0.20908641762396302	-0.007681742291129452
-188	1.1386924953321702	0.4889976667932774	1.2025046318211454	0.1739108707090267	1.3261887993708115	1.6426379639160924	1.4970456323973862	0.80576556717569	-0.12312708763984047	1.0678312751512753	1.928551549810746	1.5534456929086762	0.5110014664146183	-0.52876674995436	0.34372806462289274	1.9580230663455294	1.351093527243724	0.18949893069107107	-0.9163540578594631	0.09510012692044442	1.1855962246525313	0.9357280111529863	-0.06836444867278287	-0.7468108515957765	-0.6543624384571466	0.3841663887338237	0.18280255748371937	-0.1346571442065322	-0.529736696336341	-0.00923543234817993	-0.30766907256648723	0.07081080210212277	0.06808277202344673	-0.12139937250958187
-184	1.2216758697182992	0.8484994747673822	1.2482948271706242	0.27195638349535245	1.139673587782696	1.5949164588714775	1.6856144624114078	1.0455918285674097	-0.17393788651420294	0.653195379515391	1.783569212225131	1.724549766001155	0.6437804682690197	-0.675113914692596	-0.027305604821048875	1.7112208561608448	1.2370185820819064	0.17691755250132415	-1.0500822040748714	-0.28044366765742634	0.817817209086333	0.6484191997369528	-0.15167330167146695	-0.8875882007123939	-0.8653429128733552	0.08974261559239903	0.005642015472710923	-0.20841970987151115	-0.6617141349298268	-0.06954392028178161	-0.36153486279761565	0.004743920161518761	0.04082510237519229	-0.11521688074586377
-180	1.192862030832307	1.1893671720993704	1.1836912602103193	0.3513956359097626	0.9894546841435602	1.471404787163356	1.7187091068743607	1.118045684852682	-0.1620855774363467	0.3643916538098427	1.5615432222995478	1.7422715381503204	0.634405849762415	-0.6475586874825031	-0.17029477612892305	1.4354613983152005	1.049735543461733	0.0843807605758766	-0.942093310361769	-0.43485835084796526	0.5604469165957192	0.3961036493314316	-0.2869756214525802	-0.7950224260284974	-0.8201671222006699	-0.013735886628518691	-0.07296912353689342	-0.24604734716283252	-0.5644284472520181	0.05802597835910991	-0.2320671671730284	0.08519003518769065	0.13948453927586427	0.008379509651366317
-176	1.0568152639409898	1.3618398870417263	1.0235422823813194	0.38156112932191383	0.8827263690596298	1.2987711396805128	1.5630921085947704	0.9793778037139848	-0.13295926120090834	0.22971065284429934	1.306173202077901	1.5707105358521471	0.46994313479029903	-0.4811874913941424	-0.09999065820959543	1.1619986266362428	0.7876576165339997	-0.07120531779431442	-0.6354150160005592	-0.35316997677327905	0.42759135257529707	0.18018111541079382	-0.4438356745958228	-0.48129066703398815	-0.525353311165981	0.06018866583409932	-0.07771708051610166	-0.2493529462479239	-0.24129572449797984	0.331869511958512	0.026688942618340202	0.32242646731987784	0.3433438232813183	0.2101301098525062
-172	0.8593637921570972	1.2890967098114448	0.8008826354787286	0.35165452868369085	0.801373598936504	1.0958578558910619	1.243345138271683	0.6718114597525086	-0.1348862942627926	0.22526244762290976	1.0540610525221623	1.244021412569597	0.2058599139022889	-0.24800789293615716	0.10493552658290262	0.9173277593340555	0.4866131233804135	-0.23564015269390706	-0.22922259511294948	-0.0801094693903143	0.4052089144489765	0.008173517862187795	-0.5561417923237517	-0.028712263258325727	-0.053600337221001125	0.25565013224906147	-0.035870157091653206	-0.21118335372535058	0.24267938671830236	0.6683811528497008	0.3280979684652266	0.6786138398203256	0.6033049806621651	0.4310180533971051
-168	0.6557509882583283	0.9922625993471947	0.5425068126332927	0.2686012082470943	0.7089949232320851	0.866467831331361	0.824778375927431	0.29463142082213667	-0.19382469307123998	0.28831717299147525	0.8214034417394797	0.84893363499883	-0.06311999990501034	-0.02422540256225173	0.3405505708202614	0.7170807105079656	0.21333432143709063	-0.3417091957048026	0.162151515074463	0.3014554075736303	0.46398100139775916	-0.09512836462083547	-0.5581007585739938	0.44126692302874565	0.4849459218656103	0.5047696816097954	0.04216772679769055	-0.11878380894473244	0.7810937742539715	0.9787096952523843	0.5924708828272749	1.0738874646730332	0.8583044388081789	0.6181946381219784
-164	0.46783703447480035	0.5601963982743607	0.2518353157837784	0.14324341678216684	0.5663335309035193	0.5992468580375232	0.37818047308807856	-0.05357225225751192	-0.30094692035033527	0.3429922452849983	0.5981696232952173	0.4781475055066608	-0.2559250884747161	0.13933621311771519	0.5214649425692308	0.559146641273227	0.03327206513825945	-0.3468550136868821	0.453581272410573	0.7018437367839231	0.568822024816609	-0.09861199532884084	-0.4249853779076517	0.8169206956265299	0.9853531693376313	0.7546134572050441	0.16433195728297004	0.034865338267276294	1.2657438484659862	1.2059532373498532	0.7796312550888103	1.4152197802098725	1.056645390703809	0.7466300707086292
-160	0.2617360048838426	0.08828414954307227	-0.08717951156540009	-0.021562840735115565	0.35217398316159687	0.2780836515558256	-0.04902306931754716	-0.3242328754822025	-0.4182407547404761	0.33033692753359417	0.3559091678216611	0.184960066805207	-0.3481666138918531	0.2321468883852142	0.61200582826593	0.42325657499262864	-0.025864193150665415	-0.25902894073891336	0.6178811176912513	1.0534583303557152	0.6848170740003732	0.011507805407795179	-0.19147768568332862	1.0398207876655374	1.3844987119051726	0.9800064539008436	0.34315758856918777	0.24082979499094698	1.6271885592386066	1.344673749389754	0.900266704670557	1.6347051817629639	1.1739028662607285	0.8263993242380052
-156	-0.031730934897418524	-0.36906295921606325	-0.4852600979474282	-0.22786889912771216	0.07925286869066807	-0.10085707132386303	-0.43769660481571393	-0.5289778100009768	-0.49833461516447924	0.23124349058895682	0.06630330516049256	-0.033997867170566604	-0.37768146300327887	0.2782656245358654	0.6317831857942746	0.27947392989170144	0.009105299576480036	-0.13297818567557676	0.6858696324198044	1.325482365122717	0.7807812671022031	0.2125460053084428	0.06392795576406206	1.1209955187151686	1.6735198455519902	1.1785426110076203	0.5774865731917973	0.47208392500896934	1.854705805864193	1.4328311645571927	1.001512882565112	1.7159308151791046	1.2182215421437077	0.8918328858747117
-152	-0.46086034062377773	-0.8038231710166537	-0.9198611951491924	-0.4668733167781826	-0.2054759258804541	-0.5144616352443832	-0.7786074857127329	-0.708133516907966	-0.5078312145763089	0.0721806360448923	-0.27785363723221806	-0.21935385410240424	-0.41027915374167157	0.31542619983190606	0.6352247579749165	0.10336101029049118	0.0716634837963849	-0.03781817471373574	0.7196524721095964	1.5200455150373762	0.8330857732720268	0.44571089632036687	0.26026043230150847	1.123035785700679	1.8814939212979633	1.3541206087256443	0.8423268773746718	0.6918186527905268	1.9850550839851049	1.5210669002276684	1.1349804372742203	1.6934028821152547	1.2202618091292181	0.9784828399749419
-148	-0.9955103372235165	-1.2208242385558987	-1.32367515229769	-0.7019047123353744	-0.4383831907171482	-0.9094738937304104	-1.0484511825793557	-0.881810066857811	-0.4397197950705393	-0.08812971390884915	-0.6496880038070831	-0.4081314791865471	-0.48761954780490496	0.37286108638085136	0.6779194457104455	-0.1087975499267286	0.09394424384955599	-0.014006168546183176	0.7760053257423435	1.655394907586582	0.8308673480037325	0.6388242228591697	0.35747748523103157	1.1200369568203108	2.0424196668557153	1.501235481286649	1.0935457917260618	0.8680577256220856	2.067811722303081	1.6370868641528857	1.323894616599199	1.6263265568680412	1.213476416385119	1.1004183264606024
-144	-1.5068314037426136	-1.59120881155723	-1.601135249863772	-0.8656435587008432	-0.5686833248085669	-1.2163565128133944	-1.202506300751195	-1.0186723444968862	-0.3097658447551021	-0.18624855530922468	-0.9925377939914279	-0.6000654682268016	-0.5915442094172916	0.45968866232206373	0.7860028723899232	-0.3345437935488975	0.044915791487541136	-0.047068718701973225	0.8792322851870733	1.7460087493683019	0.778803406179615	0.7384812813233802	0.3751763095920165	1.1576156586983952	2.165000910061242	1.598800774352393	1.283682939149454	0.9854053830063227	2.127802843443732	1.7643485024729384	1.5451401433080636	1.5621036251683111	1.2145855396122993	1.2391746012872784
-140	-1.8083454324842323	-1.8320952607628929	-1.6685969787431303	-0.8814011193910396	-0.5847370609779045	-1.3764128650246474	-1.1948236196869126	-1.0467040512361105	-0.14182850682689974	-0.18408492161050186	-1.2412790028704053	-0.7543393950490589	-0.6495863778879977	0.5669889435758148	0.9418339109483614	-0.5342934118132703	-0.05479614795320767	-0.07531902920064965	1.0152585480806395	1.789125795615643	0.6940762979149842	0.7328861933324405	0.3759681572958583	1.2335208623260279	2.22222756778419	1.616012569162148	1.3792073691832414	1.047228333690231	2.146099800413528	1.845742936242657	1.734328146370449	1.5102344713228277	1.213644859110829	1.3495161499283705
-136	-1.746728415847503	-1.8330662204238326	-1.4960392675775391	-0.7013520580704122	-0.5199153410182725	-1.3676712478439592	-1.012983558004596	-0.900106845013673	0.045422036086082175	-0.0868197975350888	-1.3498916591895074	-0.8168907740949282	-0.5788936600374575	0.6779404861499981	1.0907735797045575	-0.6701843125588933	-0.14835634790157454	-0.027033073759372372	1.145473596541856	1.7638994410803344	0.5982611164247166	0.6533800943090835	0.42445301902418436	1.3062583175104254	2.1662461702967453	1.5274133643687495	1.3707667554579088	1.0678415271501507	2.0711066670579457	1.811440463261025	1.8119962169675077	1.4408531152586799	1.179122802618399	1.3790180648319128
-132	-1.293907043051253	-1.5187638959686514	-1.1267396183176706	-0.3412711909737765	-0.43240305672193163	-1.215204831869952	-0.7031078916917727	-0.5723819122168313	0.24028970240483957	0.05943283051148179	-1.311485883262608	-0.7594652156728667	-0.34245428356493623	0.7760672549681088	1.1631977528768067	-0.7253066879080039	-0.17824120774567054	0.133465230127968	1.227978703259515	1.6408839184340707	0.5064856397239017	0.5538730011307493	0.5460532889884744	1.3220052685738786	1.9568093965716773	1.327242847906358	1.2717038360913195	1.0594590875579721	1.8510254574771836	1.6146675307515423	1.7177799896739476	1.3060209718155291	1.074179885059563	1.2908432451082437
-128	-0.5857526645176682	-0.9128712988693853	-0.6644904000671655	0.1092795726878102	-0.3700107922748885	-0.979643938452235	-0.3634963622452543	-0.1399526592535871	0.4276412416628481	0.1882728333488145	-1.1607915133732993	-0.603710530664193	0.01741142939105509	0.8448535182603215	1.100556490026843	-0.7126662713177561	-0.11999828338128715	0.3791669001542984	1.2318284480465485	1.3956584895182933	0.419072954788729	0.48027238128521627	0.7101175171089505	1.2411006657736876	1.5856758316059893	1.0347835991482868	1.1071668835343231	1.0221307251873124	1.4675217829846219	1.2563614813555801	1.4359685146316692	1.0691056224533557	0.875035164531166	1.078371164460297
-124	0.12302539466552981	-0.15860910673627687	-0.23132292867908066	0.5148327337618178	-0.34074586543837493	-0.7286024671278933	-0.10265957538196473	0.26474431090270606	0.5767391905528457	0.2424928241806264	-0.9571618413601015	-0.41200512543607487	0.39272424479513346	0.8625844695247592	0.8764021374509936	-0.6673258526166168	0.006917474308281354	0.631533323124007	1.140992161731088	1.0224475834781384	0.3224503389800501	0.4487957943075734	0.848605034593013	1.052064296927228	1.0858807536365884	0.6903939825747023	0.90291517744982	0.9445143318171433	0.9542907452331646	0.7894608358478369	1.004175660459085	0.727476058553772	0.5848432168499814	0.7678555230781359
-120	0.5711786136511439	0.5238245116359969	0.07882337252266217	0.7482401113692372	-0.310291676929983	-0.5093438016429551	0.012525793133343902	0.5144744502429776	0.6405723078767289	0.19599218617070227	-0.7605590801110229	-0.2551463537926918	0.6599150283364688	0.8000483492679139	0.5041331040052014	-0.6296271665889026	0.15072277150247246	0.7980713228103504	0.9500759816024484	0.5402551279732977	0.1955117578338644	0.439615606151735	0.8931866265634325	0.7685458640721815	0.5197706805457679	0.34036368045704	0.6754116398924973	0.8108872750790187	0.38687088987903406	0.2973178319577034	0.49795424812480543	0.3146252922220812	0.23366060794010823	0.40648928182016403
-116	0.6127584561136087	0.9257349944583981	0.22855840565673302	0.744465826062299	-0.22941467108025324	-0.33640658770503734	-0.009753883791675633	0.5497522936292513	0.5727604017101995	0.05873928204249728	-0.6120655521198441	-0.17538152590817924	0.7396134119433856	0.6277443750744911	0.031857576140795	-0.6283216460576833	0.253345846490185	0.8172618726123628	0.6601850969812642	-0.009193313284849285	0.01886143716878055	0.4085637022670445	0.8103256205127183	0.41630959405695156	-0.044997654741643155	0.019092464771346674	0.428059576861148	0.6111868604487838	-0.14912597797413243	-0.1412848826655983	6.219994231954202e-05	-0.11645153880520459	-0.133596285840337	0.04350390646798874
-112	0.28572392391545726	0.9404752826787813	0.2371277952167777	0.5274013267552927	-0.07575832288211577	-0.1995772714344398	-0.0922774223143623	0.40732061760106986	0.3557704082089743	-0.13490854169639888	-0.5262426124637846	-0.16690726536095593	0.6335321648815031	0.3342204383518074	-0.47069832563769654	-0.6713984591699026	0.2762044959247363	0.6873548609545678	0.2838509373650866	-0.5686064348170008	-0.21611218099867308	0.3105743817594389	0.6169633849779618	0.02368409553151009	-0.5555623159687084	-0.26099583440689056	0.15584409197561108	0.3503257921433902	-0.590541599690056	-0.48065939424276577	-0.4286210824158369	-0.5144035803205185	-0.4723085451122383	-0.2844391159982452
-108	-0.2129490817177187	0.6067866667686396	0.15378646513735364	0.19291134129933027	0.11453768582036299	-0.08754154272627118	-0.13667897845569238	0.1942286486490241	0.022349361273844053	-0.34786873968034016	-0.49803283684874333	-0.18826135945472422	0.4147531975765061	-0.05466809482481164	-0.9305254197469016	-0.7501084189550047	0.20934872276379604	0.46055599930832297	-0.14552698992703617	-1.077680227419805	-0.504952965892017	0.11901763796559593	0.36547318008656154	-0.3792006661854784	-0.9830210184073928	-0.510927139422771	-0.1486941125215027	0.04849076258814388	-0.9163116789571347	-0.7217954378977955	-0.7677488903689019	-0.8455732443441673	-0.7525080423429588	-0.5609494433545518
-104	-0.6319564564961991	0.08484720417296936	0.02625675492810046	-0.1408249285241891	0.24963957008276388	-0.007511745188046366	-0.0818412003835045	0.026766661486995642	-0.3462083926996688	-0.5584431872573639	-0.5147612677929125	-0.1936626131413437	0.18321166886326357	-0.47103556871698427	-1.2897690502028136	-0.8499218800067109	0.06575480831949303	0.21238259917520363	-0.5706416950123627	-1.487851735173284	-0.8330216386744105	-0.1651495392921287	0.11280975462326762	-0.7569066863023427	-1.3201003041316668	-0.7568082194294223	-0.4894543873827157	-0.2651507549744033	-1.1462211579947417	-0.9056357718490791	-1.0378197405361902	-1.0983600588724152	-0.9660887693809287	-0.7886717299576478
-100	-0.7920399288207565	-0.41983020199636606	-0.11486939311828115	-0.386253564574654	0.2241132402722193	0.015157612002369631	0.06309828891320572	-0.02871445745430598	-0.6482263191069466	-0.7639936785482437	-0.5628737793062668	-0.1616552915067995	0.015062938406286124	-0.822308180640241	-1.519299145677383	-0.9587554907434376	-0.12986612287158245	0.0059769037028746565	-0.9205602384213533	-1.774321313192999	-1.1790097922121903	-0.5145419823053375	-0.1054316160401157	-1.0682069036217015	-1.571935411299189	-1.0246431801675413	-0.8611543156816294	-0.5606235847623875	-1.321360227109748	-1.0894116135748786	-1.2824196783112738	-1.276703831310324	-1.1239225836034084	-0.9808053945573958
-96	-0.6697679145115437	-0.7493532281076072	-0.25401824648619853	-0.5189127908956817	-0.02288648852888137	-0.04478451598304508	0.2270491415490247	0.01679056319825522	-0.8062564710288207	-0.9717677211068556	-0.6282280071609776	-0.1058038842987011	-0.06824484450276241	-1.0282561753061243	-1.625839706130745	-1.0686424943646202	-0.3505759230345586	-0.13103654947575935	-1.13677453707743	-1.9429434488832966	-1.5179040393652925	-0.885071752220975	-0.28292259502505374	-1.2766877380562753	-1.7495790675813336	-1.3266316618803744	-1.2467712132447224	-0.8138195851759854	-1.4808284006878425	-1.319366451747045	-1.5428028067737427	-1.3915564978752073	-1.2471629349691973	-1.151096460297191
-92	-0.3938834359237986	-0.8520650246088439	-0.3791770329438846	-0.5738700017745367	-0.46526926638435956	-0.18794040334458026	0.3211571864125905	0.09262789762475673	-0.8042889217097526	-1.1842877834937253	-0.6931056958819123	-0.06245693176117089	-0.09630551164869385	-1.0598109933798374	-1.6491346317616282	-1.171287533663877	-0.5708309993636914	-0.20699135906888114	-1.203269359411683	-2.0282053896241465	-1.823045487569494	-1.2292273013551176	-0.43112164626946314	-1.369469281553714	-1.8697985363482432	-1.6551432567769755	-1.6193956095817683	-1.0096995805043425	-1.64703046859708	-1.6119359690976722	-1.8370220614782982	-1.4568626843863506	-1.3570655550072714	-1.3066887822539064
-88	-0.15787069459634126	-0.7784852365866072	-0.47196641445209137	-0.6081313475513774	-0.9874151920184299	-0.376082300190315	0.2913378469740984	0.11790350049768665	-0.6938772184019371	-1.387256261184099	-0.7353663425952828	-0.06637232733896818	-0.11831047356060492	-0.9556087231351105	-1.6459149080682802	-1.252552863773338	-0.7668396811197936	-0.24937181111794765	-1.159583565645331	-2.079151625152258	-2.0681459851501374	-1.508348699576185	-0.5599776492285874	-1.370324965831949	-1.9561284731114823	-1.9859631011413206	-1.9481673191475124	-1.142598864531597	-1.823014135526421	-1.9488846014409285	-2.151549810699451	-1.489482399040932	-1.46649396049271	-1.4451421462765988
-84	-0.10554876896912593	-0.6300606115646149	-0.5118505941819447	-0.6579171402532866	-1.4283807241616298	-0.5431501851673739	0.14476618134188274	0.0488897188263601	-0.5650274739304985	-1.5492205580697953	-0.7353944759875457	-0.13237591054396441	-0.16817371504762357	-0.8055409172700987	-1.6654262500676638	-1.293027516915168	-0.9193903184566556	-0.28447231578530124	-1.0863165827980859	-2.1376712268264098	-2.2316405716819334	-1.701427217002527	-0.6651059968368516	-1.335509416069386	-2.035210842716201	-2.288165325109779	-2.206244463118733	-1.2148127525176093	-1.9987654635510144	-2.2857582511412464	-2.446884625932806	-1.5094891748464379	-1.575571294621308	-1.5553775986502585
-80	-0.2513488524766722	-0.49165570611800263	-0.4914697098244506	-0.7153115254462092	-1.6501779514611425	-0.625681815951891	-0.061747915886906216	-0.10141441945458934	-0.4965657579282683	-1.6318983990475773	-0.6862998587447069	-0.2519959503010425	-0.24675065216708408	-0.7057508212390855	-1.7247161821689478	-1.2751949993362892	-1.0193431351674949	-0.32480555690775853	-1.0652512285040416	-2.2169961873347517	-2.302464002518136	-1.8077450945035705	-0.7287740688997685	-1.3281677927816473	-2.124922747015457	-2.534537308969561	-2.376831287105157	-1.2339343993504355	-2.1575195734865025	-2.567583077623921	-2.671893589903287	-1.5350801905975617	-1.6710324245225037	-1.620880957325821
-76	-0.47796746967757126	-0.3884764303889728	-0.4286415566112656	-0.7356618028186884	-1.5954107005847071	-0.5958312138772931	-0.26118990712978923	-0.2789463393798041	-0.5131552206434945	-1.6052117307189584	-0.6002704485996666	-0.40389343994210486	-0.32916575587135943	-0.7073716503403705	-1.7957297518215039	-1.1938759058373767	-1.0727233859635088	-0.3696085801329596	-1.1332516641615196	-2.2915868701298265	-2.285202974271921	-1.843536372298643	-0.7339219432420875	-1.3827584947007039	-2.219848627207921	-2.7078909805594726	-2.455146544933553	-1.210543987078863	-2.2778150977799534	-2.7452669074365432	-2.7803027559656397	-1.5725213249558518	-1.7294303135123312	-1.624705310534244
-72	-0.6118139013102378	-0.2910659305853196	-0.36410638598066786	-0.6721031648833028	-1.3068335023310558	-0.47782099126340555	-0.4163695861317665	-0.4257762719371795	-0.5749190435199351	-1.4603495560969073	-0.5052737580893881	-0.5671458826051121	-0.3885335614408458	-0.7898995260322762	-1.8141875221224977	-1.0628685924398058	-1.0991681786442398	-0.41322305694201783	-1.2579226462075956	-2.3066222609457476	-2.2007186357248476	-1.8328748895145865	-0.6798084957125425	-1.4814177714138934	-2.2851290645125863	-2.8007724214413026	-2.4449613032600497	-1.1557438344385946	-2.3337311685768896	-2.787235252972673	-2.7425837447541084	-1.608254190199192	-1.7240939096790637	-1.5551661213711294
-68	-0.528711436844148	-0.15594813188280385	-0.34093785199871174	-0.5121592270318124	-0.8999382830786739	-0.3347870699059341	-0.5327523337264933	-0.5119373189398738	-0.6038519128812432	-1.2137514322154184	-0.43010708581098034	-0.7253388148114568	-0.41576102271014626	-0.8737185575360465	-1.7081896023538008	-0.9107150412454348	-1.1194450826991855	-0.451136528306638	-1.350506659912747	-2.203445667425726	-2.0783209748247655	-1.7939156248577004	-0.5861207828028716	-1.5575052460447891	-2.2651398124726	-2.808759205402461	-2.3504731595777106	-1.0773472758749303	-2.2966036738586157	-2.682616703889886	-2.5494306023126962	-1.6094862182035887	-1.6332433182488935	-1.4096157515222392
-64	-0.2305063152453972	0.026654828272518166	-0.3753992309629136	-0.293137191986035	-0.5064945804205955	-0.2336150997939371	-0.6386378391354277	-0.5436547980887684	-0.5316182361532154	-0.9019848085518699	-0.38674205443967735	-0.8605555870263721	-0.42267182362653605	-0.8651437141510188	-1.4355429374690474	-0.7677838782952967	-1.1382713289132504	-0.4800613212385995	-1.3113865819246628	-1.9497908304578055	-1.9422508429127554	-1.7270103649405604	-0.4835141288947532	-1.5278536042739492	-2.1070153660029294	-2.723242752829063	-2.169258112198931	-0.977003571904641	-2.1422746127400805	-2.4380702910856753	-2.2094457093722473	-1.5363517960859894	-1.4474992715529351	-1.1958600252476503
-60	0.14998100660127667	0.2103115910942279	-0.4407319117385925	-0.08733355976943316	-0.22011452857710725	-0.20861850626249637	-0.7498701195857944	-0.547919868039548	-0.3413963607274888	-0.5713623151658778	-0.36180066971032043	-0.946106908316876	-0.42940819155043103	-0.7096624952518841	-1.011376259157641	-0.6520605666863775	-1.1341840000127423	-0.4949799167533781	-1.0850857468865815	-1.5596522053441781	-1.7991725160950383	-1.6118950803114596	-0.3985542644928622	-1.3383114304132027	-1.7889804794920476	-2.5300171311397865	-1.8924918126962826	-0.8512434937919788	-1.8632037592576547	-2.073085302840914	-1.7461006597303135	-1.3620562519017148	-1.1755535572889706	-0.9315754747712586
-56	0.41754200949153836	0.31110730688703014	-0.47689810274835587	0.035192251116592445	-0.0710387302631684	-0.24625344512278427	-0.8467301108916919	-0.5468409047625479	-0.07947184125385881	-0.2677909725103857	-0.3246657840161131	-0.9490197872996952	-0.44523230082635123	-0.4232892681402054	-0.5109159933542261	-0.5622652158846465	-1.0654591295044933	-0.4858531939637683	-0.6940815431237112	-1.0913430424793038	-1.6341351229417713	-1.4167453014844023	-0.34048411164150466	-0.9962590311646499	-1.3372608389470442	-2.2159779015859797	-1.5133399925170745	-0.6953248960105867	-1.4781767092577698	-1.6168001849362215	-1.1961697309811214	-1.0902510853897756	-0.8452661612150597	-0.6414706690805155
-52	0.4182302345206998	0.2543268793360663	-0.42417159569458784	0.043493144104343656	-0.03752918904485247	-0.3001088492445868	-0.8821604825635608	-0.5418336377768991	0.1697453405147707	-0.029542384594597335	-0.24930508371829008	-0.8468190410214723	-0.4591398823590022	-0.08435660579364236	-0.043420467416094455	-0.48300397274140866	-0.8935524798721401	-0.440784989674631	-0.23182541073442978	-0.6234796031469346	-1.4191157782011348	-1.1174914808669598	-0.29945793672296056	-0.5709649906048082	-0.8208364227551629	-1.7817220642882052	-1.0404055092293076	-0.5095177876006152	-1.0323206160230967	-1.1072012158096272	-0.6093701704852614	-0.7591397147085701	-0.49877291791872846	-0.3534423401968925
-48	0.1217133548763047	0.02290092589139661	-0.2617460780687842	-0.03920850520367566	-0.07913950810717209	-0.3254248789677336	-0.8165414908774262	-0.5174207674314311	0.3294326058653451	0.11754065722353256	-0.13637755776782423	-0.6495797617724444	-0.4476596105717335	0.20876930601339735	0.2917506687427705	-0.39839678902176323	-0.6126089676648894	-0.35538291841426783	0.1817305977524628	-0.22165766302412368	-1.131221291547017	-0.7188156825037073	-0.256937652177604	-0.16121220547981913	-0.32582139886610073	-1.2534749476256852	-0.5086833821805111	-0.30482020897199535	-0.5854877814769551	-0.591938374932196	-0.04645093146159726	-0.42945819984727135	-0.18349929107590102	-0.09561814343629887
-44	-0.35862445740754856	-0.3201820842288494	-0.025364896218513466	-0.14772568605795958	-0.16531559783205366	-0.3086086801843542	-0.6527333243102588	-0.4571230698011517	0.3696629097665352	0.1654610778684219	-0.018643552390354215	-0.4083674837769394	-0.3909400095606093	0.38867348334410273	0.44693964606930925	-0.3030874423481048	-0.2647378437987643	-0.23812530874689777	0.4572822142023002	0.08706789441775939	-0.7691472153318021	-0.2627214186711038	-0.19767579386393844	0.15211138090829882	0.07896763811439618	-0.6841980797659436	0.022638633790079576	-0.1016548645910062	-0.19250102292573243	-0.12470275877224152	0.430479138002729	-0.1608021255247998	0.06019680559338091	0.10778877856935501
-40	-0.8148691037585407	-0.6500359757224033	0.20891998655500912	-0.20679064042810677	-0.28056660223696517	-0.27112424305174415	-0.44374176747821625	-0.35735568313974053	0.32007142820610324	0.1302043345263453	0.05738169312890788	-0.1982583547593411	-0.2853886775917645	0.44935148840941136	0.4453704345902694	-0.20217999764895314	0.07131841760749018	-0.10727070244885592	0.5748127088339242	0.3184891931122129	-0.3577855220344531	0.18201155914606343	-0.11524863512028768	0.34134611401207	0.3673359742427013	-0.13983459735374631	0.48743247862774974	0.07842932621704694	0.11516166449319937	0.24592730340855798	0.7751629332998597	0.011741570167401188	0.21094292349009489	0.24185247658225992
-36	-1.038183805705559	-0.8301009514831456	0.3658249368968154	-0.16552345412902186	-0.40837341443907954	-0.2466787540645053	-0.2662139528229	-0.23006735684005708	0.25033774908757767	0.05354825393746982	0.0631434319809285	-0.08250617960126223	-0.1457099463837123	0.43987175711201054	0.36678990629097025	-0.10127453480423527	0.3135204307269917	0.017819471612286312	0.5827216491292027	0.5116289245085847	0.06122073888223097	0.5449405894826167	-0.011416234978522453	0.4353890109990608	0.5578767047148487	0.32357108511293214	0.8366278388835063	0.22209995928956278	0.33636858974408895	0.4917342948419406	0.9743967627719708	0.08824201650990304	0.27286457946550213	0.3056230537327705
-32	-0.9101554728416963	-0.7683172206554003	0.41396883025556463	-0.015429291835215086	-0.5116056786971809	-0.24801155862180158	-0.17429844991070012	-0.09211119986166459	0.23135432542563683	-0.00447341612342079	0.013353237848542823	-0.07687132041119658	0.005870233740737814	0.42752042304819343	0.30701383870812565	0.0053555797650305164	0.41541087522529724	0.12697312203774583	0.5605574236068538	0.6978978497051099	0.4481874693045316	0.78225958149819	0.10932291271503308	0.4918234037856548	0.6937512141832	0.6812514645542669	1.0571118566526434	0.3301562658557361	0.493564813083016	0.6179518684044211	1.055724975781511	0.09834757422412362	0.27411234309607985	0.3147403887908519
-28	-0.4505042720387793	-0.45307072882703836	0.3832675208905579	0.2133952969885419	-0.5302683101617506	-0.24816428062249174	-0.16454093116702495	0.04778384405231195	0.30046719236807173	0.01559412568595754	-0.03385127327240194	-0.1376282718283109	0.1531282957502443	0.45492994670450065	0.3317964366642019	0.13725982571756207	0.3881650855277746	0.2221760744207488	0.569426654331684	0.8781750180007167	0.7819948772714108	0.8928396083224264	0.2422877991042779	0.5571718797921593	0.8133801797358107	0.9475668048776739	1.1739759415550386	0.4148274649637087	0.6168694480580329	0.6653694493660937	1.0779232951605853	0.08394936450982328	0.25695621902440463	0.2988139085377885
-24	0.19395704518462958	0.04270994279926271	0.3447437873719457	0.47036579132533424	-0.40622255103546756	-0.19319732438424056	-0.1780686373983203	0.19164429556621637	0.44798028355981545	0.14680404924044702	-0.007328924704465776	-0.1850422765113059	0.2905319325741251	0.5170176016151883	0.447972415746725	0.31502619306182833	0.29157522247131706	0.3092953852950777	0.6194772108650171	1.0215139363247339	1.0636655065384408	0.9127751565776053	0.37819319867970597	0.6405488832513914	0.9293951368708796	1.1639350623308167	1.2330515353542513	0.48833116765708173	0.7282217126580295	0.6963393670621025	1.1048290701628452	0.0798191649686687	0.2621661716041005	0.2916638545778743
-20	0.8103204349086358	0.5891325458911233	0.3648658385601561	0.7039720994341891	-0.12328055469858844	-0.040964096681167274	-0.14034660125107423	0.34158962878768506	0.6273255928413566	0.37479898238921855	0.13118576970357781	-0.15137541255879283	0.41533326997799563	0.5694546685146578	0.6054040774319204	0.5379943238026751	0.19803540358612165	0.38348650835490977	0.6718248111929045	1.0861467095609048	1.3040287461735862	0.8908180571953281	0.49542736882057725	0.7156372052244397	1.0266174052068073	1.3711026872350147	1.2719492880178849	0.5490383491959342	0.8333702662408214	0.7676323036840156	1.1727795571281276	0.10175321225463729	0.3129003040043142	0.3162415019634078
-16	1.2025686472094725	1.0447617742863633	0.4631784844625295	0.8736891128416019	0.2646339529031831	0.2000523055509391	-0.01259720881083026	0.48494094487778416	0.7806066254934522	0.6360855086479447	0.3550411453819886	-0.023833310171393104	0.5148569928521801	0.5621916041485348	0.7289023976996458	0.7687734346053593	0.15173211655455057	0.4207406629430115	0.671598134729396	1.0506489250359652	1.5041575393847404	0.8595932104342585	0.5580582008577316	0.7476847152906223	1.078728673118757	1.5804949958951928	1.2966808047935174	0.5753903374449841	0.9246187186738629	0.9021813250651982	1.2690731254961547	0.1466630246512645	0.4057381142862787	0.371713696971822
-12	1.2623087135869637	1.304481979891314	0.6023620947888437	0.9540088152640888	0.6434206946340638	0.46212434652001577	0.18137380434973813	0.5901671037078778	0.8649356343366332	0.8426414110843574	0.5785387739833607	0.14653263949114753	0.5621278271787862	0.4768859732031747	0.7631815652652294	0.9395102238776595	0.1482176776958547	0.3853286196993647	0.5906785115587595	0.9356535053472051	1.6424672562138867	0.8197565654084935	0.5274232612645147	0.7255179267685546	1.0712372037544315	1.7613171294566052	1.2785693374777942	0.5342191444260677	0.9900217627325215	1.0752239200148128	1.33541345259154	0.20158210345872074	0.5137523399733468	0.4310153115834523
-8	1.0011101935860263	1.3325877155991626	0.7163855415377054	0.9347217655424287	0.8868191815874433	0.6495241506390093	0.3708181073840105	0.6201848968106485	0.865611491402035	0.9222789383491123	0.7002045494520936	0.27627107431278225	0.5260635005066867	0.3429818442745112	0.7042280417782085	0.9799320076997071	0.14456413649776545	0.2504541569585301	0.4503394055917468	0.7991574386447055	1.676690216599589	0.7443672399800895	0.3826730539673914	0.6734272224590004	1.0125613187020734	1.8497694684056478	1.1723214358295406	0.39921238917648805	1.0193849776280215	1.2220637767455182	1.2956521478365808	0.2523942583387484	0.5988695010324029	0.4510670590933276
-4	0.5382718430280486	1.1693974703828214	0.7566089611024414	0.8226948955745674	0.9181250906652029	0.6931343657159769	0.48590406652795565	0.5571771250008862	0.7949830273584003	0.8544436671618899	0.6602132899781717	0.3029128305416761	0.3929325332257752	0.22348464969000506	0.5996221884847263	0.8536950328254012	0.09297632402549218	0.021496180390683187	0.31040552180121656	0.7051446420032502	1.561216469637714	0.6003764256578097	0.13938364351367546	0.6347558482356523	0.9257639027110411	1.7766560271229563	0.945502278801801	0.17051498548848976	1.0037045453479696	1.2655740944380944	1.0952019663816093	0.28743305729775404	0.6283116324773863	0.3933287252985969
0	0.05089613037372359	0.9101015902429553	0.7228693347800024	0.6437327249486752	0.7486826162509325	0.5922682270355503	0.5029448854146039	0.4203639615889821	0.680955885121572	0.6791873557109065	0.4749252784182385	0.2237163925483067	0.18280148460011614	0.17882037117632957	0.5154780732491716	0.5791758880297564	-0.0269793811504362	-0.2566433244424462	0.23073878826059546	0.6804095489489401	1.2683817116185059	0.3708942821198411	-0.14909094534425416	0.6362051947743516	0.8246977308432534	1.4977216682767218	0.5997034892199946	-0.11872141778297131	0.928235528509702	1.1492450208258522	0.7297387700730225	0.29399481341522044	0.5858108386508221	0.2433056527193762
4	-0.29292002246334414	0.6653158647905758	0.6585040075842634	0.44133347161446934	0.4691830563620423	0.4156241406437651	0.4560704517770759	0.26291954450983696	0.5540456161815831	0.4718987333781198	0.22589585128017745	0.09436931437269848	-0.05113977553449875	0.23008421005332477	0.4887117433130117	0.2200970793173933	-0.19791604528526027	-0.5150122033467834	0.22924466373262187	0.6855745894289111	0.801749406220864	0.0650881601716858	-0.4118062247369616	0.6577921493135082	0.6918765289004575	1.0116903756348143	0.1714092935764418	-0.41385316744267003	0.7674907426530314	0.8595598914379131	0.24799072679850517	0.2532194548412579	0.4726693618284752	0.01868565934649142
8	-0.39435437222097997	0.516227244027462	0.6114007815183427	0.26587268643010015	0.19536378930358306	0.25659400159901913	0.40466582672947665	0.14428687059213158	0.4382451463601969	0.29547578021789306	0.006809517724010929	-0.014206434564187418	-0.24560521481016614	0.3423503032623881	0.49191406245012925	-0.1518262620907356	-0.3833178570129436	-0.6945260745633237	0.2627852254431748	0.6195627435300538	0.19343556414880628	-0.29056540058208197	-0.5960692748279249	0.6315897091178221	0.4752865719716324	0.35757589249930727	-0.28853505776990157	-0.6648800952337232	0.4896602320229278	0.4264790404996294	-0.27368917992156533	0.1399745490593256	0.29895815177778073	-0.23986786543366798
12	-0.2574297481236272	0.48090037582098427	0.588101147120534	0.15415957531154437	-0.00039467328943318256	0.1690492327713576	0.3786857118582415	0.09237989759963366	0.34620198520037165	0.1576365824534158	-0.14016793632881108	-0.07330795358984425	-0.3621740332042508	0.43753960618177196	0.43355339656086994	-0.5005643355129299	-0.5618506059766357	-0.7805479149184966	0.24409526524904462	0.36069089083204936	-0.5113151656592791	-0.67242777177793	-0.6992319804657491	0.4740729618024247	0.11049461336848886	-0.4043306996150732	-0.7436126451791382	-0.8533069469842484	0.07194057088808492	-0.09580853557239198	-0.7697793225880493	-0.0690147204444794	0.07170565408245702	-0.4907235788830361
16	0.016219254542170665	0.5096508847720626	0.5377454148067216	0.1102924269633406	-0.1274089213969208	0.12804540959454783	0.3448501220579565	0.0820391474083038	0.2768170230552241	0.0025803230172068863	-0.25525075132775227	-0.12564943699107714	-0.4112174798596791	0.4306260634517294	0.20000512847471852	-0.8452049472450299	-0.7494583707007255	-0.8147633055143315	0.08790174849490062	-0.17084477798719935	-1.2685582605758847	-1.0737506124089744	-0.7740153054722518	0.136860265982319	-0.4387322355160716	-1.2121087282095562	-1.1872365444726087	-1.0017173264961754	-0.4774424421653928	-0.6524061544159127	-1.2121733396443295	-0.3795742680979873	-0.2086883480048356	-0.7115104776538346
20	0.26984935930786214	0.5126971589495521	0.38321801923319687	0.1010528502297141	-0.26082178884458584	0.0442584714666177	0.2219455087541785	0.04660395893609112	0.21539242511250506	-0.25337606604500984	-0.4358100582086911	-0.2625498168992287	-0.448308645547054	0.2707539789993343	-0.27849733759184475	-1.2393021552267758	-0.9907926296014554	-0.8751359559852268	-0.23773208200514612	-0.9590300297365799	-2.03804897747466	-1.5008100233333166	-0.9020392871970571	-0.3529068222672601	-1.1422474355468886	-2.0093278834157045	-1.6339123207801634	-1.1592503756818777	-1.1022745343035112	-1.1995005577320503	-1.608414526693233	-0.7644785623322673	-0.5386079536190885	-0.9043264366206039
24	0.35552641659620227	0.40751325981249753	0.0818462369759753	0.07201629858908086	-0.4817220258471385	-0.1739483173270123	-0.060637928392378956	-0.08094382265635426	0.13838346267570842	-0.6602888090629114	-0.767576930969159	-0.5595169649302815	-0.5418066964775285	-0.03349909550434541	-0.9724984740499569	-1.7201915935954712	-1.3225638833033033	-1.0320303414037733	-0.6840724331750743	-1.8753095817902619	-2.7724881102181578	-1.9523339222253717	-1.1461561889321006	-0.8883048869593637	-1.8908443403188504	-2.737383358719875	-2.0906965679789447	-1.368588324906158	-1.6983642535245425	-1.697603340631261	-1.9726690004134715	-1.1575461596827625	-0.8923919774412933	-1.081068393838863
28	0.19282571922732658	0.1646722103968113	-0.3251366607086499	-0.022396480608065185	-0.8130316713786888	-0.5499804006042308	-0.49909117691870314	-0.3219406298615402	0.021967576761215246	-1.1852966517086465	-1.255873200106813	-1.0113854382729133	-0.7304598074590499	-0.4162405420761536	-1.7424051717635696	-2.2617814483758547	-1.7335424379450035	-1.3056994643624222	-1.1353017063087485	-2.7124385765257744	-3.4056959066236123	-2.3983039795405676	-1.5087776145989058	-1.3216339316378656	-2.521436684918164	-3.324823132703651	-2.5300891335504936	-1.6342208344207418	-2.1369166320254585	-2.0960035271177677	-2.29145764726028	-1.4647016488288394	-1.2088863819118445	-1.2395534484085142
32	-0.19954416105435066	-0.17158476965021752	-0.7119011860993508	-0.1897634859062387	-1.1942795484907764	-1.0072916720707856	-0.9923685764053378	-0.6305329783732673	-0.1452321406512379	-1.7083840327045672	-1.8026477052952485	-1.5126876792862995	-0.9969370339972582	-0.7807322720843215	-2.382868045512767	-2.7644698550046374	-2.1509978716902243	-1.65155922949568	-1.4557136260472716	-3.2566621221335534	-3.8541984460796312	-2.7765073706145045	-1.9228039931388559	-1.5275778731879144	-2.8721275257075596	-3.6888816263523627	-2.886501781805301	-1.9131970357275032	-2.3050279559113207	-2.3261461199205025	-2.511600964880741	-1.5915527303567156	-1.3981358969674826	-1.3492864336279862
36	-0.712236283411432	-0.5009446131456369	-0.9257778501978834	-0.3893812288943788	-1.5135781726769955	-1.401769396103817	-1.3838219607701014	-0.913142440397784	-0.3499561539397489	-2.0717093892243925	-2.248707050368093	-1.9024883460649038	-1.2743332353843024	-1.0365998718792968	-2.705095045889408	-3.0948343198840482	-2.4681279596956998	-1.9827915380008296	-1.5475788077382469	-3.3664944086909703	-4.038990010554484	-3.014693729418659	-2.2828395309032543	-1.4569078647069762	-2.8427679466953815	-3.7570772076163426	-3.083705179058265	-2.135747665735075	-2.1465806906863616	-2.3172566832211445	-2.564038270198789	-1.477260109032728	-1.3723100389165368	-1.3604578937514533
40	-1.1896169155603489	-0.7135973554714417	-0.8745058156822523	-0.5499841556968422	-1.6771634774779105	-1.6020191867435594	-1.5467047652294674	-1.0797716351904036	-0.552102862394679	-2.15867685726654	-2.4596159396061066	-2.0515248723686152	-1.483479138443601	-1.131404039387437	-2.618901722971649	-3.1560695091673105	-2.600081198803468	-2.217969888809344	-1.3908383811167666	-3.023320428844511	-3.9198365112520457	-3.0685245913280377	-2.5009460386075935	-1.1528577775458568	-2.4330091415012856	-3.5022094161303055	-3.080089799733897	-2.2457416000887145	-1.6858714776390304	-2.0328714796239624	-2.413535588846594	-1.1212003202740997	-1.090571043122122	-1.2359275786666921
44	-1.4910160265471308	-0.7426778059328412	-0.5898607954391504	-0.6072187408375255	-1.6709614949954001	-1.5683293302993824	-1.4619630538269035	-1.0970745058971454	-0.6967322212748253	-1.9579471300282774	-2.4036114155165476	-1.9399927805557855	-1.5793161352338014	-1.064607617551382	-2.173039907691092	-2.9474847242325106	-2.5354282791974136	-2.326656335678492	-1.0463132831859496	-2.3322789610152483	-3.5227394015063287	-2.9522900506821705	-2.5561277801827504	-0.7226946931712515	-1.7405161813661172	-2.9708127900458052	-2.9039266036149454	-2.2379381600144224	-1.0226205561568398	-1.5087239704187434	-2.1036522335346137	-0.5902806505558882	-0.5946901425605939	-0.9884822939711495
48	-1.5413950642769918	-0.5943775758041809	-0.2233713859640566	-0.539511560031602	-1.5700659712251734	-1.3783141339788927	-1.2357403008732808	-1.0090855334554167	-0.7366740088937085	-1.5723040064215494	-2.1713495199695294	-1.6746200280824768	-1.576766606164616	-0.8799515940384066	-1.531581994004526	-2.573910229860144	-2.347973579200721	-2.343813413424481	-0.6223429425739377	-1.4745941124879454	-2.9409103319303838	-2.7395214965318595	-2.5065696176186636	-0.2805908315250052	-0.9207231975197577	-2.2834317626522473	-2.651932471255564	-2.1668488924631926	-0.29876002593904755	-0.8641681053277983	-1.7624357894269254	-0.0006183358475786915	-0.010990144657163326	-0.6966035944517247
52	-1.3519846166808662	-0.3404504350172916	0.02884790852833085	-0.38168972634269205	-1.4890038929538834	-1.1820286482531523	-1.0415543291498082	-0.9111166573409174	-0.6568372233019726	-1.166729804907989	-1.9244869898844845	-1.4311867916212808	-1.5391378363850465	-0.6438842995599563	-0.899877545945801	-2.1965727750633177	-2.1582891886578994	-2.3435463846165616	-0.2252467716013734	-0.6373319609763407	-2.3049147070865335	-2.52850698786357	-2.4543676314375946	0.10497030589304125	-0.12961858478245522	-1.5994389016777473	-2.445506089711921	-2.1177439636168334	0.349009781194717	-0.2705285840356852	-1.5541319807868872	0.5208706246576759	0.4907173799999951	-0.48068737862341715
56	-1.0093473170546092	-0.08024289438730714	0.03098263956234604	-0.2098095560737135	-1.505769010556819	-1.114601728486255	-1.0216622326805607	-0.8940497018176011	-0.48890432591979477	-0.8857788421201602	-1.8050590707981937	-1.3564629520501137	-1.537809010437779	-0.4219652105645078	-0.4392763961191747	-1.953180665806913	-2.0666737504279022	-2.3893079697366204	0.07975355515609783	0.04541764024354109	-1.7359605983774358	-2.3907287060458993	-2.483371251512073	0.4303355802161499	0.5229544030337625	-1.0591511699638398	-2.3653156697636257	-2.154007667825203	0.8311709740634518	0.11740391671818246	-1.5939834077645192	0.8806586243329472	0.7689655403749854	-0.44352009780485624
60	-0.6433538182227947	0.10171721104928386	-0.22118876818602073	-0.10751857581410916	-1.6122407872502842	-1.2234210937129164	-1.210612651629471	-0.9949124430332841	-0.3074139348851703	-0.7891573289974069	-1.863305087153517	-1.4905471764125113	-1.6097528893836406	-0.26334643297464055	-0.21396012550216864	-1.8951611471011645	-2.0990872330120816	-2.4919321474102585	0.27943965722104214	0.515466569552759	-1.3072366681472987	-2.3333413542010426	-2.6061940127376197	0.7340556364599812	0.9903042887480435	-0.731387970985149	-2.401528113977618	-2.270626300801033	1.1259788246336782	0.23599427878878476	-1.8700935793391364	1.0514380905307987	0.7812146524732708	-0.6031782611876926
64	-0.3867219080697941	0.16110075969553173	-0.6067772492347888	-0.1311004754571196	-1.7265309051791975	-1.4561970197151797	-1.5292183122172809	-1.1837460964833744	-0.20497325011001	-0.8417482354846533	-2.048532719208445	-1.7576657489268837	-1.7390643314323437	-0.1958695198120642	-0.19273538838839754	-1.9792293260194669	-2.200424427198979	-2.601758235084634	0.39585494895173423	0.7760404328780276	-1.0323007080717919	-2.2994649352191896	-2.751917355265211	1.0512332889718676	1.2768014637182197	-0.5917943105061376	-2.4499475894107903	-2.381926768964851	1.2754472461923418	0.1558569218753666	-2.217251295213746	1.082334396490696	0.6189663394559369	-0.8551836588249081
68	-0.34262189182562147	0.09003552026666639	-0.9603298282219151	-0.2935728125312761	-1.7635204747498092	-1.7165975527338788	-1.8525923443750831	-1.3947126830173853	-0.25639146501658366	-0.9612315868904453	-2.2664122524260524	-2.0303122946023477	-1.874541397130336	-0.22988137544766624	-0.2978100769153382	-2.115899319074982	-2.280322545970034	-2.6409940652925803	0.4568851280598091	0.8576841332715675	-0.8832690693489395	-2.208053583292388	-2.8039309907692656	1.3755941356260797	1.4121024572959902	-0.5423938618317284	-2.3600332677383884	-2.3542869031593905	1.3633273805529853	0.06718207878793923	-2.3649558961286696	1.0832936736412893	0.4863336372017673	-0.9907991265077195
72	-0.5658064470311013	-0.108601003611078	-1.1768645018428507	-0.5729648456412629	-1.7166948275139067	-1.9481140325952178	-2.1073656028947454	-1.5804111917648502	-0.4867486345399682	-1.0887627574134917	-2.4612603125420187	-2.2249515000435482	-1.9715846727184552	-0.36294531730569707	-0.465152560490184	-2.240596288746114	-2.2826201858110347	-2.5572273666667904	0.4758915889168974	0.7911615947775639	-0.8228937366690361	-2.0102920481471567	-2.6668970517536708	1.6550371605095433	1.4318786823360867	-0.46125233056915343	-2.011250490832725	-2.0693268723694462	1.487639781056998	0.20825633354059428	-2.044171089733373	1.1899999350067083	0.6267659648329733	-0.7715120892119398
76	-1.0530952188606604	-0.4435415554769212	-1.2758213249420078	-0.9338636970784086	-1.6913628535483227	-2.1851508562231365	-2.330211633521078	-1.75106858765051	-0.857581553678168	-1.2328574626313527	-2.6638162068822986	-2.364109510174996	-2.028898472431845	-0.5800728783267165	-0.6767988187868527	-2.357839339979035	-2.231417650311036	-2.3634402692251477	0.45325353627210296	0.6048519596087598	-0.8263958075639724	-1.7262656645106167	-2.3241500795813037	1.8260368062646393	1.3774234021696181	-0.25501859123693826	-1.3759967053958764	-1.484379049368148	1.7393823818160623	0.7685038427977209	-1.1041654320495915	1.5228325090107473	1.228490230319686	-0.028695931585698504
80	-1.7398186878147166	-0.9311012602186228	-1.3815032208849034	-1.3436526026180402	-1.856380338750285	-2.5303449566852234	-2.6429283552199476	-1.9686219642527298	-1.2762521473133566	-1.4545134269231046	-2.9665694161856693	-2.559462064003067	-2.0924880451777907	-0.8478249886088068	-0.9461564397765594	-2.5262844498747965	-2.219062084317451	-2.137088531820557	0.3971727778420685	0.3442446878801791	-0.8781174995186537	-1.4357229434958145	-1.8506003571517189	1.8661566925616617	1.3096470799759297	0.11208995403361613	-0.5337542281979933	-0.6570709331135468	2.1906764451984437	1.810250277717155	0.4168791164363425	2.1532280390735097	2.349166387348954	1.2579153744409513
84	-2.505201810233811	-1.5642924269282268	-1.6316875178148944	-1.7707229807969933	-2.334676975077797	-3.069172851442978	-3.157521478310373	-2.297607892911256	-1.6257821280440374	-1.8027775242112416	-3.440508356944655	-2.925286762481304	-2.2225856724890964	-1.1085538836147446	-1.2708183494907719	-2.795570128058441	-2.3412482679384037	-1.977626914753371	0.3455228796818378	0.09205097681885172	-0.95059138296452	-1.227782961606567	-1.3748185599902205	1.8288930608350646	1.317824718009177	0.6206854566162084	0.368673681282018	0.2773666970879549	2.885640375481182	3.241464368265674	2.2990312518248985	3.0836429518092765	3.8887631794976127	2.938624136181151
88	-3.192879430339023	-2.2773127498350547	-2.0717995114470655	-2.1693155710763494	-3.0982880514121938	-3.7778241538988007	-3.8718628785606675	-2.743571751343411	-1.8049054100243507	-2.245835775427222	-4.049765099791196	-3.4775757701811467	-2.4429864821743372	-1.2852268186545284	-1.5905830819979576	-3.1400568405981195	-2.619215243402376	-1.9458774279103128	0.36758851912197704	-0.035407237619173894	-0.9883092616878034	-1.140440937977597	-1.0112056706647246	1.8341617537920383	1.5051827392722887	1.219823714991225	1.1867471903402382	1.1636333436197255	3.827569236628431	4.8480486747410545	4.220260609462054	4.243566979184705	5.619431481478803	4.739629733516984
92	-3.648417940465144	-2.933692209466308	-2.6035325461458285	-2.4665729937267256	-3.9374880691298433	-4.4906296616664	-4.628278243777367	-3.2208492674571265	-1.7625130370463593	-2.6490044526930103	-4.627083289861927	-4.087690343073128	-2.7063646248199182	-1.3016300168553017	-1.786209578772725	-3.4398505600865743	-2.9612376615146823	-2.022306437154909	0.5374470339557292	0.07465268652664613	-0.9172496176449523	-1.1292985649207068	-0.8025190809969054	2.0129537531575266	1.9481524179863563	1.8513237191188867	1.8373088790282333	1.8869503688855054	4.962460028517135	6.366592867989619	5.869321331464347	5.500323758543438	7.256679039753598	6.3550944167857395
96	-3.770823230759738	-3.361442557431142	-3.0266473216888943	-2.5729818279154664	-4.536934841145438	-4.961623179306602	-5.174597727108736	-3.5789899735688993	-1.5154765806082988	-2.825644962806118	-4.939508902476448	-4.53047512817957	-2.9038584159014946	-1.1149296732409815	-1.730672831934182	-3.5325896650770403	-3.196177474535408	-2.1119804329001837	0.8878105856414894	0.4719780373577932	-0.6853517276626586	-1.090521332848505	-0.7066611629764417	2.431037658275672	2.6441223554610738	2.4565617976155267	2.313280815006085	2.404295199999684	6.16526363723572	7.560883502944296	7.037572366112453	6.679933531108422	8.539268472092763	7.542069416077734
100	-3.5533754735877934	-3.4211258801869504	-3.149518958723034	-2.416754239656339	-4.623556602248761	-4.989642130651876	-5.2964572772771445	-3.6758818533596713	-1.1422407598266906	-2.635793917676925	-4.811001765502314	-4.603110301793791	-2.916891090658019	-0.7454957943214173	-1.3656684125752732	-3.3080232059882544	-3.1641533294899187	-2.095268244221675	1.3717539275821864	1.0951720448500077	-0.31069075982806904	-0.9267036891428421	-0.6328467114683167	3.034197322814242	3.478998890676211	2.967553369659137	2.6511034898581207	2.7341921260466577	7.2443575676167375	8.273289659592908	7.654092769371562	7.59689376820372	9.289774871259928	8.179626444192179
104	-3.0900528352922385	-3.0742819231616463	-2.902752868952992	-1.9871158549683663	-4.1085710421781245	-4.5353999023370575	-4.943908202086924	-3.4566373737801537	-0.7539440970459065	-2.0760214276351365	-4.2301182640086985	-4.244944561731276	-2.6833853653869686	-0.28614658045049246	-0.7573391179990964	-2.7871315408910258	-2.812432758859983	-1.8963003110692356	1.8579931212245457	1.767746444053715	0.0970491838985176	-0.6165849550892382	-0.5046810495032381	3.648056736318717	4.2403421294919195	3.2976841843316187	2.87618588675078	2.91639827945626	7.974905470740543	8.439660051018567	7.760221461730566	8.090369204122121	9.440776801115502	8.274044015975281
108	-2.540580266260212	-2.4145555435254153	-2.3851797520498996	-1.3618416751810651	-3.1436531464362076	-3.757490625431461	-4.27316378468249	-2.990934841234016	-0.45367437486547707	-1.303779479549765	-3.374036542003227	-3.583260765565563	-2.239569181509938	0.12051095038028652	-0.09251147485264313	-2.1320056861455234	-2.237509960247437	-1.5294545850285741	2.170234913115044	2.249740833324467	0.36508077290867347	-0.24450756547707625	-0.3114408246760288	4.038397778805491	4.679940211878135	3.3489565764751172	2.963641636041694	2.9696483537084135	8.157431581882493	8.074742296812943	7.448201637536651	8.060660341892442	9.027244545079492	7.918407897030647
112	-2.061333174269511	-1.6336549479246731	-1.8109974815421728	-0.693848608172517	-2.054581636963559	-2.9380125925272997	-3.5707876592127774	-2.4422292647690225	-0.2986964575855551	-0.5730772003963809	-2.5261955197450163	-2.871706478497929	-1.709752078507998	0.3335370114965383	0.393420874079187	-1.571453448142752	-1.64324533524482	-1.096933123680095	2.1573615019689574	2.3289649427741037	0.33191960966231926	0.03252444035543899	-0.1168169301779164	4.0056872266725	4.604339111147378	3.0426690501640685	2.8407654690545634	2.8738517688672687	7.683236102733042	7.246720772566826	6.801873189919206	7.496561508325199	8.157306650547358	7.234113674972924
116	-1.730020399494118	-0.9344350672017829	-1.3853477204632096	-0.1516122069107264	-1.183286425464027	-2.334184402294617	-3.097788564490237	-1.9813417146249734	-0.2777548425337523	-0.10972658517075524	-1.9282669972373068	-2.35209249856288	-1.2451651064906597	0.27526050736548935	0.5261501656599713	-1.278656479468236	-1.2340288131075212	-0.7372909765702209	1.7626554921470128	1.9130809258797739	-0.06604675931944638	0.06605344249022496	-0.021090133062401754	3.469684353651388	3.9548323054599543	2.3626093804790766	2.431079619945488	2.5859017306843604	6.5801596475407464	6.057576164210485	5.869440540753597	6.483321650348715	6.977248174217638	6.324681266075172
120	-1.5064363441580397	-0.43421903142971857	-1.1819388836583473	0.15885260661073078	-0.7221245747454142	-2.040201181982776	-2.9432697221832163	-1.6935405688443383	-0.3132030657966864	0.005498629515146426	-1.6509652096073484	-2.11971497000529	-0.9460743045762663	-0.026670018143671797	0.2820474498303486	-1.2716178861937704	-1.103604433134382	-0.5545666799848941	1.056334254458867	1.0766836377616766	-0.7446174006735802	-0.20038896748494173	-0.10174605224670173	2.502164834380883	2.836980574120882	1.38455950864269	1.7108724074083677	2.075173611169992	5.013920294500492	4.631780612695526	4.672648894910459	5.182884203223069	5.6395974016854575	5.257122980196279
124	-1.2514870135181555	-0.10819602730375466	-1.0951634617811816	0.2509824031215183	-0.6280567630169702	-1.9387497852967777	-2.972359649783111	-1.5313333234271511	-0.29075893686317905	-0.11999975859624162	-1.558206196665578	-2.0708098359277134	-0.8094931820458868	-0.4413571644607077	-0.19163617443338624	-1.3954068387086869	-1.1827577322662042	-0.5661607966433964	0.21276447123215422	0.03928697844361463	-1.4897346458969847	-0.692397175471256	-0.36607015040480223	1.2937585082768477	1.4841808043201254	0.27115753224576716	0.7438424806888118	1.356068846139854	3.240395060941103	3.108109704753485	3.2383179582852146	3.790003528562875	4.2788619887086305	4.070478429054084
128	-0.7980215529320887	0.19597469220750485	-0.8941702820136773	0.261480897004848	-0.6582500917981613	-1.7684669449979409	-2.89812111122848	-1.3390995230244331	-0.10418198231381286	-0.2450051152480826	-1.3838238681187294	-1.960976714905272	-0.7300603967354184	-0.7837876657724386	-0.6379265769111188	-1.3970364296927318	-1.2742103306070858	-0.695236323508674	-0.5584472403731984	-0.9154849029315427	-2.037672514539209	-1.2313197820093194	-0.7417792659151208	0.0751117018949025	0.1729924078388404	-0.7700505237210925	-0.3262123457301955	0.4978644835300003	1.5273922643245523	1.6281878907103877	1.6301146704525324	2.479141467510911	2.996942035737892	2.7986352373036323
132	-0.03926309560757149	0.6776515228328566	-0.3504471471998465	0.3914116909158485	-0.5043535219810243	-1.269663569105809	-2.4385850367966557	-0.9383456683309782	0.30258545203107384	-0.11766172915792689	-0.8775331951873958	-1.5418317279035136	-0.5554109201713612	-0.8897737242168552	-0.8033733943683141	-1.0527143451815073	-1.1554783553514354	-0.8102447370099622	-1.0934272976925474	-1.5430328807019948	-2.179753774861641	-1.612377162677186	-1.1098812790505412	-0.9675627922425025	-0.8713780619555604	-1.5491410454738657	-1.3216409649859313	-0.3938474943230898	0.07774066905421195	0.31837853708946673	-0.03919697170494074	1.3614777292209854	1.8572146845657445	1.4896597824633357
136	1.0120407317359195	1.4785851202827396	0.6358424409071644	0.8126624206052375	0.049252033109293145	-0.3255902222519231	-1.4698480330550427	-0.2245288485580276	0.9127373076282685	0.3992300619536194	0.06238266437396826	-0.696231244236753	-0.16371229249628838	-0.6823529583869351	-0.5473177419195472	-0.2770300500551135	-0.6902022344329439	-0.7870382050670577	-1.3278255429122112	-1.7174167589696037	-1.8392549706752364	-1.6900684790856484	-1.3578506673862707	-1.742481823336557	-1.5374102553652385	-1.9479939888409432	-2.08900975653606	-1.2110511033953317	-1.013797042194437	-0.728807030268246	-1.6190793473373886	0.46982517719858635	0.8880257584085852	0.21205335801945682
140	2.222689384570744	2.607821457954458	1.9793844173047808	1.5828727443785695	1.0237264607332102	0.9769148205887945	-0.09107202268495172	0.7774260620516227	1.6418746668370259	1.265480395936744	1.3406500782497055	0.5041375743535482	0.47843220709171164	-0.19988855669099337	0.10468465808425698	0.8432266094852847	0.11394964874823543	-0.5598371014765618	-1.3018197980437873	-1.4570083581378137	-1.0854231091751585	-1.4258871042491021	-1.4216357433665863	-2.250595563928388	-1.8346680356434821	-1.94308912263476	-2.5385377342982056	-1.8724157762937228	-1.7556198791047783	-1.4655449353409924	-2.9488465711529006	-0.2245436901145392	0.09412532275992644	-0.9526259279041464
144	3.3973903570229997	3.931154002754844	3.4485022934631684	2.610230916108775	2.245558494620427	2.3942210613837616	1.4292355739748401	1.9256926726359571	2.3690919816284812	2.2921054305380633	2.7203929355602567	1.8454090310234683	1.30510079531181	0.4273481656252275	0.9854475830947171	2.1020624584531786	1.1270822258149744	-0.13759900594780006	-1.1181473703764122	-0.8923726655364348	-0.08472243675060828	-0.8787773229346514	-1.2967835632008509	-2.5432577068967626	-1.8515241099341155	-1.591252799784963	-2.6492221288551803	-2.3337664545265073	-2.214993709693933	-1.8858751010964723	-3.888961782173503	-0.7734858374140489	-0.5281765447632841	-1.9243813704542092
148	4.366753567161042	5.229980932382726	4.774808394774602	3.68937944434427	3.4386556061711344	3.6472158339923486	2.7891104150925727	3.0325069350926794	2.983001939871598	3.240640155239801	3.9434909720993065	3.0882356088869147	2.188983911709675	1.0408450338787718	1.871306414647964	3.2775823987225805	2.1776549761151087	0.415532558107299	-0.878047523665864	-0.19805157134597615	0.9790902113036696	-0.15272058507984881	-1.0197998259546108	-2.6689011983245385	-1.6908402400242517	-0.9911522244224774	-2.4456348357443107	-2.5802335673991106	-2.4600996909018824	-2.0107052275436965	-4.345563400741153	-1.2110004394474005	-0.9775024627801514	-2.6388029985561685
152	5.058566080673173	6.297064288453248	5.770105824207518	4.59016131195832	4.354214657280591	4.54647682949415	3.792038431130369	3.950999011554838	3.421688309613631	3.9368133445526894	4.845491397068068	4.082882394019105	3.002562515307442	1.524678226436202	2.5820486480372282	4.225845803081985	3.1395401875385107	1.0180871460959589	-0.6311851723947529	0.4772382366529079	1.9723772952826772	0.6615617258535209	-0.6371217353947487	-2.6405987672894278	-1.4182075226263404	-0.2432934784707116	-1.9677880952744273	-2.6113750868669947	-2.5187258656806235	-1.8694478226192703	-4.284068096788748	-1.5295814237123357	-1.2410227028985181	-3.055815212163959
156	5.516787515063149	7.019410115639509	6.390865786629507	5.15624378809868	4.8729529257768105	5.058306681259765	4.417987812331981	4.632176387535836	3.6911106016427557	4.341458786493704	5.4076919419132965	4.821018683659397	3.669683685574417	1.849240417579957	3.0490899009016417	4.920157420133949	3.9768345255582127	1.6060502488595416	-0.3630187800301973	1.0551131937090812	2.8383932041984923	1.5179387292684643	-0.18173631979834678	-2.437912696405287	-1.0435339186070904	0.5748600349217564	-1.2534220187012584	-2.431161159099335	-2.3701729714633983	-1.4865188561101819	-3.7298569585090418	-1.6822808938468263	-1.2964454856565384	-3.1607899586030244
160	5.862419113616784	7.411681633356395	6.724272234151995	5.366452680390219	5.035485254925782	5.286162363057532	4.7955274460833754	5.124349104341315	3.856002321044559	4.54804991527509	5.729321465332217	5.401580796909195	4.181849945954295	2.0695853181085395	3.3247351562481846	5.425418363224743	4.725674617280244	2.1466951316040417	-0.020523520134726556	1.5347722730034294	3.5807328133777316	2.4054720341031586	0.32915857351168215	-2.0352761694067096	-0.5378420339356585	1.412476536045656	-0.341296224924519	-2.050410980769865	-1.9693716714728218	-0.8793694950789998	-2.759516709036308	-1.6070101220565811	-1.12107157424171	-2.961461298141315
164	6.223602756045946	7.593518237969323	6.917149049460926	5.332886682397572	4.999477373852143	5.393244729730534	5.104915129170655	5.524161324858985	4.006913651840303	4.718247878559981	5.950972065205953	5.943346962228378	4.578685272100819	2.2825083674977185	3.53684996665625	5.836379036473056	5.434923635112366	2.6317346029593907	0.4422540951530233	1.969434256349678	4.225561608136414	3.313745251872245	0.8803002812094622	-1.4345111810705902	0.13088609245156496	2.235399002153401	0.714067338094309	-1.4967249594093042	-1.2862476077983744	-0.06722965819551106	-1.4848313294115616	-1.2589312760039382	-0.7035072428107595	-2.4838745531312854
168	6.670281870213601	7.724108676482387	7.094982606140846	5.239887701156541	4.955687987213432	5.517218575853077	5.473317609319629	5.911118969298271	4.2193755996986635	4.9957208507293025	6.18022917140814	6.502276881013749	4.909518229486983	2.568781846236617	3.8183426760590744	6.222248061682912	6.1089415395995985	3.060521594903541	1.0275895569606395	2.429078095978984	4.790771949116622	4.2018532646904125	1.4427783452800644	-0.679179487897816	0.9655718182980969	3.0145358963196927	1.8324944926725906	-0.8214302638295609	-0.33762416158311254	0.9155434346925644	-0.033106319522718745	-0.635162709539862	-0.0540584361678464	-1.7698106721063647
172	7.1880101976112964	7.928896407136002	7.312972527160299	5.256691919406351	5.04455422081475	5.71936892019133	5.917015537581724	6.302859767259417	4.522159564998661	5.44057987746869	6.45550630846948	7.039648515094028	5.199987875207475	2.9495632573998702	4.2443508994708115	6.6034855675868345	6.688292486470618	3.425494662219377	1.684615250148916	2.9641902371908215	5.275283323320594	4.993029104978042	1.9692074010722356	0.1558072861075552	1.9255878876707067	3.7187552358197857	2.9140438959935766	-0.09618935709748107	0.80270188844197	2.0081684538684605	1.4709041081485068	0.21692196970054703	0.7881016711364552	-0.8769141413483215
176	7.696186523079983	8.250634172589562	7.554632644653193	5.463517652068981	5.3057575091872575	5.981773838199475	6.351631148514454	6.651499731436558	4.884927737300532	6.009093746272589	6.753196222421254	7.451730709335602	5.440129266355326	3.375575772346021	4.80062435845454	6.960495931217941	7.077440720809158	3.7088272477924833	2.32811378844886	3.579899778864454	5.66450212955837	5.598396763972096	2.4049856602030193	0.9900140737333649	2.9318118021376818	4.312623966772804	3.8605048558995243	0.6024694427538132	2.01751374688991	3.1204240243329906	2.917935840869004	1.208557364273515	1.752695436820902	0.12095037817220304
180	8.0900611673187	8.63972375595779	7.765536765519637	5.821925148570095	5.673264489155388	6.237039073455871	6.650423033136054	6.875684243962588	5.2284154759962975	6.578062994561421	7.017014485762745	7.6328306005409665	5.594786629856455	3.749936332771701	5.389900670748498	7.254195671839946	7.197102528520958	3.8887951275871315	2.871950857540891	4.225185383619542	5.937680706291756	5.952546104661208	2.708060019331629	1.7613908007973615	3.8833362958138045	4.755063998614735	4.600156295606181	1.2129265039338097	3.17434047851205	4.140172947921092	4.2193460357949295	2.2289967480649513	2.741801254979473	1.1357034416135205
184	8.282855966636626	8.981743789884312	7.890921572789741	6.1979756198801805	6.008875354854683	6.40295646958238	6.709255678403776	6.904666406365001	5.453104005397275	6.994628411753102	7.182389241204589	7.528440933293539	5.624332890615598	3.969659318438267	5.867015346973099	7.437867145833007	7.025711995506411	3.947743167446847	3.2573923982394977	4.798680770202611	6.066874011934813	6.037216648118089	2.8627142833912376	2.4346914229911785	4.676768291109775	4.997978197830537	5.1012258400869515	1.7010408596960684	4.155302990912677	4.951085078136919	5.306294427826039	3.1675624767438846	3.641212692604307	2.0726139493112203
188	8.228076914040557	9.145990348612695	7.894378165340828	6.42195986080027	6.155116542534776	6.403072817848687	6.483155234180923	6.709033472288613	5.473693356999345	7.127218705302622	7.184039097767807	7.149533730575872	5.502213464196625	3.9641749758770404	6.086730464826575	7.4562711527445495	6.60610817195033	3.876701822029896	3.4633195312797627	5.172397123629185	6.011022075735493	5.880443558151354	2.8800659106972826	2.993895523141824	5.223863588495583	4.989827143468792	5.368913160120335	2.060637707276028	4.879823195534855	5.458437905835468	6.129021629117993	3.9338762660841526	4.341938484673645	2.845489256350376
192	7.919879416497147	9.03382966621765	7.754986743421029	6.3571715194416285	5.989047989029498	6.174585803655054	5.985986694481563	6.306214316658906	5.247796045405374	6.902286988951574	6.956544858535046	6.54962394968083	5.222240434813157	3.716503372345857	5.950031265495193	7.245686989610451	6.018565639559221	3.675615778226066	3.498776665437068	5.231446729803341	5.718836293086961	5.536001191467276	2.7861554552306482	3.428852549478966	5.468280301593089	4.69033955343513	5.43161772310289	2.3039734305386173	5.317450509951193	5.616927132730243	6.661283953061025	4.474000442653209	4.768612849593711	3.3967060957027058
196	7.383593063786198	8.612083413315172	7.458897094968144	5.951171383137578	5.463881001982615	5.677542195290828	5.268987642336733	5.746201023852833	4.79161452037304	6.323013766537145	6.446376307424416	5.7907795759863765	4.798140036866574	3.264225474699297	5.4376845222513905	6.751416189314176	5.343019948820962	3.353599539872819	3.389616242433863	4.920377242063326	5.150897489894404	5.060464369395186	2.607388728234481	3.729568233610479	5.402107701967679	4.096150864749766	5.32768295850324	2.450192206872331	5.4911308149936495	5.4508094649977945	6.909675103862121	4.780811297744065	4.905529963505841	3.7149279023791317
200	6.669624311774099	7.924437979718059	7.000238400905198	5.252864347547119	4.627503383397244	4.9129891271527795	4.399825561859037	5.091448294182682	4.176278580611916	5.469670281905742	5.641004071298605	4.924666392290534	4.2610182654565625	2.6836309365228233	4.621752727283833	5.962852462972588	4.634823310594339	2.9314458296196846	3.167351476301912	4.277005661656433	4.314663876130447	4.502719390944959	2.363253349059604	3.8914072415331735	5.0760850778213245	3.26508306632616	5.100245939729318	2.518794291812653	5.4699168067159105	5.055136667840034	6.920647126844672	4.89461802200507	4.807123172067282	3.840877523261701
204	5.856299385543855	7.079911214119571	6.395764811580517	4.395636070597642	3.6127040294987944	3.944173564489551	3.456001749849874	4.404818046892819	3.5084681422344985	4.483630645875966	4.6019616010825795	3.999305238163223	3.6590237525111204	2.067992205167005	3.651885500270842	4.94792746248327	3.926281680684626	2.4451565680758405	2.867147676858438	3.4364623936675165	3.2927727616145264	3.9100201031194812	2.0694343991483493	3.9273140331295293	4.596915710287214	2.3235511721121127	4.800531375208925	2.5301058228509885	5.3522076471620235	4.573880184069738	6.7776551075523725	4.891669737863344	4.584203231681615	3.855747451584143
208	5.049130427010472	6.220612987071561	5.701005444438132	3.553173771470383	2.59809612571888	2.901367657011909	2.527395957287762	3.747501125410906	2.9010093138884243	3.5351333528910525	3.47464346008418	3.078734151696548	3.057078115374271	1.5055091343062545	2.7162880828942293	3.8589601419294257	3.2465567506838475	1.9475150059167374	2.530506842900025	2.595912688376981	2.241116279665822	3.3409786140013633	1.747672314999783	3.874078263992086	4.104679097302697	1.4447021447899777	4.492005336864343	2.509551757198537	5.239858137252807	4.158481110564077	6.5843634439168515	4.86036776269213	4.367159355581649	3.8540632627456217
212	4.363493431518639	5.477232442378593	5.007440554374029	2.882520429962936	1.750213499418721	1.9538737486146114	1.7124882893241489	3.1786084094857716	2.4403223929781825	2.7783942152447505	2.454883092404311	2.251497262992274	2.5299541886350627	1.0602877113275475	1.9863852212345543	2.8935561107059478	2.639968150149296	1.5023081264713187	2.2034196798006698	1.948734516945763	1.3474554981543985	2.870174639131069	1.4339162075079444	3.782959928498261	3.7321660424418104	0.7994825223764896	4.246567238576544	2.48993920651258	5.207947717869263	3.9207348724558324	6.437432749707738	4.870879637818178	4.259217728351733	3.9110495945414425
216	3.888802280144487	4.9284601087116195	4.413786400141661	2.473394864513335	1.1678531140405901	1.2528337208588105	1.099578258599259	2.7489569117759816	2.1611959879669667	2.30636286153234	1.7192684368595208	1.6142181117310705	2.1462097113782166	0.7586562614360175	1.564486738069704	2.222490543476275	2.166894668830264	1.1711407870288104	1.9264749239920145	1.6158087212775307	0.7662879209245008	2.5759606296352406	1.1773933142499629	3.698246946534406	3.561699143000372	0.501164196656435	4.130644787849933	2.5080850061036073	5.282123552337748	3.9009084603049615	6.400794013075388	4.9515023106492935	4.301461685764609	4.0594859020737815
220	3.6459271815755585	4.578678119543465	3.982694138961998	2.3184816778774757	0.8516841509296907	0.8705263711885153	0.7388485651435589	2.4870855745465184	2.037762875180461	2.1230804866593904	1.3522903885077922	1.2369266717198948	1.9464156578512757	0.5843341931848848	1.4556901418172894	1.920771117129279	1.8863291692792248	0.997518179282351	1.7210073427618078	1.6064397056075208	0.562876282701341	2.5163705285436255	1.029686209939965	3.6366352943156928	3.5996706394865345	0.5706604108707749	4.187191475787	2.596228831412071	5.4343452316409255	4.0658059017526496	6.493786318596221	5.083054052870868	4.466723430800244	4.286457050945314
224	3.563918343129046	4.362079132510979	3.708623161489288	2.3177485407485894	0.7144363504491819	0.7701740245447554	0.6222462638403562	2.3854598938796365	1.9950035760101583	2.1488649790869667	1.3121117320311695	1.132836100579195	1.9266855668061187	0.48744141932444346	1.578405376263933	1.9419406603421272	1.83327161802921	0.9956266258851797	1.5816962679029631	1.8297781898077443	0.697916267540299	2.7079777649220467	1.0295934651129288	3.581630459325783	3.7837552928761355	0.9417304372852926	4.423910606659069	2.7728848387327814	5.6018571712204395	4.337622631565646	6.698334676997022	5.2152972089700915	4.684997069928111	4.550453651383523
228	3.4977178485299514	4.17546128172482	3.5201253802116588	2.3185050428981686	0.629535256226891	0.8273236134622035	0.6871742588813543	2.3987338482376024	1.9392073105489185	2.260973924650476	1.4581956826587419	1.254502650908308	2.0389652200718342	0.4071507443638889	1.8107757522641683	2.1532380526538066	2.0072109648572063	1.1501141757537725	1.4830390177476909	2.1521429961227576	1.0623531314730896	3.121455661522158	1.1915079325157185	3.4987254054426904	4.021654595711777	1.503732677477854	4.814805972340854	3.038096181828446	5.722607598161668	4.638630855292978	6.97928808357528	5.297874914144904	4.885974871697303	4.808389174719115
232	3.2900969899080255	3.929063310239981	3.3214332973545435	2.181043619371324	0.4962838577615148	0.895693895939579	0.8461580851172268	2.4606637892586125	1.7972401335162989	2.353660100716515	1.6288574892881038	1.5208284816491688	2.211472267289494	0.3012105814958335	2.0517883248978572	2.4130537448994462	2.377840512947946	1.4256043398150018	1.3983333075504805	2.4703595575904562	1.5417367180999817	3.6960549261236806	1.5010516605626258	3.3637638007114146	4.241916168947173	2.157538885391361	5.31299208253325	3.3737587843592753	5.769470677114395	4.92716644950468	7.303670387901557	5.308993802971812	5.034159170792167	5.035798060100774
236	2.85243438954207	3.591193905346559	3.053179256360067	1.8446832848705155	0.29008856342508277	0.8832292534463301	1.0273940537262698	2.5138938363501717	1.5491963585840776	2.3888485371358517	1.726262445859807	1.858142609673265	2.3802890717491367	0.16956423180207794	2.266555541991731	2.645923607821638	2.9005045817577404	1.779125447549766	1.3212988343257843	2.7611973215961516	2.071723455920524	4.362747658205092	1.9180581521245317	3.187052718699071	4.429096687578592	2.8522872852791354	5.8657703251561735	3.7470457459259716	5.764310345401349	5.205217348308285	7.646674613720125	5.265710340556677	5.137367235564551	5.228820787579746
240	2.222064251057918	3.206648580084533	2.7367598941370983	1.3626072372366274	0.07281324994061872	0.7965103963769135	1.2037652700549621	2.5376968319718376	1.2406201331287217	2.4108893810438268	1.7603863433261426	2.2294249478319363	2.5162782605537464	0.05764395356525746	2.492040151026319	2.871236793898285	3.5282099157900024	2.1695046370090996	1.2756847110965275	3.0793633383252086	2.6522033147607393	5.061590658760019	2.3853795468186823	3.0160400791314466	4.6227173688524426	3.582686653628536	6.423799021714816	4.115613450149846	5.762266621346451	5.494878278210506	7.9832625187541115	5.20942591305596	5.225284086386283	5.3891377312973
244	1.563021179067667	2.8807239459739415	2.475678437658204	0.88799321427262	-0.04280589882652823	0.7285088878358322	1.3936243022065344	2.5583341057081856	0.9662304496212021	2.51541804632252	1.8269554330475983	2.6333832674297155	2.6339979105250877	0.0339930019414491	2.7994730401884795	3.168876401529996	4.211296547747625	2.5608723098948927	1.3038107123835483	3.504904976578822	3.3130395328798863	5.744114861290961	2.8402931618505556	2.9126658366098486	4.879658209878533	4.350655544740748	6.941577417013996	4.433805931341117	5.8137721868597225	5.800033077855104	8.275203683941104	5.175558077142933	5.314088807994349	5.504563317706317
248	1.102128383714891	2.7341477801910568	2.407655471445058	0.6100935920570738	0.04473042476804798	0.797556219471502	1.6351422030173537	2.634478085542186	0.8303238728540426	2.787873261088738	2.03411769353378	3.0775659006619	2.7775371004550444	0.15131317040864328	3.234408370434978	3.604745617348477	4.888680445726116	2.922761432897836	1.4382740222857604	4.071331013890799	4.056001176130431	6.364618762159642	3.2288250841636743	2.917437069202783	5.2220983373403715	5.118954645584183	7.3751067929030825	4.662006366403394	5.925433620751388	6.079918369201684	8.46923349149566	5.166460501024544	5.382322297812309	5.542301640822707
252	1.0276828978341221	2.849391930061836	2.6314320497832746	0.6660004241340929	0.3709471514396234	1.0746999951885599	1.9534369657788002	2.824980728646418	0.9006845332293776	3.2457933343954917	2.4241208968948196	3.548699608426259	2.991483203964565	0.4111368049731793	3.770323267000624	4.1654453172420505	5.485105977514964	3.2315564073989655	1.674071426933349	4.718790519244647	4.814259040121776	6.873558027079528	3.5207724482337066	3.021373025895326	5.603916154064362	5.791573986689937	7.68537185635924	4.7790093301277645	6.044700607297192	6.2553553423305255	8.514750459154177	5.145211206797188	5.3759074075391995	5.46318577340771
256	1.3996939623779776	3.2334630407712273	3.1491842190388204	1.0706655952124786	0.8873734451778104	1.542425986210424	2.341973298835621	3.1559286037874172	1.176691886792017	3.819027652635104	2.9392342493235315	4.0043001073827895	3.293455830841928	0.7533951382689111	4.305570591546472	4.745866286693377	5.926177963553464	3.475844612882661	1.9593555877807638	5.30449389072121	5.460728631537693	7.22495172583834	3.7213354016763085	3.164684764501394	5.920003399207481	6.240519507864808	7.85152290269268	4.794011103924118	6.081529601955184	6.248927577454175	8.395609834454978	5.057042109119403	5.242466436501593	5.2513098584153015
260	2.1181123203206154	3.8156134985909893	3.8561546705162204	1.7020502047481465	1.49000870805297	2.1084904617481066	2.7698457171126467	3.6046705154962497	1.5870420892700814	4.381610859298824	3.453506937844454	4.394673813214818	3.6631100085280255	1.0793908807205397	4.709486949474434	5.200672613364925	6.169504150072913	3.6632697489756203	2.213059896603723	5.669556603422562	5.865767464133232	7.397898178496175	3.8728907010525795	3.265005341869569	6.057611450160103	6.368951304568137	7.887641409986743	4.751186358854017	5.957946285464224	6.037249549881921	8.156076410682301	4.866401660076798	4.974139201003517	4.940346228524139
264	2.965959779880446	4.478002536911903	4.585761058673532	2.35230063798191	2.076979870320705	2.6654367379603605	3.2084262290058256	4.109240998383709	2.01933168855097	4.819703089943236	3.852322091866839	4.702039706756421	4.053285111684163	1.2985390391943434	4.895170676270032	5.4321040970030285	6.2364334902664815	3.823457708242205	2.3634343087606853	5.728251919589068	5.974150642570528	7.42028711352876	4.043163766189698	3.261542788854019	5.964227661333374	6.177324756284857	7.851696471417827	4.721351134777732	5.66077421666495	5.684794888448787	7.9010834494425515	4.588725078441438	4.631922710168312	4.6174850347286895
268	3.7062981035117595	5.104715334401872	5.187479006067914	2.823723309063411	2.6031451159557664	3.1590735832564056	3.6565008071134377	4.5966071966466355	2.3688666760717987	5.099299894809832	4.111612309565466	4.967695700500987	4.41552971678765	1.3753567899311834	4.878700244030123	5.461786256351917	6.221625312355871	4.001109589965308	2.3873887001796983	5.530244813307982	5.856398567672511	7.376668434592255	4.299592484109172	3.1512482086728912	5.693986401487104	5.793454632437142	7.836078147177474	4.779512393328399	5.267436014227858	5.336523996231162	7.7638125223599275	4.297349918959805	4.333535183455848	4.397425163610704
272	4.181797970704182	5.6243080950834345	5.594300255956316	3.020218126301074	3.1002120893406855	3.623362770469198	4.143471230536055	5.012126909953018	2.582163565792065	5.293851839051301	4.326478470369416	5.283126817716075	4.723581302161017	1.349078294208956	4.788660037348272	5.440525994869949	6.265708907520449	4.239160050179718	2.326859229888795	5.257308469850352	5.70048140040259	7.3878621868528125	4.678249347319415	2.995628587788938	5.402609334656842	5.4434800010575595	7.93793676279555	4.9754829281119415	4.926690089184838	5.16763399726792	7.8520197670102725	4.098559369229769	4.207592476712056	4.376355636991535
276	4.368517864641939	6.027362331431543	5.844365105178478	2.9864349289834142	3.6498474982618276	4.159064282407087	4.7059812426961765	5.334897504688637	2.6745457581705168	5.552441582966296	4.6679601551456855	5.743488774103821	4.981365191280684	1.3132612672074053	4.814947592976482	5.58503387948435	6.49785278587111	4.558186042721423	2.2710673751712576	5.150592314113925	5.74208591918793	7.566596012085147	5.162712084133374	2.893572084750707	5.288099275589262	5.3723001344465	8.221014002071083	5.311265932024913	4.800415980616931	5.313502775128396	8.199898699084844	4.086869706325933	4.3375148663681635	4.589522350167941
280	4.362143028690017	6.353205187969708	6.045521244044387	2.87343358268058	4.323007095866462	4.865902888410577	5.351347909767954	5.572861180540474	2.7126567295251016	6.020892604885377	5.287563310624796	6.387072070208422	5.211589800074423	1.364563104045349	5.118150221300325	6.071362956930804	6.974477273498315	4.942250239292037	2.3114366473013903	5.401527867984767	6.165082915953216	7.968842486289298	5.68473719115279	2.933125726923793	5.502920613700455	5.748564705640078	8.68706796360193	5.736682400524814	4.992412554534042	5.813467011079243	8.750801064332132	4.302204121218057	4.723470199103437	4.994132029322181
284	4.30893324717763	6.655514700298491	6.305688842111893	2.8508846687818226	5.122039781989968	5.7690076682349485	6.034296497368626	5.745538697041761	2.773556940705572	6.757449609861688	6.2230248294116635	7.15919063667942	5.434660421001702	1.5497883519144922	5.746535763537046	6.942358953114319	7.6485461995613475	5.341133104190717	2.493523829840322	6.062225803328384	7.022012692842411	8.567922570531161	6.150103553503243	3.1474368492769966	6.08202122106405	6.600121481444205	9.27374455971593	6.168034537955042	5.499803052367994	6.596336824929103	9.382283187066406	4.711259830024158	5.28303860284203	5.488054738493847
288	4.3242273221512235	6.966720563465409	6.668664438577059	3.0150713844470025	5.9598121492595615	6.78274677471481	6.66437385783838	5.867873653855697	2.9037663863301937	7.689171771663368	7.358390789527318	7.924999217051847	5.652506337199741	1.8411050988443933	6.604934675706955	8.07844827519714	8.38843343524214	5.689884648262596	2.79287528286566	7.021311265384465	8.213149050003539	9.266995406595761	6.479479773374773	3.497958651294236	6.923952562016991	7.809242228818715	9.882130597913788	6.522713167888422	6.212063296846566	7.513959388835473	9.961275075558206	5.22208117120272	5.8896207660749615	5.955088600382327
292	4.4418234712989015	7.277519207700249	7.088015061602773	3.3404455100598383	6.6877527068088956	7.7330779834055425	7.142865162935237	5.944824680577919	3.0974280755995456	8.633304574150268	8.461848237608056	8.527980782912278	5.846464619180746	2.1517102664027807	7.492030124822235	9.24636647750966	9.038243270942836	5.9359807818270545	3.1261868397939043	8.055321673082679	9.531107878463121	9.944116567300746	6.64379261246798	3.8919227024998895	7.83365390707129	9.165889716848588	10.419868442930643	6.752649290202176	6.957118970472073	8.40333555007268	10.39999482390123	5.722077355243085	6.425909502971694	6.312275393761523
296	4.615829456119588	7.542094211609898	7.454436283364416	3.701368322564123	7.162483197248499	8.431063630752185	7.41160295522549	5.979359611673588	3.3052689945694267	9.376780486274635	9.28599736730218	8.865522362260263	5.991244777811794	2.3841772019273084	8.189862230604325	10.201703999511729	9.490705466150576	6.061863883926222	3.393580904975733	8.929283119545572	10.747067424343314	10.507779094869333	6.676662905048564	4.224966038527322	8.605866410462218	10.450818035442834	10.838795634560942	6.861021501384862	7.5718641089956735	9.145634628093575	10.684386226381452	6.120298847005007	6.82532070344033	6.536061270424301
300	4.766394126302194	7.703124026877165	7.659191112254198	3.9499757190159173	7.317076664570591	8.760026909645754	7.48564146059276	5.9856667367492165	3.4678668888274857	9.774766897318155	9.679548239111295	8.940615631418815	6.07596062079859	2.4837834772342986	8.561467149099705	10.79246232168964	9.735040640094237	6.092165454742052	3.528908005387849	9.49563405500532	11.695127457655259	10.93420216660766	6.656934244514878	4.426635254174162	9.107897735488656	11.508071870358973	11.148206682668913	6.894525033709941	7.962872008246511	9.695313429196004	10.862626048319134	6.374065383076954	7.083034974335074	6.656764490486986
304	4.835263716887591	7.722721557192676	7.657486896255083	4.003628720665735	7.196405392597424	8.729182221308102	7.449119549063875	5.995312675598154	3.550552120781201	9.816150640499805	9.651794409225312	8.859855629486484	6.118014320185823	2.4658775267332422	8.606934525693896	11.011291476105411	9.854743932638694	6.08207367315132	3.530453673032262	9.742377256591826	12.31537720431926	11.26628300683369	6.670471651402086	4.486472118494524	9.321894622155396	12.275344817640546	11.396981210544237	6.915958863917056	8.129190424422056	10.069786046353578	11.002808543082395	6.490510924164793	7.23564289173542	6.727876169384595
308	4.816047179460523	7.605030040613598	7.496817569878507	3.8915462395644385	6.937481862672531	8.466692903123167	7.414959411973607	6.048553451525746	3.561297884532757	9.623257612727535	9.358886695121083	8.778290726433138	6.159240707105662	2.4038867889747144	8.452472665427136	10.975264521545492	9.977565740189927	6.0921935881343146	3.458330145687501	9.772928213240768	12.643165556457982	11.576433152535012	6.770080072476283	4.451473224845095	9.331603980346214	12.768018690298032	11.636125535196802	6.971889001410124	8.142083147473	10.313798878379107	11.146984072198368	6.508760912674624	7.3270139509224546	6.790923101445876
312	4.747076976234998	7.400901775748113	7.29430578297525	3.7354936505419296	6.704546434641251	8.156799295812311	7.46935365698398	6.174108012823741	3.542856684322969	9.386520362043502	9.020803428762747	8.821160294195996	6.244748099773077	2.386178249056656	8.280887582852534	10.849088641431926	10.204680417045717	6.1610588871853	3.4012272272067943	9.734368299702867	12.75891205427366	11.914506882150206	6.952754003136902	4.398715008120386	9.265548682661425	13.03481194066204	11.882818192044667	7.071259480742977	8.096440294805035	10.462450954724988	11.287951440922049	6.475789530616756	7.382229786354337	6.855941278314192
316	4.675255286810617	7.1888046083148565	7.175240975384014	3.6758556273160363	6.610200865268855	7.9518866338235625	7.628848533442866	6.36777494730182	3.5444149881520426	9.266814208476102	8.811152435944896	9.021847702136576	6.394290431091076	2.466260188551734	8.238845804394227	10.753013583691095	10.5540351601212	6.286592944485545	3.4303173932252675	9.733805631857608	12.728371588042174	12.267235724948618	7.16313312629349	4.396794308051994	9.2268848186233	13.111638989723442	12.102780311545468	7.182738762840669	8.058776835122295	10.520253154896434	11.376417131311488	6.426593287454832	7.400023441704921	6.903278810238133
320	4.619564521570363	7.04354284415524	7.207663994711333	3.7888834380810836	6.663956625326006	7.904351691316624	7.832789878142807	6.584946615759862	3.5926344303978537	9.317158675512081	8.776756264461914	9.307970977171019	6.583872301645143	2.6363391809659538	8.368909814685964	10.704447719250723	10.94664284803377	6.425793631542544	3.566626301343645	9.788263296209863	12.5670346896458	12.552309958237663	7.320355396862118	4.476399410390073	9.247249579924423	13.000514951307714	12.221115081449337	7.251179676821926	8.039296129910248	10.465903255741662	11.352030725428232	6.376771433942924	7.364242058280856	6.90233228848149
324	4.559890735557695	7.007029992532338	7.366736870286275	4.042465199754694	6.773453695362052	7.949757079080404	7.972150782484559	6.752728445170238	3.678774585972607	9.462285971593422	8.824592568052077	9.538077330349822	6.747865183006002	2.836151115886282	8.5967225811396	10.618889781844665	11.238891573187026	6.510282500042609	3.7755496406599143	9.827771162015877	12.24222847708695	12.648680655015834	7.351807575737786	4.62111758019071	9.282007193972412	12.678252188144299	12.153815238784782	7.221997242813573	7.996309737043925	10.2722272613576	11.175831766522506	6.324510558372966	7.260884266641174	6.831459028162381
328	4.455683220104241	7.072126847531559	7.547218780536169	4.312830437261785	6.795425397882263	7.946842650376825	7.939640025120352	6.797639829639367	3.766716947582239	9.543371176466827	8.778671242484423	9.56780240504284	6.802960855474321	2.987716667261428	8.773825623294996	10.364577267227954	11.283306093338563	6.4720949963243255	3.9869635004471906	9.742094968994882	11.70593449498149	12.448068587346063	7.2188067253960915	4.778535830830864	9.241784072430898	12.124044387724691	11.843753784794663	7.0620298207321	7.864527205638362	9.925627683375257	10.844790431298735	6.255277617873935	7.087220650899212	6.686203939722962
332	4.27772425525203	7.185728054977898	7.616654376826925	4.449724662990379	6.607589704997127	7.7506661219414585	7.675552348785156	6.675718290640549	3.8145713709843676	9.401032424079617	8.47359845883083	9.311242080068034	6.68371246557764	3.03416418263183	8.749320961796807	9.837955450015066	10.988263102445291	6.270379527473257	4.127466668198533	9.44080255032198	10.93634125809396	11.903007477272014	6.926678640043556	4.8835773344719104	9.03925798041293	11.347293825110603	11.285441370127606	6.77064464767017	7.590619544891925	9.435532546062824	10.385191891199344	6.1466212117456775	6.849478704325381	6.47496889386956
336	4.02624796804515	7.265326481595779	7.478824596596299	4.349598396763681	6.1618056141731605	7.278623085718702	7.185615044571689	6.387196047869241	3.7930021190246643	8.949817634874586	7.833195189726257	8.766721703330022	6.369190676820951	2.9597778245585293	8.430849054031535	9.017140365722678	10.347353909117142	5.9052285998978595	4.147055615445218	8.892162300547495	9.961457227352179	11.04606625629105	6.515036089660734	4.881843077731904	8.624747254530758	10.396368000485092	10.52550408566931	6.376289351577198	7.155807953887668	8.828890778185269	9.831289266560217	5.971547588530469	6.552351458218865	6.207245334212245
340	3.723014345306103	7.2237257775076955	7.1156892596835375	3.997720946709093	5.494595990613563	6.540118677793208	6.528573496547942	5.970972046081972	3.6894845869373882	8.208256700772726	6.898072225320858	8.00244424706872	5.8899688571995705	2.782435886987476	7.809261302304995	7.97009752168652	9.43137929442536	5.41589878622241	4.028101910911563	8.126061418997827	8.855211235577311	9.975187276450816	6.038246139540051	4.744005191269609	7.997827032877496	9.346981024985126	9.642913794013358	5.9240226596038275	6.578298075279822	8.138997057392903	9.207720733283502	5.704507336519134	6.19233129845278	5.886565670410067
344	3.385749569927756	6.998611909362674	6.590871794272735	3.462564459641654	4.696609485212513	5.622865662683512	5.7858605238747725	5.484854207496069	3.5006537349055953	7.276429634796505	5.796623215345402	7.117885571628676	5.314706312112662	2.52956532793353	6.944955808271336	6.820880872671509	8.354537942774007	4.866230952374592	3.779957046502058	7.210170727645679	7.713620643214189	8.81720159211859	5.548544392882142	4.470415580906889	7.199633103313152	8.28201959426325	8.722903229624736	5.462470517672211	5.903181537982862	7.401465397267686	8.529991128366186	5.333924280051202	5.764646992434191	5.516170487781992
348	3.002723447847929	6.572103960610402	6.0138740387715055	2.849446766334891	3.8625559709303565	4.648230540937686	5.029580103573504	4.980365740599614	3.2208421148997717	6.279030307175537	4.681200492484083	6.203906520438936	4.721370685101169	2.215842002996235	5.931011184976808	5.696521744650869	7.233609658097976	4.32192849021733	3.427250615050027	6.219450934919954	6.626088602502912	7.6880488201586346	5.08521793988933	4.087858189752392	6.296895011262513	7.275297623385789	7.836918334248107	5.03393314997975	5.189423547994156	6.659865839356109	7.821234206480089	4.876985060776396	5.280709253330088	5.113328920805905
352	2.533440345089884	5.9767536966105865	5.485280976751583	2.2467596474189078	3.0531122607395087	3.722866048950276	4.30454110012451	4.486009109615078	2.839977018815465	5.309792982046942	3.667608728685735	5.3211583956840185	4.168830861056745	1.8395212842274205	4.858234393251715	4.68525313148142	6.159252628034587	3.8301176928140133	3.001873008778421	5.21884726160395	5.658066258450352	6.668228132578405	4.672132003432272	3.642460098607017	5.369308458123487	6.387298091020839	7.036503297206461	4.670075881611291	4.501243103106889	5.974762901480116	7.131468754882956	4.387734878906165	4.784024703345083	4.721187102795724
356	1.9394495438246742	5.286784158710258	5.052255617737445	1.6954079823604364	2.2878768386297943	2.909850113197768	3.627431383511294	4.004986752888869	2.3551888406418544	4.40719508012046	2.8080201078091123	4.500551212392083	3.681311359647843	1.3987647259682754	3.7991926574154067	3.8255786799165374	5.187614904657658	3.408560982681442	2.5431046421693657	4.265639771182199	4.851342665821606	5.800389752048539	4.320513237535356	3.1922907748687073	4.503792274548207	5.670719609248483	6.359101756253161	4.391746509908	3.9050643345467884	5.425318227421773	6.542070372276806	3.9506463904772366	4.351519573669231	4.407075393994054
360	1.224277850874755	4.593674171293934	4.69370840794933	1.1902600496758515	1.5635368784529615	2.225516313656014	2.9957797451677064	3.52395319048947	1.7853344633803423	3.5663082509599264	2.1021239704464314	3.7554306889132243	3.249525300404746	0.9114992595547647	2.8099348474130426	3.123309365969993	4.347052563182462	3.04728340333235	2.098469252056611	3.419802895494856	4.2344784629723	5.102137552731134	4.032773961375842	2.7981290746614773	3.788274755450174	5.174948202419131	5.836334213780297	4.209877003531239	3.464979163004698	5.094530092728368	6.146345599868932	3.656346788711727	4.073131074158471	4.2429985892935616
364	0.4550548482373122	3.9761271376358045	4.34076832629037	0.7063471657085577	0.880397257966267	1.656163211455797	2.399399036071616	3.027032129274593	1.1784793108750287	2.77300738588213	1.5308932027312407	3.093404523668786	2.8462648319862356	0.4241889406461737	1.9394679020552186	2.5792264873235284	3.650419941268805	2.7218716075841116	1.7205369429064281	2.74698995850336	3.8313872717445236	4.581724632139533	3.8062426947816403	2.513269894930238	3.29891227842947	4.9402365559780295	5.496064172219963	4.126351346088312	3.232163897936983	5.040519224792223	6.013247474747208	3.568386307290129	4.017294396748176	4.276643265417113
368	-0.2534629696168729	3.475006571579235	3.919587602256092	0.22754859866865906	0.25570493871979405	1.1786318987652684	1.8276261045089177	2.5070505078914973	0.6023168548635734	2.0337047525558187	1.0848733159331383	2.518666499454577	2.4462847647893007	-0.00021743605556948523	1.2325537173623442	2.2041654531142165	3.1024138849131297	2.4106411873036087	1.4558854066330806	2.303892368221927	3.6570103076156912	4.243595589414125	3.6361110118615723	2.3725008904638685	3.078824750756378	4.979205118959477	5.353334413364013	4.133666981750994	3.228162995771181	5.266193376596718	6.151806815828044	3.696192016806318	4.198541630635053	4.506972778385392
372	-0.7918996194873095	3.0824432295222666	3.393903485312443	-0.24176382957454154	-0.2857993833955524	0.7713590244845431	1.2718516556099893	1.9692091892115744	0.11851634800313933	1.380834933609369	0.7679156641645624	2.026065582882113	2.0392098375333747	-0.3102583281313154	0.7204239946296211	2.010740275074736	2.698151343209185	2.1056740230802906	1.3291163410962081	2.111813539895234	3.701488485527687	4.080815304943513	3.515893212024712	2.38296293610701	3.117475740191264	5.256053434453129	5.394976602284755	4.213157166334236	3.4298818024823485	5.7049679612127955	6.496787054825217	3.98790906852952	4.564470756450673	4.877711760603662
376	-1.1147917480933194	2.7529139449233395	2.7866380144335317	-0.6846234781146315	-0.7334670405943102	0.41549745097161495	0.7289273720457436	1.4301077091349916	-0.24391086337973633	0.8548156001443493	0.5795162305505646	1.5976190526680598	1.6326779085899816	-0.4931327986187747	0.40743645922789834	1.9913521954804367	2.419359916300761	1.8149882509183886	1.3316503729577913	2.1370992606565893	3.9163751503293884	4.064276684990153	3.4373109253883967	2.5217132504692237	3.3461782847798616	5.681035027465847	5.570573315861192	4.334914673351046	3.7691576385703396	6.235674842349696	6.92749164739624	4.349565494999848	5.0119204394640375	5.294698225004975
380	-1.2670067516762986	2.4335675178121314	2.174314254993172	-1.0855214568387896	-1.1027870150379961	0.09467495208917383	0.20865024573575913	0.9166794396144704	-0.4976856397938033	0.48018285510898967	0.49550652378863913	1.2101985185586173	1.2487196890775105	-0.5815254435162255	0.26678502492305123	2.102735037263126	2.2366008702076177	1.55735730731683	1.4239301645567775	2.2964353503421946	4.217916477998245	4.1418828859660906	3.391469231625962	2.7433445384381008	3.6587769892823734	6.131112083214278	5.80085991348534	4.462586391626119	4.152478207594614	6.724156839560001	7.313743096006009	4.683276641465658	5.426361547121287	5.660467610373
384	-1.3592026199356528	2.100233072700351	1.657920833216496	-1.4377868139205965	-1.4244097435274294	-0.19935707697603425	-0.2584792071015379	0.46496420981316927	-0.6831461769976033	0.25511327321492494	0.46709915877666636	0.8531388618864062	0.9161222553965168	-0.6351038797556172	0.2524261170213004	2.2733957710088846	2.1206057018145645	1.3529019321616436	1.552039380923396	2.4903292593070057	4.51293038182494	4.254213322389027	3.3694665346905466	2.9948949738228943	3.952259292160787	6.493059618768954	6.004498466590587	4.562451827927938	4.494779098606608	7.073905926964323	7.568169574703243	4.926244246443044	5.72596643909557	5.910179123261826
388	-1.50451671697325	1.779540176667066	1.3225154843318678	-1.7399024919450592	-1.7151614384262865	-0.45591357235242314	-0.6212403758576663	0.11622569680672083	-0.8407850244275148	0.16124089021504487	0.4445096541149189	0.5453451858103305	0.6632698757591814	-0.7082599383592154	0.32287573732873803	2.4353980956578516	2.059355968998014	1.2164509265704804	1.6698489146988318	2.6498863630148803	4.738582599120213	4.362540234041797	3.365058413592667	3.2323887266565077	4.1694140328997555	6.711302740318773	6.133684619676289	4.615809428958994	4.752928244988535	7.262907963535478	7.680735568681738	5.072306620189262	5.89063785973084	6.033570751215673
392	-1.7512654021870615	1.543010588564905	1.205733177001898	-1.9843761870828271	-1.9500645349859231	-0.6367574914114459	-0.8201734402930001	-0.09134560055319944	-0.985180017844996	0.18693470907698542	0.4127931286403384	0.3394506863129981	0.5137715326689161	-0.8202443698201037	0.46451732399009404	2.56452750512187	2.07152389957032	1.1571788758625838	1.757711286875377	2.7730595995508214	4.896580683743279	4.474808204797166	3.379997244884296	3.4344291600300716	4.322809208446308	6.8165902919328305	6.201446040708821	4.630599963894796	4.942662703432841	7.3500118070045275	7.720255355416676	5.168029295271072	5.964827522476879	6.0753111685907575
396	-2.054708714065899	1.4688886366951603	1.2840027776725114	-2.154131645486023	-2.0614182897020354	-0.6838502866645573	-0.8137769678550786	-0.1382464912023604	-1.0989782782464648	0.3422318390311961	0.411387919340984	0.3025238208285317	0.4801674771106764	-0.9464594101851878	0.696594176917874	2.6992502144374897	2.202748531502193	1.1792228192120797	1.8267857982289957	2.925688497786076	5.056744562733436	4.648455608075789	3.426164618424961	3.6052169708781707	4.483638752107635	6.914651376432564	6.280986293193548	4.643318641383437	5.127269255090778	7.444786529818223	7.800097445821784	5.284971223839348	6.032576545743329	6.113241180244261
400	-2.3061835707613083	1.5908570249446539	1.480712648467981	-2.232338899698359	-1.973226661468582	-0.5462576137102486	-0.6068447216925043	-0.04027746607624954	-1.15127777762614	0.6505923254753322	0.5183010088232517	0.47959691165000456	0.5561919198298813	-1.034627554188659	1.0522745821134647	2.9209136889144642	2.5019555028689604	1.2803745237449042	1.9084848117327475	3.2032029547880563	5.321516500388925	4.961986529220235	3.5224404246088903	3.7672822380318616	4.740035998774747	7.135571461781777	6.472125037065217	4.707603442704287	5.3831763131604955	7.655158023580299	8.02425859332712	5.4836292128397375	6.178203090328051	6.225313170928103
404	-2.401916259423415	1.8600507927662866	1.6924053387828124	-2.2193210068937015	-1.655341501824998	-0.2159125203403408	-0.26506930522752337	0.1443386968306329	-1.1263503999882698	1.1191672058459443	0.801631329419862	0.8578107931413954	0.7109008413486111	-1.035368797549214	1.5453478058899368	3.300630561124717	2.9858553334190816	1.4468508922287056	2.035987848863531	3.6713082697683133	5.764767155397754	5.464526162656035	3.6845168974357705	3.94828938441019	5.145962702156619	7.565268020602904	6.847005826829183	4.8709282752081915	5.7589726302659	8.037036875460386	8.437841394101772	5.786546692543694	6.450571043894538	6.4591488675117965
408	-2.3113126696405706	2.144294494937129	1.8200137569252928	-2.1456675475307083	-1.1672164172267068	0.24527861115994398	0.0934093517686921	0.32337599911107484	-1.0433360311869357	1.7042134957201627	1.2617328135105979	1.3489993776594726	0.8871533252252105	-0.9303804016465292	2.139243597351615	3.8378705881496638	3.6063208488966243	1.6441864925834473	2.225787395579768	4.31449650628834	6.372838004234838	6.125767692358631	3.908075799611817	4.1662130250648195	5.684729084921121	8.190217951123445	7.398645382321193	5.146262632728371	6.246376021827073	8.565900780985483	9.001376129312284	6.169689162889829	6.8432273691971215	6.813508016549988
412	-2.102180475649536	2.276785367939414	1.7954832270113352	-2.0686075635181127	-0.6584272964066311	0.7083271127937077	0.3317722967831288	0.3967141797063245	-0.9524352526459913	2.2979192675747764	1.8005738212901699	1.8051773264131294	1.010553595852528	-0.7431974392246811	2.7387084891791758	4.42809914424615	4.240874756596288	1.8135642959582996	2.4675707754777463	5.020985113818592	7.021544915591395	6.816071969943172	4.155422200201927	4.418364513686011	6.265760882770563	8.884513832549228	8.020237902419304	5.493297086197897	6.7765769787403975	9.142065025136278	9.599208807551436	6.572843058203751	7.2961635405389185	7.237091046181226
416	-1.9058268022103446	2.134293789243384	1.5972983796799778	-2.0483343549511335	-0.31653958479117694	1.0163098548025336	0.3418430975389525	0.2921430163160139	-0.9077001787156626	2.7522180010926993	2.2430419865243634	2.0647339768732293	1.0098270152345505	-0.5280110822698054	3.2130126872004228	4.884771811550193	4.717579829703025	1.8808293295103957	2.7262728145432145	5.615425572522852	7.507917385219136	7.334199410041276	4.355782021015647	4.67841862451015	6.75662134371998	9.449332213386382	8.530725457587966	5.821519360149488	7.243147354912273	9.625859236256124	10.0779218419263	6.921442968059704	7.715836982319922	7.643757323993604
420	-1.8451741887236461	1.7047264532918047	1.251869436918069	-2.11776518287032	-0.28550070452133697	1.0448662016237462	0.08436807223715208	-0.004902718110670371	-0.9349132156609639	2.932744972453929	2.405835384016792	2.0116376826042086	0.842347977418869	-0.34576684149228754	3.441537371529459	5.011846052867545	4.869769084079526	1.7798010065919447	2.9522490426866685	5.9252028315674	7.628081779294412	7.477570514873391	4.424176681792674	4.901355254196313	7.0336365522185815	9.689657186839678	8.740160920010851	6.018293365542575	7.539937477148791	9.887216543030341	10.299458477719512	7.148823243211942	8.004635790642288	7.938512782081205
424	-1.9679509351635427	1.1066334219649303	0.8236211517520384	-2.2637078704901312	-0.5939468130374768	0.7575705032295302	-0.3950032879870113	-0.4421933282178282	-1.0147869561323672	2.7792661119863236	2.1832208578301824	1.6224967200323126	0.5137413131140912	-0.23936179219848025	3.3626456175782513	4.69577263600198	4.600682246990351	1.4820777140391803	3.096463434030936	5.851082787046284	7.268474083669131	7.127008896953542	4.295167912129377	5.035821425121466	7.028074723619342	9.495274519788943	8.528144814894285	5.993037208684954	7.597901801953617	9.850491498872575	10.189019177461235	7.212164383799092	8.090199450094229	8.046399096200908
428	-2.2230427209040804	0.5443844185436217	0.39774447579098826	-2.431612008631278	-1.1322984666846783	0.22893927933588618	-0.980163869767298	-0.9177206731514228	-1.0932284565980788	2.3413979948057015	1.6064115722152579	0.980973181632015	0.08138258734659934	-0.21907812301636945	3.0035941524966097	3.9720661539882207	3.9305732150976187	1.018819687178399	3.1261367718924196	5.4106693131216	6.468247874141656	6.3074450333611205	3.9568204779860627	5.041000830320792	6.749070627338897	8.8905343784935	7.900105456433546	5.718678459987994	7.407381515874575	9.51937291602937	9.761163686903283	7.100931626511568	7.947288016281462	7.936683634746957
432	-2.4918155607253722	0.2180299157359959	0.06170493721284137	-2.5509800846543653	-1.6933582978410753	-0.37789377474743274	-1.5226072034540652	-1.315172788160526	-1.112497684530996	1.7690225794951342	0.8444370010036827	0.252993314819551	-0.3607250442934194	-0.26249131494052935	2.477114909593664	3.030588380791493	3.0037896557309796	0.4814133929972708	3.036437980614981	4.735178935493553	5.421153054855385	5.194513784645123	3.4677212150760224	4.903575407999301	6.276473983176864	8.030859926928617	6.994877797586213	5.250579343890778	7.019838792243652	8.97541329978799	9.11620614611221	6.839774114506133	7.607542972430984	7.635420779977787
436	-2.653125994659533	0.23057322145898865	-0.11282548279886802	-2.5681872303018394	-2.058772081899268	-0.8709314443533861	-1.8885565948488574	-1.5438975056769237	-1.0442954275468181	1.2583978144345453	0.14245481753145708	-0.36868423130411665	-0.7120900732181671	-0.3264943651062382	1.9441488932161908	2.151878589919202	2.048219437196297	-0.0046517900073801055	2.854490272944472	4.021568765023517	4.411947716064272	4.059842576267217	2.9438028261247413	4.647807586379428	5.729859814482469	7.147355538442699	6.037991031661056	4.71091793778259	6.530441267691908	8.35221097744785	8.408641793955766	6.485661490278111	7.15357969385301	7.2207493599737065
440	-2.6441829137800124	0.5410172329594717	-0.08567535110538776	-2.4693403181673705	-2.0910160488741343	-1.1008669110160494	-1.9987336346707847	-1.5673510988717985	-0.9054962969806568	0.9766412352699662	-0.2751169793812326	-0.7292102556891334	-0.8990326501082431	-0.3661314239794766	1.557069059255424	1.6008601148241834	1.3006445136610736	-0.32410889782138264	2.6325163774782907	3.460569134558191	3.712974777384063	3.1767902294061336	2.5168819363945074	4.333033073929528	5.22850559821897	6.46354530609933	5.260334955285826	4.243442047849571	6.048856719957597	7.794477443089391	7.798499087671522	6.117692455104849	6.697223646421214	6.800569993969127
444	-2.485453837795267	0.9886366103960834	0.14014598691842797	-2.282879585224442	-1.7878276064557126	-1.0139666770130393	-1.8487318707520175	-1.4103633129751247	-0.7482072096054042	0.9981741880010927	-0.29207032845189385	-0.7614842038002461	-0.8983534551827422	-0.3532897821089751	1.4060258829857704	1.5252820214862524	0.9267061329332716	-0.416035800121867	2.4296255050352187	3.170457593542605	3.48543309285418	2.7263107230971957	2.281639093360509	4.036208619417707	4.857279765263403	6.119374259757585	4.817083346602682	3.957504500887778	5.667517647739233	7.415051918382065	7.401998978046368	5.817984089467497	6.346148951720434	6.477983935213266
448	-2.2572708072892205	1.377046820024878	0.5146685229658762	-2.062690968074066	-1.2738792864108393	-0.6635125262674494	-1.5035743675417303	-1.1432169646963573	-0.6306521876625171	1.282540914158441	0.06184503793003221	-0.5012862073639821	-0.7408184390437673	-0.2886543564661183	1.4916902742871279	1.9054539155535712	0.9694392060599392	-0.29564800783853673	2.2891898097415915	3.1650481144150273	3.729444255949659	2.74409150384454	2.2584392967424467	3.8254220389104634	4.649836051645302	6.134100898514349	4.742488849110351	3.888260831552714	5.437885747531644	7.264411431091498	7.259209614545792	5.647133336114673	6.169553741137241	6.316837771679691
452	-2.0488078542480337	1.5719343384155857	0.949094650733344	-1.863558406893173	-0.7387657146875303	-0.17885041191722054	-1.0713845464359442	-0.8516884424641038	-0.5877136573258275	1.7003264384255943	0.6358753426709973	-0.06468432380319092	-0.4941113280695817	-0.20433275350003194	1.7338706211183081	2.5744988853304593	1.345942017018083	-0.043231632451342185	2.2202129307958685	3.3650374327577595	4.3009705434929	3.127618066520638	2.390141004249898	3.734076490511328	4.590556133124315	6.418802245146622	4.956038462523827	3.990472545085548	5.360364423569652	7.320930462473458	7.328264694785264	5.621798977963304	6.174650653508406	6.320047362583454
456	-1.9135850619640113	1.5597612818438418	1.337720271547813	-1.7233432487846576	-0.35439735561539504	0.2907411150744362	-0.6667273623799381	-0.6070694908073848	-0.6173392518669664	2.0933811611728506	1.2294390170528253	0.400549351157747	-0.23458202124020344	-0.15358568689193464	2.0116171786064574	3.2963507092220703	1.890877957338419	0.2344377034944054	2.193542236512009	3.6443972495573265	4.984155165486286	3.694659223765144	2.5743784839483173	3.747355690078021	4.630930888881754	6.827856046604094	5.311871038377145	4.167149056404009	5.390270219545172	7.504876117831794	7.507382373928983	5.705397114654095	6.3042025406935265	6.430029852845325
460	-1.8534773541384737	1.4372932874631021	1.5903568227669616	-1.657152052510124	-0.2088070804569284	0.633820114919686	-0.3730991771338055	-0.4457011211586484	-0.6881388408453191	2.34255027179559	1.6762781100866522	0.7714917640281227	-0.019023653071772367	-0.1881531174200854	2.218936199308003	3.866122236027554	2.428175204822206	0.4523632812999854	2.158589834485387	3.891075362871902	5.58593319436245	4.264765251836263	2.7166209152298144	3.80999135009139	4.714637744444341	7.225734215612976	5.666914448735629	4.319021214071106	5.459729657693779	7.712471942502978	7.677088718105007	5.820838913526451	6.459496481799249	6.553384287500926
464	-1.835177178517868	1.3405765261182383	1.6651017623823259	-1.660212751011613	-0.2824659042379377	0.8133933523622727	-0.21646150891965849	-0.36344191340238946	-0.7596101145639498	2.4139759479610827	1.9052410077629711	0.9926115249368289	0.13246273961002175	-0.3308629683247313	2.3126773775839027	4.188569535170728	2.839474909289145	0.5817503318403952	2.0736963696576085	4.05538319517496	6.010556682670262	4.726536738860099	2.7754805017969066	3.853678931997081	4.802485930715465	7.539860229529356	5.935778602872486	4.38917540395746	5.508185372750884	7.857911090084998	7.746029834263956	5.883445724891821	6.541222078974504	6.600272638822974
468	-1.8199586822336593	1.3609286512347007	1.5891107280664334	-1.712010260074257	-0.4694895136423812	0.8720787145531262	-0.1570909317341971	-0.32270541705672234	-0.7995682338554603	2.367883199435488	1.9570904920757282	1.090636369812631	0.23838819503201591	-0.5549480901058488	2.3323163927320727	4.305025566676021	3.102783910546961	0.6560863835936327	1.935863251566883	4.1668300523459765	6.285274966583598	5.065708147610707	2.7784011293835267	3.8325724504982452	4.8894924994044855	7.780356387522016	6.112276538675651	4.382976044079313	5.510377393161609	7.907693842950032	7.68405149427151	5.841272339378182	6.49215601235644	6.522588236553288
472	-1.7826116040045874	1.4986596069645393	1.4540911876205818	-1.7777718260703346	-0.628027079903947	0.9078004933325663	-0.1037408632401051	-0.2674645178717751	-0.7901438454705937	2.328438752971355	1.9562745044908134	1.1581082314815754	0.3440732053175932	-0.7833329419385953	2.381524079985765	4.362349976016154	3.287947408004273	0.7481554727738697	1.790597434291432	4.312717903692733	6.530605299673916	5.348067746964956	2.800915711006981	3.7473301792901217	5.0062270038094665	8.021482447399071	6.25326822609434	4.355583656758335	5.487845406981925	7.891438464267928	7.529017429416351	5.701599583535753	6.321242316498894	6.332923873171061
476	-1.709278698420387	1.6801367955703792	1.3840542996748493	-1.8088529064285688	-0.6363688691284916	1.0304114792557608	0.05100912587877125	-0.14144621753743677	-0.7227134686343083	2.4282813010896382	2.052888865056212	1.311546560790836	0.5016891347616464	-0.91356575258391	2.577877276587799	4.5405192260546015	3.5131976515761956	0.9298361516364592	1.7130083994531458	4.588429916241256	6.891731244807082	5.67047070025253	2.92130374170889	3.643677940705993	5.201344476919137	8.35501096523375	6.436716063460768	4.375062454621753	5.496090875100755	7.883058528070824	7.3642382435836	5.527323708884205	6.0965075338936865	6.094798549523001
480	-1.581742044270035	1.8254418327019934	1.4874577484723135	-1.7488641694737026	-0.43213775644870617	1.3171662058953613	0.3870689263108003	0.09577852463382334	-0.5900327548388933	2.7520170142310243	2.3607969224453225	1.6424128967779887	0.7500269990104471	-0.8609706141668954	2.9934546871901784	4.972326266132606	3.8847279450565066	1.2347643344221926	1.7679008200832935	5.043334471367146	7.464412193525997	6.1058306539873355	3.1754579463894776	3.585669508464145	5.511765466125634	8.83829591426992	6.716745836465919	4.481952179083328	5.592406735605872	7.960510710645051	7.277344685300787	5.403811441129637	5.910404190399929	5.889481052787961
484	-1.367684122447198	1.9183977793896045	1.8123557521838851	-1.5513910015991665	-0.024304876042633317	1.783614988592203	0.9225130057885543	0.4573004830258777	-0.3859205236228123	3.3011612808804567	2.915219538004158	2.1808876936209853	1.1002354594108932	-0.6004984959700015	3.6139910129855353	5.688154683057003	4.446335781315585	1.642414446498749	1.9699270675514367	5.647824273155165	8.247617700734384	6.666284067489319	3.536565294873521	3.617125740455648	5.93394897870108	9.459574675518725	7.095525723662668	4.666666972775904	5.799502358099363	8.16236112441155	7.3188872152557165	5.392111287808347	5.8336658330497295	5.775469765386602
488	-1.0291444037203248	2.031279320356742	2.326316112366973	-1.2022054165051284	0.5207319246496337	2.380157941530962	1.6040142734084442	0.9246415472527543	-0.11281283171304637	3.994084586549817	3.662751903823119	2.885015241968356	1.5309138259382808	-0.1846363688814103	4.337098587530103	6.604629499926476	5.1578421462489406	2.087399954294031	2.267374986646034	6.297249301270163	9.139419532589246	7.295401077924877	3.9264886280107634	3.732276668662234	6.410834296253165	10.133818600818376	7.5198497582358845	4.872971522425933	6.0837416495265035	8.461559274290913	7.47730682392557	5.4928703169423825	5.8797688335742	5.759468064072022
492	-0.5477303848742854	2.2852890433787594	2.933249227747456	-0.732356486855659	1.1109878988826474	3.016034595504141	2.329039090952017	1.4529253207717185	0.2111687803897398	4.70134543185583	4.48576258480491	3.6593010333179157	1.9939285466397034	0.2761671238125564	5.013617502905798	7.558628063191689	5.909537300448505	2.487209552207338	2.5627157623438515	6.852983934266482	9.974937413780548	7.888466338268351	4.2504839789841355	3.874347915404369	6.845322114827819	10.730369540779515	7.900302867016543	5.023594366741692	6.36216400447541	8.770435311108733	7.68119905439834	5.642230496466407	5.9978761521541815	5.793157086051175
496	0.05031483607701922	2.7692882944761146	3.519017925914528	-0.21152697450161315	1.6651515918652322	3.600688448398149	2.9913322850043746	1.9848525474026695	0.5539993629773542	5.300177560776053	5.249986158467471	4.394007194869333	2.429786437575706	0.6628876311732019	5.512670979886775	8.370123842087684	6.564652903195132	2.7753639151120204	2.7603990961953353	7.201357346472862	10.587485286684696	8.329851129481844	4.437608230831028	3.9643430609748824	7.137310963730511	11.120231600342082	8.143053987924652	5.054712282770305	6.536975844091426	8.975788093793392	7.82794759681348	5.743141636653526	6.097202762468592	5.797238335277931
500	0.6911071521476393	3.471829882439306	4.004868497273933	0.28112229633880315	2.1416642611791215	4.085547913726731	3.5291035086222187	2.469663613759816	0.8838232733346618	5.7252878998211605	5.857158646100768	5.007792460195895	2.7878196169085756	0.9039211250371545	5.779622063349752	8.908459640899414	7.011383515775742	2.9249303267064475	2.816255085510489	7.303091507592961	10.867670031765872	8.532797791872284	4.4659304506081545	3.9446267982072785	7.22796295248479	11.223883600507634	8.182005861605605	4.9420018071332406	6.540836794551648	8.988435722545638	7.826117972642074	5.715613350742803	6.090808376193232	5.7005624627192795
504	1.2790315118922158	4.2705511938992915	4.381598938369899	0.6944508535018071	2.550063365220034	4.486043441890382	3.950836886921458	2.879687301994625	1.186823365076069	5.993336185582392	6.281536086435568	5.475258336548616	3.044509403171507	1.0073358987170973	5.858343586435911	9.137089706240149	7.204339009215578	2.9552416726839956	2.7604513098640266	7.209664803422102	10.799559565934416	8.46975133664816	4.365106571620767	3.8119127654155185	7.128793221595033	11.041333170670677	8.002083758178028	4.708985316785271	6.369399531495716	8.784313179726038	7.63418243388106	5.538598523461451	5.937168106347982	5.475517735962024
508	1.739706273454954	4.988016115946509	4.703341472195029	1.0285689804811158	2.9375953600149254	4.868309008704795	4.321731556471489	3.2159750380382803	1.474811192603669	6.186933501835549	6.571584208109273	5.825755104615113	3.211474172113365	1.0498210165221251	5.863965496516932	9.117791152822075	7.178085309025514	2.920457832592373	2.678317301663802	7.036582929011679	10.460592243487005	8.18309972604376	4.1990423096499025	3.6197495369120363	6.917431813895027	10.651551219750484	7.646244983441669	4.416092384632909	6.082823261162123	8.41642473003231	7.278533440333186	5.260246263574624	5.65879581930056	5.152248369560183
512	2.0561420865598388	5.484466538887428	5.0450372568547905	1.3295767273712908	3.356098404994073	5.305149541812084	4.71776818038004	3.5010032565416758	1.775010462094152	6.405353053133458	6.815589887577446	6.116109832580768	3.3293864642961335	1.1282103033191453	5.919924721076576	8.974619842758743	7.02882669581593	2.8868081496786733	2.659774773558152	6.906610471454086	9.988419507557543	7.773205260678498	4.03882216387522	3.448290577765461	6.700396044026729	10.18237302116698	7.204100113799921	4.136631955193216	5.774725422584527	7.9920115269107335	6.842992288478721	4.970685946312529	5.329759107484814	4.804781901626416
516	2.2707810344584796	5.72720287784367	5.446853623943329	1.653805847760882	3.8220064543548777	5.821508392894877	5.170919405279644	3.760807504695548	2.1036004967030792	6.70454500412978	7.085977536430915	6.391487105445077	3.448552122946075	1.29890823036315	6.091040595888691	8.834394432651353	6.87232778721447	2.9079620764746297	2.744856350644367	6.890347940214628	9.529284453174757	7.366643410203504	3.939443578310697	3.356677523721249	6.559830172189241	9.763001417306358	6.78451059535855	3.9307098289430993	5.524581895231459	7.624863605321824	6.433942778555661	4.751924979610209	5.038649069462472	4.515757072491632
520	2.4511084494695052	5.793339714682305	5.876997456017721	2.021598572395344	4.290034760134279	6.3599905807138075	5.63726423747626	4.005470742603223	2.439738982716594	7.057998639406829	7.390364628252744	6.655223352795565	3.6038701443282264	1.5406765898906831	6.348491652672771	8.770915009288673	6.796504480368552	3.0071477814091465	2.8978931830674344	6.974784356627423	9.189401603385905	7.074874383230188	3.9274687667869754	3.34717487443799	6.513181669957164	9.479510283378549	6.481121523706321	3.8276119135539823	5.360275731858451	7.386808853573001	6.1375822865976	4.634061801654611	4.846960532348783	4.33849905826021
524	2.6392228536729068	5.80531881774044	6.235963805666838	2.3895897804964066	4.659086692491087	6.7906751461242365	6.009079917995035	4.218858708220476	2.7211365631065974	7.361960392484614	7.657713870741815	6.864479047610263	3.7959675693040427	1.7639172032644326	6.58665989166496	8.779021240957661	6.828905088349492	3.1714129367866533	3.0265715045809314	7.075777035968388	9.007613159325834	6.95757530363132	3.999114503300423	3.363640061469173	6.5087194278419656	9.351235366099873	6.341989024362773	3.8209316634030017	5.251102434252006	7.281064015125382	5.9874319879044275	4.582354057186771	4.763165461912152	4.27459238880486
528	2.8178772855186005	5.844481453444787	6.405930502930584	2.664126627871505	4.815596091510002	6.9686946692953855	6.169297202746776	4.366037834588386	2.870384685898727	7.487413864305326	7.772224406646551	6.9553665939201	3.990324248729721	1.8626949740111365	6.68445299368246	8.790741898276702	6.933052045484008	3.359951249222627	3.0355205459249146	7.088331204637864	8.957735039029401	7.0052194418472125	4.127228249620034	3.3256945526080672	6.459996683976941	9.33607957390181	6.35528181378844	3.8764631650328174	5.133828150185303	7.248501759348218	5.955807670815082	4.52149056246739	4.743523108903882	4.2767057310846806
532	2.9156048224270132	5.899947151546937	6.320976718202445	2.7527658869860914	4.696289527480167	6.814439756354764	6.061364158585687	4.41571091490731	2.840558998565583	7.354568939713969	7.641379337091649	6.885031682751244	4.136460770653852	1.779919023788302	6.57858751543412	8.724934555913553	7.034844857574417	3.5232875258182994	2.883590929380399	6.948752862552521	8.976838089213103	7.1494984446262535	4.272966850936649	3.1793026843863625	6.300901873892777	9.36042211076662	6.458544237996722	3.948881377740604	4.955885874633587	7.202589016849391	5.972659095943435	4.382666576764421	4.717751491079545	4.27482746952326
