time	FP1	FPZ	FP2	F7	F3	FZ	F4	F8	FT7	FC3	FCZ	FC4	FT8	T7	C3	CZ	C4	T8	TP7	CP3	CPZ	CP4	TP8	P7	P3	PZ	P4	P8	PO3	POZ	PO4	O1	OZ	O2
-200	-1.3179295029744278	-0.8220055082548358	-0.8448296764024715	-1.4783412180769344	-0.6647221429254672	-1.2247027127816412	-0.6863585097150179	-0.3387213340790455	1.6948337512141203	-0.8239816406427298	-1.0323363516492776	-0.47744303821183903	-0.7061390262895275	1.7152835087384783	-0.22972467483694736	-0.6587023122369304	-0.8693485238060825	-0.8018766621371382	0.02398154692257524	-0.08774139709969848	-0.306678413570499	-0.7162737828290338	-0.6444654448450491	-0.0198136139160828	-0.1948892469254019	-0.22340926471571573	-0.24807804760288066	-0.3763354113137147	0.49848681562452896	0.22482666316489594	-0.056530296659795476	0.9290595031169967	0.4872708904361716	0.10799065205011898
-196	-0.796852109804548	0.042612973493038574	0.04689937073072301	-0.8479387738753957	-0.04383712623376426	-0.3271539203013351	0.2976569525832968	0.5082169162316766	1.0077887748069574	-0.5161118494354683	-0.37785357141463327	0.3543875208490319	0.05724216610642156	1.2589303223296242	-0.19849857637834062	-0.19021178733962377	-0.16252429742310828	-0.1753448839528961	0.8487588741807898	-0.11391543568222073	-0.006791935285169155	-0.1881246860045993	-0.2828154556763405	0.5420208559656658	-0.003771878070919471	0.010563039194200432	0.21361184066246416	-0.12778937784356156	0.7410849910145298	0.39373308320773226	0.20346645959505358	0.9053995586424306	0.6729663593467606	0.3950957645931468
-192	-0.14085027539931583	0.9889748071496851	0.9508303379848212	0.03882715841265581	0.6354922040153484	0.5287210927965773	1.1064064474781987	1.3115897145535445	0.021951695848713	-0.20542372711292387	0.19797220776165808	1.0549305650779504	0.8154820779238633	0.15169127247182135	-0.13408403064730257	0.14990007839503722	0.44180878885303065	0.45982947829499005	1.0569747659700062	-0.19710527310675002	0.12961037424265814	0.24786326226597483	0.07337328028035316	0.7840517739527716	0.045614555362930326	0.038738567284291765	0.457486985958909	0.04094053794537928	0.7153799515782386	0.23759318828200895	0.17311404601735866	0.5321818576727885	0.48033764837108056	0.28138223219401237
-188	0.3316614619464488	1.6306172568160096	1.5342969855671904	0.7641654591340526	1.0588293048828654	0.9738195513934232	1.416168686152301	1.7435289577333275	-1.0195883486754818	-0.08295313247956265	0.3944551636750407	1.3163056340362669	1.2733930317199893	-1.2551996676225514	-0.2120472336422216	0.10807156535519728	0.6534725411128968	0.8537666180035957	0.4133703996235306	-0.4755300569449251	-0.07290172558498381	0.3665616801067015	0.28038778830309047	0.470753310922363	-0.2035969043598152	-0.24183390973545926	0.3553898325530443	0.059701688436933284	0.3495052448031615	-0.22473958077909895	-0.14193871581481118	-0.003297797628734146	0.012341857856644312	-0.13478808070961193
-184	0.43553489336678025	1.7303451255980344	1.6350972611153065	1.040368911977508	1.0254195902684253	0.834741053857905	1.1496025294843124	1.6817823605991835	-1.9337522934728473	-0.24970290001767784	0.096906624489736	1.041431185954013	1.2895976272448724	-2.4667622980780544	-0.5511351809891937	-0.37931781911448864	0.3799439063016286	0.865464983185547	-0.8312339761728204	-0.9994806026019813	-0.6241931303477394	0.10128840033469114	0.246400594089202	-0.334348588337751	-0.7609226684432349	-0.7918749431644347	-0.06556551141874492	-0.09306011325467364	-0.28476053404438495	-0.8477950670772051	-0.6231445058348535	-0.4795042860322575	-0.5335514531969795	-0.6375749691124765
-180	0.18781860125328928	1.2846690383901285	1.2877351013096334	0.8263924100992287	0.5248517380814625	0.18526506377175264	0.46160158398433304	1.2133706777455546	-2.6090719633986885	-0.6700026376020766	-0.5868900403464006	0.3495031288382773	0.9010201073786158	-3.0504484099619322	-1.128160473836239	-1.1596132487583541	-0.26247355275643114	0.506202100429421	-2.0611586518700493	-1.6773642259210073	-1.364986893068632	-0.4517137396851855	-0.03503160169816717	-1.2869285312585692	-1.4683324061515206	-1.4542524777889367	-0.6590424759438047	-0.3902519335430594	-1.008826968507034	-1.4378621541914023	-1.1149493427737076	-0.7640815357944208	-0.9768122409953951	-1.0233434412868505
-176	-0.23627127647351784	0.5007004129166086	0.6667672974918368	0.29909005685633566	-0.274516969226116	-0.716177759746543	-0.3737867465118761	0.5449100122999242	-2.977103941076675	-1.1919902533000233	-1.3984582388856142	-0.5117150532200676	0.2712308459586558	-2.8143260407918484	-1.7693351462515472	-1.9481242845940934	-1.0343649361244416	-0.08349882045168422	-2.6284313135542785	-2.301060909183666	-2.050051207134909	-1.1041147681016603	-0.4836826014227855	-1.9447065542713013	-2.073769564161208	-2.0342423864503356	-1.2455768553757285	-0.767718849628011	-1.6254898268667968	-1.8476620865902897	-1.5052403173589963	-0.8747608043519576	-1.240985390390983	-1.2066004245811903
-172	-0.6198005064574625	-0.31204759995831033	-0.008762927703786874	-0.28109025884231725	-1.1101223202334045	-1.556960698011496	-1.0965942116707579	-0.11263485969477699	-2.9748868867152067	-1.6212233264045464	-2.0600216336691846	-1.2854946819274726	-0.3958416273136605	-1.870164032029083	-2.226802581887019	-2.4712443289352684	-1.696307774075694	-0.704206345687565	-2.2062923852530116	-2.637230389612385	-2.4671471056637526	-1.6709520774615494	-0.962266740753646	-2.0008332678823417	-2.3524691999169094	-2.3862152039363234	-1.6927877621827256	-1.1399114103147494	-2.0015499541293114	-2.0303981252906076	-1.760719652498885	-0.9377806759045787	-1.3632433380040643	-1.2385694949350463
-168	-0.8126297572599831	-0.8698155858013633	-0.5457081780960963	-0.7103415113634509	-1.7287117199167334	-2.0926001019096856	-1.5427343806417133	-0.6080299600508705	-2.534542077341131	-1.7995417072638449	-2.388774865795095	-1.792068238502196	-0.9217505431745125	-0.5643219933567181	-2.2913315238322536	-2.585581296114857	-2.0976536220995636	-1.1716721028309969	-0.968505022464733	-2.5317971642468646	-2.5223598416541146	-2.033198113076507	-1.3185226883977348	-1.4389345609574935	-2.206984752804974	-2.4571680960606512	-1.9432522009424538	-1.4094791376767588	-2.1018855518679316	-2.0250680395496703	-1.8990409326290887	-1.074881431726798	-1.4263691866148285	-1.2310348718080124
-164	-0.7851393799032422	-1.0131069396189698	-0.8097954968034243	-0.9149271226671429	-1.971620316295941	-2.2159209195457183	-1.6611936050435603	-0.8535266497043358	-1.6264255005781185	-1.6616914230354674	-2.348738664419126	-1.9614542673180067	-1.1869406670166907	0.682940123741135	-1.8919368934548249	-2.321454280714209	-2.205385440980399	-1.3727796043068918	0.514248727453783	-1.9813790271325087	-2.2585375251967887	-2.1532342379565503	-1.4345452749273158	-0.5224150406045518	-1.7000520186417412	-2.278704875914914	-1.996113414493074	-1.4877378903020504	-1.969552154336746	-1.8985410880792641	-1.9347187231807954	-1.2980319228778747	-1.472497221090041	-1.2521454064226822
-160	-0.6121929868500522	-0.7455592732679428	-0.7371207457051722	-0.9311664080951978	-1.8158295108726246	-1.9603745887852713	-1.4881873093225222	-0.805894909254526	-0.32720819033026605	-1.252595898326757	-2.030061716676345	-1.8214003993778465	-1.1415077419070936	1.544473167334711	-1.1342920036288027	-1.8398411227504776	-2.0770165867817942	-1.2889392343403459	1.591149206912605	-1.1372505397694044	-1.8085817052955255	-2.052814955296877	-1.2671251265005237	0.3602187028373309	-1.0103747819186535	-1.9245388459253083	-1.8702450943457731	-1.3233959641422668	-1.6764348703020158	-1.6888420539178464	-1.8437627507389285	-1.4827456436868471	-1.4588899575593328	-1.2653788296223032
-156	-0.41021922127150123	-0.2110139573253266	-0.34049597296578504	-0.8310859182355721	-1.3648562396876143	-1.4581376277348772	-1.1167808742937417	-0.4636275756574558	1.12734830094858	-0.7037933451049591	-1.5838762481754742	-1.4681220017559948	-0.8107327798401509	1.8745784712192928	-0.258374779764155	-1.3384357657018902	-1.8109409763390685	-0.9895455216219685	1.8684476566824644	-0.24350966451676612	-1.3206880059276682	-1.7833383038318542	-0.8681411721245604	0.8955073334019031	-0.3450051835409482	-1.4687937461009175	-1.5858263929383118	-0.9335892176899109	-1.2847626176821896	-1.3909167016198036	-1.5785996874054102	-1.4434545003686892	-1.2900677886816736	-1.1562762231243844
-152	-0.2772504680309364	0.36693677213532605	0.2779673032895178	-0.6617990715484173	-0.807021079410069	-0.8870589114681247	-0.6805962306959054	0.10571104261411723	2.3561761319754213	-0.1895919586401694	-1.1570659846656643	-1.0380917761342583	-0.30045100970705607	1.6986159043341489	0.4556446958005202	-0.9645814871276541	-1.5061892233014247	-0.6051795467356184	1.3841286862713411	0.45600902919078995	-0.9013965703140667	-1.411006208672049	-0.3769266297837491	0.9791604255750378	0.1414220031505579	-0.9714895462303912	-1.1777676314182073	-0.4226306070147779	-0.8412883260467275	-0.9908134316224295	-1.124559995673027	-1.0616899701969928	-0.9036436654164256	-0.8294634798088822
-148	-0.26756557754673665	0.7586894016184289	0.9244732237363336	-0.43934169300736126	-0.3559921970916236	-0.42575204264913946	-0.3428639760897655	0.7326126080136122	2.9342818186109376	0.12466395614859072	-0.8557295777650276	-0.6837645155809421	0.20944896287489398	1.141593453386064	0.793161867046531	-0.7762341479730585	-1.2450941769635562	-0.2883549027315228	0.5386467562427393	0.8016593436028357	-0.6004508122543016	-1.0174913380682884	0.02040400537167305	0.7187336665127034	0.3846319606129888	-0.49091708536181083	-0.7224226575731834	0.03495276710507016	-0.397525547931281	-0.5187541233316902	-0.554497240573906	-0.386134534099338	-0.3489121189844991	-0.3086839906528378
-144	-0.39577987690182914	0.7978602627637337	1.3502414192441663	-0.18687836778665373	-0.18315049959671725	-0.21387049501781394	-0.259642212927459	1.1633633345795746	2.5620825225993564	0.13516525890079834	-0.7352949958356667	-0.5362498150637934	0.5073688613479536	0.35787099509484516	0.6839085800070004	-0.7529688458505538	-1.0856198045024206	-0.16609708922889194	-0.16661225217238496	0.7656534294824687	-0.4262147535053626	-0.6946170908556659	0.15717717965496936	0.3273314825376727	0.40438872473661547	-0.09584259962679512	-0.33947190556648454	0.25525596673415696	-0.023233205021374145	-0.07078452390442377	-0.02849496148782963	0.3671073010235979	0.2056624139123243	0.23846025704736742
-140	-0.6495744569590727	0.4324967254209597	1.3382683958597836	0.030020434333585647	-0.35842382817374113	-0.31449779788722854	-0.5143969642049652	1.1502214641140973	1.2239500253293178	-0.16048882861149014	-0.8017219880843366	-0.6550188048037561	0.4283624578628094	-0.5044823872227033	0.2237357640578098	-0.8331708290999066	-1.0494527790276325	-0.29249787256778825	-0.41666120185559385	0.45104187613097363	-0.3660990586574453	-0.5177076445860108	-0.040794994579076135	-0.012794005652252818	0.2741478972665986	0.1457360234157357	-0.14815443716790766	0.1329785433034445	0.21028025395231636	0.22749379219792648	0.2767275862859644	0.9218032932850057	0.5535068497988186	0.5804877266533058
-136	-0.9927111242979971	-0.2531139546202718	0.8084672072979584	0.11557682574417298	-0.8184055665334256	-0.6856954080435658	-1.0580705377567903	0.5831174835741566	-0.7407557349576219	-0.648841379434831	-1.0118035052503123	-0.9909739469304043	-0.061748001568582865	-1.2996953693000666	-0.36400994566566475	-0.9479387974647778	-1.1095036240221978	-0.6194566472626214	-0.23156040848442744	0.048823028679605404	-0.39358064432910406	-0.5067780601104315	-0.5094079362405715	-0.23411099553605516	0.09029281861635094	0.2011642301964167	-0.19744588384845904	-0.2887347035270727	0.2728820436263772	0.2965578429364136	0.2710689895461769	1.0934340926220347	0.5733573422261179	0.562611876497785
-132	-1.3579876388596188	-1.0579838726035058	-0.11581309855546609	-0.0002301769703635989	-1.3794306481820062	-1.1764750450948716	-1.6925339656059128	-0.41275370016791907	-2.7107717922434835	-1.1264919014146093	-1.2723207441631872	-1.3842308486322283	-0.8223889449337078	-1.8722284985003113	-0.8137367347199568	-1.0341732475873278	-1.1842712134025197	-1.0026091311890533	0.09968648825749397	-0.23135915340185145	-0.46014684322529537	-0.5985590204385518	-1.055870411114396	-0.3735899319753247	-0.04788847628066068	0.10970037402828144	-0.4144279946354326	-0.8121283033847538	0.2148283863604196	0.16947336452134726	0.02284136036231974	0.8961593486094549	0.31739628234837064	0.21854314152853863
-128	-1.6459736782478804	-1.7257398323357358	-1.1284624309659086	-0.2992271177366506	-1.8012733413994877	-1.5654503067547103	-2.1310102885802875	-1.493227954909161	-3.9982366460943877	-1.36935233724096	-1.4523692094373684	-1.6175523955513877	-1.5756859739575664	-2.0728373475192745	-0.9198064780854267	-1.0336143944393248	-1.1586619586301408	-1.251676317869484	0.24413855312220345	-0.23582084417408744	-0.49118381614650725	-0.6597470028432711	-1.428702946870472	-0.4909201251986867	-0.05313208685811817	-0.012639979799961489	-0.6161436423004354	-1.1578197450015908	0.1655821945062997	-0.0019325293784598202	-0.25488012964747464	0.5347793088762525	0.0015995976241897705	-0.22233556154860387
-124	-1.7493623450934774	-2.0349178262832246	-1.858603115157637	-0.6617568714600228	-1.883363003744111	-1.6437981087190714	-2.1251687949884683	-2.238009685587972	-4.118008603189454	-1.2239409654233349	-1.4216166698803063	-1.5149860343830357	-2.02127980675589	-1.807093496528531	-0.6162601693806771	-0.8966733790647001	-0.9353209710348428	-1.2126532762428492	0.05227939771327546	0.07657545040585914	-0.40508365528829726	-0.5490750656570231	-1.4257059061294426	-0.5926499351797282	0.12772859600720532	-0.018147790758686583	-0.5942838773028306	-1.0927365990706341	0.2756319635107917	-0.017170278312128456	-0.30783468407157755	0.28616544532051624	-0.10480296585325684	-0.4470167446771316
-120	-1.6024650294853537	-1.8873860788377135	-2.038063759426527	-0.9240308380639275	-1.5576528271448804	-1.3127585616346389	-1.5973544080459252	-2.3540654122999642	-2.9961116238289778	-0.687601743392604	-1.1084227533965698	-1.0375264856846356	-1.9781219909316254	-1.0990515919593533	-0.008851267375056416	-0.6020189508497382	-0.49331530804061613	-0.8468108155805141	-0.3533920934814737	0.6131801589743299	-0.1555050309546623	-0.1997619117223266	-0.9938134525956901	-0.6204827412198392	0.484328864782131	0.19318672965865846	-0.23389422834471554	-0.5545414672202177	0.6248608215768275	0.2580747597854356	0.01622061054783588	0.3368279031355685	0.16520602959407193	-0.23631685912549474
-116	-1.229054805513573	-1.3551257814525988	-1.6343423086864874	-0.9737213229390814	-0.930591938530303	-0.6454133375085189	-0.7031043154130951	-1.8293733550614522	-1.02116656045586	0.06897383165826672	-0.5492362962207336	-0.32160550274713673	-1.479692932207738	-0.12022883414669627	0.6608566029076083	-0.18231289042696464	0.0802364049316236	-0.2647891633977863	-0.6684531552604076	1.1764180630546102	0.22797575535436346	0.3256674102667123	-0.26916661790600616	-0.5002024161107675	0.9259961224064999	0.6056368931738252	0.40314015644333534	0.2953375272446856	1.1555300921829699	0.8001901487174765	0.6675612909628852	0.6773538572375998	0.7687102536820569	0.39531594415039123
-112	-0.7507728915332832	-0.6560519917136841	-0.8721371867095032	-0.8219432810058473	-0.24499481854572366	0.12902717259732577	0.22575972917301532	-0.9424678659485919	1.1015135022009404	0.7614930252876505	0.105557121069954	0.37253299261451356	-0.762909589271806	0.8440616705564796	1.1126449080032195	0.26736599139421013	0.6144366248830229	0.31209695260405973	-0.6160784944238604	1.5391296109440884	0.6338985546320124	0.8499654510019317	0.473314701315829	-0.21116216427418644	1.299480792579417	1.078283903260566	1.0892050238766087	1.1315723629038577	1.6787697034412625	1.4203326666257967	1.404362198145	1.1179629536059428	1.462986346365824	1.1881418198151716
-108	-0.34138116154310943	-0.06394612773009208	-0.12798286942117515	-0.5927870854670101	0.2263885730749692	0.720396040051292	0.8313813188543331	-0.11801822453742844	2.630254500424065	1.1137787075532746	0.6435609443628663	0.7792769054765152	-0.15144167802245456	1.4858905039465462	1.146844980205386	0.6157331451129037	0.928972063103332	0.6528430564610131	-0.14230479264093618	1.5411512812804757	0.9127036906087002	1.1656213969365445	0.9455244517296015	0.1770699764787912	1.4483299218804278	1.4093590939224843	1.5409511288838253	1.6166609484863776	1.9630953023938196	1.853932256786251	1.9139386367159261	1.4076647722943767	1.9302500437639774	1.7672131016936112
-104	-0.13742694223992913	0.21036702341372907	0.25743463570448644	-0.43058147917754996	0.31080523054807113	0.914540646151395	0.9053193307907654	0.30071195884122387	3.080438606114242	0.991644260763856	0.886943814899354	0.7601743321299692	0.1119727564011224	1.597533341189089	0.7385170441101552	0.7560004572854657	0.9273504591416669	0.633446214983954	0.5341624604090294	1.167993304164748	0.956916747061404	1.1498303384360689	0.9857571696188989	0.5378217087518414	1.293807264876151	1.446445580645256	1.5739452799159406	1.5692486723380767	1.8618507338246695	1.9028251123070345	1.9812407443569788	1.3858531678496289	1.94940399631419	1.8433971358487993
-100	-0.1551700826541927	0.11488807172379048	0.1524105068173489	-0.38974460861033455	0.025368722091640327	0.6842429620633461	0.49615582698486055	0.23155423940370878	2.404807084687723	0.4805232870367648	0.7872441391142367	0.3808203329961932	-0.008221089819179047	1.1656142443791895	0.060439888235322425	0.671410141680249	0.6594972593822928	0.3084152333102241	1.0524251434457872	0.5703847989940294	0.7734877447626768	0.8460915663338253	0.6429643614748156	0.7679020147009432	0.8925289489146413	1.1806695431464154	1.2143251865245777	1.0616720888036055	1.4071017468212499	1.5498375853509523	1.6093919236557923	1.0762833329683759	1.518060322743499	1.3740507329581626
-96	-0.27245956590527587	-0.22351954820943296	-0.30643871349213997	-0.3878043284161824	-0.4253308166255753	0.2084314370853411	-0.11743655026111459	-0.1267842349189295	0.9933477615072357	-0.14168855512132048	0.4604873645600374	-0.11888308793093579	-0.3291097871100567	0.3846145858590807	-0.5826176986289768	0.4604890930947315	0.30734571736939714	-0.10816366198172334	1.1303391428065683	0.007100050319686725	0.4972240018211834	0.4541722822643512	0.1571564670409622	0.8523842670854549	0.42803981792145485	0.7638538460519537	0.6945707184421478	0.3888679732995138	0.8070465901979684	0.9755552982495451	1.0196601126676101	0.6643367988979672	0.8527022578645288	0.5902116283774126
-92	-0.29095879123660634	-0.5650039897005162	-0.7975968102344916	-0.26163256102309607	-0.7457687239891547	-0.2134061301327025	-0.567322908399648	-0.4352979947067186	-0.5056383597005587	-0.5302902446709725	0.13920032942913158	-0.44173750169805925	-0.5571512565851191	-0.40818366305291615	-0.8843180514896931	0.3003897957370263	0.09938245241584293	-0.3474838128853525	0.7456887941607128	-0.2679838829427142	0.33018392241084205	0.23038399161346573	-0.16161251027311999	0.8710634090365856	0.13080239262935042	0.4337937224879976	0.33170443689522333	-0.08090332130033165	0.3424669197495967	0.46517288567400106	0.5295552001934581	0.37683802747951417	0.2676049762168337	-0.12854723599880605
-88	-0.051513891537067535	-0.6775469762861845	-0.9937368606273471	0.09972118561124624	-0.6969634872959699	-0.3127356461735379	-0.5812309965717785	-0.4330645192656565	-1.4671231471213706	-0.44368383176364085	0.057274084393618196	-0.3809165050902955	-0.4585283089028284	-0.8645452835189847	-0.6781979782147777	0.35681626110588516	0.19416347097012676	-0.22684237303682092	0.16204658109760084	-0.12797211078282036	0.43117797265863367	0.3477354040903142	-0.09451156830767639	0.930124757325733	0.1579819615666948	0.3830752959116425	0.3518846324142653	-0.0956997347442098	0.2141456300574025	0.25383907492445607	0.3764106323752313	0.33968830022879526	0.002302979346138208	-0.4601047623461902
-84	0.4622027862323421	-0.4531991172315604	-0.7409423570999425	0.6374723299144324	-0.21877784971791034	0.009270913875538047	-0.11835931956687502	-0.098602473486862	-1.548187728787735	0.1307610419071419	0.32545745290602107	0.07406596075670031	0.0035566331263242193	-0.7773544768734282	-0.02007716330287239	0.6859788281287572	0.5899723157292436	0.24650901493777472	-0.22835877480072309	0.3573657861270045	0.8150995353146606	0.7905389050551676	0.36590352562075334	1.0635530921786782	0.4969042825074154	0.6445182545601867	0.7577424030246285	0.347255705910373	0.42679142844210854	0.3962292661199786	0.5852217659479941	0.5014730083202366	0.0954766271087982	-0.3114807001832829
-80	1.0961278649312125	0.038336224757202796	-0.14048506284053788	1.1057771416402489	0.5342664109092552	0.6293786152208167	0.6189731939900689	0.343697666254134	-0.8150168636725659	0.9580675935398215	0.8650355317210245	0.7320229988689827	0.6421480758666775	-0.1813550884913259	0.8264515975113412	1.1849863499287292	1.1142647238255459	0.8673521854436607	-0.14898154101904515	0.9419014430107214	1.322387215136635	1.3463113273961786	1.0017327044944886	1.178586837653932	0.9503270959702531	1.0591208908043703	1.3144174781038391	0.9963557695028761	0.7778667787939793	0.7325566988569541	0.9530683135765524	0.6659564955110043	0.37178262974333065	0.13448263670823163
-76	1.5993937213571217	0.588950811329662	0.5131752478040885	1.195825931390925	1.2690254417804547	1.2686527935422598	1.3003280129981152	0.5732208475899269	0.3122280828222345	1.6655777650743004	1.4437928163315803	1.2999539342484494	1.145214912384184	0.6414443834322359	1.506774421702352	1.630837078745386	1.5060931406142894	1.3300645317829012	0.3731312146302914	1.3160719838293373	1.6889737801824674	1.7089018778570684	1.4757115803653729	1.0935933562324724	1.227014776946641	1.3553956712834603	1.6712579684977644	1.4767250977425748	0.9672012304682078	0.9774923299905652	1.1652592391158034	0.6127355083254281	0.5512297735602134	0.5299403654070243
-72	1.7602071717644001	0.9603403782440137	0.8994452334583366	0.7361838799009579	1.6995686249738333	1.6394597250554033	1.6376321274419143	0.38549312851852946	1.2683517900869041	1.9260973881729602	1.7958092644174335	1.5279644689129515	1.2447248665854602	1.2723314729992197	1.7385063127493654	1.7918120577395982	1.5456305703240374	1.381030556053028	0.996352610456711	1.2569096056675506	1.6823774533711187	1.6363599259070405	1.5003220997124171	0.6523591859559482	1.092364308460307	1.2968012061756597	1.5502117833099074	1.4841904602725546	0.7646346072918953	0.8802160002419627	0.9738488768785787	0.2304791802309317	0.41255685582904533	0.5617644772651527
-68	1.527828689532496	1.004616138782863	0.8460199811556308	-0.15792353411380125	1.688786025551899	1.5952106673973458	1.5237998923930094	-0.168702080419901	1.6143163401854124	1.6211699206429624	1.7643991664208696	1.329532023887822	0.8650854208085755	1.3507565225830147	1.4418114387349592	1.556556936148807	1.1689337462476395	0.9508439278437957	1.2553696600690216	0.7418443541870511	1.2344026534386088	1.083671567088211	0.9899430846016166	-0.14568711780482096	0.5026937710467992	0.8188205936739487	0.9017319656493711	0.9454889273614051	0.14579628371145145	0.3708854606324366	0.34264990600859513	-0.40907037154867854	-0.07678449879571984	0.13267581131339462
-64	1.0459291908559867	0.7370153646934753	0.4157955636017064	-1.091741559133266	1.3149049248875817	1.2050256698702002	1.0726453038790502	-0.8041919449529479	1.2462748257642862	0.9039153433866258	1.3922370637075345	0.8192825892744363	0.1674310262744361	0.7605289201608427	0.7781321982764939	1.0107437346688815	0.5084242211856821	0.1956617380209018	0.8383977392009982	-0.028398021983927803	0.4974524664240307	0.23816883503863512	0.11504985363046363	-1.0900175543921353	-0.3494482031582554	0.08006145039848836	-0.05633689821443911	0.058982811719273484	-0.6795865280159594	-0.3857577135360194	-0.5190089331874617	-1.0775788995239426	-0.7336747031761833	-0.5736111984075754
-60	0.5770533666346636	0.3241114906234238	-0.13527744974314354	-1.5724889000291757	0.8275821188059418	0.7147362214162897	0.55014341930728	-1.165346261896956	0.4364896107620596	0.12685799566665282	0.9068120695107516	0.2550771229979599	-0.5290322290415193	-0.28673392461862623	0.07622203211613636	0.41303589835789567	-0.16044957895300466	-0.5728754982789702	-0.20612776227407206	-0.7145215254863508	-0.2129542673218011	-0.5613781795633387	-0.771499035794767	-1.829154248387811	-1.1117230625694507	-0.605360268018121	-0.9387728548190049	-0.80376177823269	-1.3659414018476552	-1.0627974244941236	-1.2544343439855676	-1.5002948007851789	-1.2508063284765392	-1.1830574244193781
-56	0.3597161760784983	-0.005747461676987811	-0.5047792183529354	-1.2758413521026017	0.5159106241552146	0.415174304390781	0.23413239360347549	-1.038681981325334	-0.30384862346228714	-0.331330030320012	0.6043532475471833	-0.08635335393799605	-0.9057959891338309	-1.322694059847164	-0.32294788875105646	0.0747556684513968	-0.5437029586416252	-1.0344235870947525	-1.4587939940814867	-0.9953284238481213	-0.5658181295414477	-0.9831845139475989	-1.2980548110614107	-2.0407483526204326	-1.4382238351749863	-0.9211250520338189	-1.3794896567801849	-1.2808716264810758	-1.6059238870129369	-1.3322703804711795	-1.5362732371643737	-1.4881603680231517	-1.3544210161345538	-1.3268859352943443
-52	0.4791657614531103	-0.08073754588246863	-0.5082419501824191	-0.24521456596929453	0.5560652599600533	0.4870798575501488	0.27464115550319196	-0.4825062441564684	-0.4833875286295699	-0.2546411746271734	0.6903596502993984	-0.04165385652992781	-0.8013619164261575	-1.8351467801491095	-0.22959448339192542	0.20039793798395777	-0.46768906594451903	-1.011154768298215	-2.3358509481583294	-0.7216206174751106	-0.37942355775405323	-0.8606634118284986	-1.2485079733798028	-1.6132327277461318	-1.1614021033528368	-0.708184061646608	-1.2079974382419087	-1.1936287849807619	-1.285346981618092	-1.0303941939088197	-1.2277783124442863	-1.022782442371641	-0.942139861589221	-0.8344653823765148
-48	0.830949900436538	0.13134223189571817	-0.16595190721574682	1.1068140240381439	0.921835658607037	0.909792897788443	0.6339795573440576	0.21300432032212485	0.10155378256430295	0.30744463127715216	1.1670521468261206	0.3712554564639457	-0.2782856218941371	-1.5264898500049313	0.3082872919405367	0.77763068479662	0.04371692601729757	-0.5437966571429756	-2.3971018730677724	0.011749433323878814	0.2866977744016612	-0.26462429695075385	-0.6603207571524304	-0.7278858404855681	-0.3773635020265273	-0.042779829245085416	-0.5222855793164265	-0.621082781177278	-0.5338495956293933	-0.23914405643166547	-0.4447138298250815	-0.2522167557070555	-0.13074563410650636	0.17570529833778173
-44	1.1938627928155592	0.5158123360962281	0.32801580346261117	2.207237953335341	1.405254002837878	1.4787869416094395	1.121179458648481	0.7039909941065352	1.2341330020263257	1.073948022991972	1.827872510109797	0.9721466874373808	0.42352491510273	-0.4886176573814713	1.0350397799108846	1.57616209585883	0.7857958654591408	0.14181317353206999	-1.5882902105285268	0.9107670164955478	1.160313245704829	0.541587172571375	0.20195804485353117	0.2173152858492656	0.5994756206635936	0.8055900314972696	0.37270399833994244	0.15756954212937394	0.3485718062660132	0.7547152619380635	0.508596001771491	0.5864990338776612	0.8040769079888218	1.3505713905568097
-40	1.3657842840044239	0.8810718633341317	0.7305802684458369	2.6244332724114185	1.7366268590950529	1.918796892090013	1.4972181282389305	0.7981361130590577	2.359791272881211	1.6826941924526553	2.362641566987174	1.5097424945860938	1.0151765320896355	0.817179856621359	1.617116924017758	2.2581889572350224	1.471464868645138	0.7535376529742093	-0.27557498147053033	1.6211011368830652	1.8893663835507313	1.234438654643962	0.9784919594855694	0.8091775158479534	1.388495918583008	1.5097682437925717	1.1209363909077006	0.8123846629612855	1.0434623930335405	1.596754904530288	1.288463112439082	1.2671039072470371	1.555818315392615	2.267674201962051
-36	1.2777713504955561	1.0635608407824795	0.888955233236866	2.29281949418067	1.7351310209335464	2.0281655737215374	1.5950468738339167	0.5605717287215638	2.8574428486206114	1.8763725710225023	2.517427676520693	1.7798284247284721	1.3005462852067318	1.784488673473115	1.8082505418899895	2.544041865601448	1.8647694540626616	1.0756472322009387	0.9482712721724956	1.8919249725259	2.2100484315386946	1.5826898773288602	1.3845655883164416	0.8371368029439584	1.7220646099481642	1.8408049298540623	1.4822396002539817	1.1216658325486202	1.360094186209952	2.0253953882579503	1.6669733482235478	1.648000713002284	1.9156324815068766	2.625552647637474
-32	1.018515226653655	1.0061392758716077	0.8076893666856034	1.5233451089545214	1.4052345717237302	1.7733973219920236	1.3892753089161232	0.2564405494414323	2.36442350744288	1.6229208666834636	2.2195961419332897	1.7089621977574287	1.2554320065272992	1.9747251222344522	1.562357898582281	2.3425235689147983	1.8805514526571543	1.0617252561466108	1.5738576610883421	1.6803234773173445	2.0597252793761096	1.5406919678889963	1.335592028106836	0.40318351882229997	1.5571728905463607	1.7594723657054643	1.423885103445441	1.0597833368247316	1.2981300321229274	1.972003574160879	1.6135832030565262	1.689169283416837	1.83835339082064	2.3623592793902306
-28	0.7608126382692573	0.7715499381612766	0.6146160944679884	0.7944538573234204	0.9269596314868613	1.2871568170474827	0.9905941461348544	0.17191125409115043	0.9837618445354357	1.108200904909276	1.601884957083864	1.3694620097870698	1.0094040606762922	1.3520315851408307	1.0368293497611027	1.7774904921477048	1.6026682813235247	0.8314569571483621	1.430955406390847	1.1456599206609535	1.5783317049231766	1.2382723061769467	0.9626989936364658	-0.14199711346538244	1.0646933290303526	1.3993569577172684	1.095727679347201	0.7708346228211331	1.0018480990864824	1.5543096026278695	1.2676556078376853	1.422204490885597	1.420735951651329	1.6466591316610668
-24	0.6354854686905058	0.4831718492229947	0.44913515335174525	0.45658409480213097	0.5404877649012687	0.7729728798424069	0.5665404782296569	0.41656148328513637	-0.7289124708845874	0.6065155252402409	0.9128687358696664	0.918625769680052	0.7462362628215925	0.30258360428709047	0.48607978102030985	1.0989948483376704	1.2146762578814183	0.5797617420817746	0.7401320915609115	0.5422038422246643	1.0042499278462875	0.881094691913023	0.5197978006590722	-0.408606289785629	0.5100439177987192	0.960586962658827	0.7148441058230608	0.4571218777082592	0.645914850988393	0.9799376105363019	0.8310435989378884	0.9100071168812248	0.8217148760076448	0.7629700283814557
-20	0.6434577687230205	0.23924992918168045	0.3589900722976777	0.5304645882565003	0.3971175243365012	0.38105478786582525	0.2441711568628133	0.8414954521867991	-2.0101277777465705	0.31250160853641823	0.37231081630167423	0.5064845668402984	0.5936537369998561	-0.5737273678599493	0.11289954902039503	0.536503969268474	0.8897443987316997	0.45925316098611185	-0.04692820075227002	0.07593224178455066	0.5315728174140112	0.6259441955975298	0.2425661527946762	-0.19797335515106712	0.10090269122874282	0.5840500578439578	0.43384063134331735	0.25765338475025984	0.3290239564217968	0.42316418779346004	0.4493618596175761	0.22114206794695712	0.1769748027624864	-0.03647372117370555
-16	0.6602068526765522	0.05347782359926492	0.26959747007967727	0.7193462234455136	0.4621255982175529	0.12844225731846046	0.04985975834059837	1.1283950777174825	-2.2626695575807654	0.22959953488555737	0.05546029643123094	0.20334620722452285	0.5633195028387719	-0.7931468466760856	-0.04344749067185127	0.17841744377866522	0.7004692536788728	0.5004220592262103	-0.5127603994774992	-0.1990378941040679	0.2102744872029489	0.5005818592784497	0.23156578780360484	0.3784002950174552	-0.11480513186079493	0.2803825430943635	0.2675357752244242	0.18438360048471725	0.03688051169739965	-0.05300088585942789	0.14987087211917102	-0.563623784549582	-0.44193184264185875	-0.6312767251288968
-12	0.5291815386763047	-0.1403608020576561	0.045024104302695454	0.6314382537158303	0.5311081396045154	-0.09049393213789594	-0.0853339431515569	0.9921033953414017	-1.3568565811232167	0.1803061212517334	-0.12723967400850839	-0.01775454911577378	0.5667867050166024	-0.25583854253072075	-0.11777654260463562	-0.0532873383309146	0.5950318559882285	0.6102555974811643	-0.49405541891292354	-0.38582268259866054	-0.05455426485473923	0.4101319004671257	0.41906803740554743	0.963379559468793	-0.2443970435647805	-0.046148251625611425	0.11553852976000148	0.14745837412797805	-0.3092661194145669	-0.48759198065676596	-0.13248978521752028	-1.33014571330888	-1.008276817637146	-1.0353465054121245
-8	0.18065839960262772	-0.4251629699463116	-0.3997203101556592	0.064215145843026	0.35426908642016225	-0.4134586442998978	-0.26278138094359643	0.3734621694195712	0.29816377087654233	-0.06712830794790699	-0.3464592090442504	-0.2380108231257345	0.49056002373818536	0.7046104055734772	-0.32022809901449983	-0.32195785560383683	0.4508786488116683	0.6453283412852838	-0.1300530579382873	-0.651691971564017	-0.4085418273624672	0.22206637207231666	0.6311963780679424	1.1681417197298638	-0.44802486783399487	-0.497978626424457	-0.13966609502339172	0.046058252337518105	-0.7569491844139603	-0.9411751008113224	-0.46630826474713855	-1.9261062096603647	-1.4879815540892771	-1.3185882535068223
-4	-0.30781978291042134	-0.823184070893004	-1.0159391139129665	-0.8349415638824232	-0.20085170814348718	-0.8992305375283977	-0.5340841995106368	-0.4968395816656751	1.9558829019756276	-0.6322896464596524	-0.7217392307179142	-0.5185265527985123	0.2840665869693395	1.5217745265686553	-0.7872833589703999	-0.7436901908217951	0.17179694728392103	0.5146070109726233	0.26706802777573024	-1.0971598597482481	-0.922576782758303	-0.1254753318241278	0.7049553376519215	0.8033919314127924	-0.8100898245385821	-1.0774048539616379	-0.5246314393149288	-0.13945761287765496	-1.2517718045101733	-1.4048998320395167	-0.8356484153630299	-2.1939721052090437	-1.8018009617137072	-1.510395403863315
0	-0.752212760933487	-1.2556272713430905	-1.626701112454864	-1.6360521275221975	-1.0472061607624308	-1.4696168862431873	-0.8532861449632744	-1.2088060348508902	2.8978111670764304	-1.4228206837017294	-1.226942178489488	-0.8455814697851255	0.0021320688484423745	1.7245271162361975	-1.4756373129781704	-1.290086504540086	-0.2362062776085544	0.24539369282755352	0.42955219637184483	-1.6687929588146568	-1.5180040559589731	-0.5627986178493948	0.5879129752574532	-0.003167833426419833	-1.2650090424070504	-1.6458852249552571	-0.9291487312700002	-0.3178349427304876	-1.6408003527223065	-1.76478683502951	-1.115588542982665	-2.0333552309197382	-1.8376806928014033	-1.5534956416008718
4	-0.9787209009255737	-1.572136398160864	-2.0215187021715466	-1.8877854299567003	-1.89991151806848	-1.9432713936380228	-1.095217105961344	-1.3972640002259096	2.773677342087714	-2.161849016453477	-1.69323360492452	-1.129671332368191	-0.22308342102471254	1.1979173391615237	-2.161740297581681	-1.787462229984162	-0.6551331265121466	-0.025546936253778497	0.2928590171095706	-2.1692273562023043	-1.9908471057218853	-0.914023575859274	0.3657398810689357	-0.8738868214478227	-1.6230171877891775	-1.9801944444252333	-1.1540677518317424	-0.34011945042568953	-1.751383538592708	-1.85043334493748	-1.1328375310906658	-1.461154457217922	-1.5131213626805904	-1.3418874706721184
8	-0.943749723435895	-1.6383420187593971	-2.0816967434777416	-1.4107701742793342	-2.4182321964244577	-2.1444051211575528	-1.1298820943915846	-0.9531752443090095	1.7444283918207173	-2.535552018439655	-1.9115779351609123	-1.260367628730109	-0.26333689623150053	0.22995367588159624	-2.554140084493799	-2.0172162005039427	-0.9197885370873946	-0.13254393603716202	0.0021743553170053835	-2.3633816182548366	-2.1258544868202334	-0.9960709785108584	0.2023244197028793	-1.3960670197525522	-1.6823139148199484	-1.8986701917395217	-1.0272065375142798	-0.10321921084092853	-1.4982222280822817	-1.5430943926952476	-0.7776053528226544	-0.6325231774572927	-0.8492321350591115	-0.815848229255794
12	-0.7690538148536749	-1.4231990539858084	-1.8554623080137722	-0.42711332332540536	-2.388420814206023	-2.0179576822830763	-0.9090158320364681	-0.0916749311159132	0.3647054722637928	-2.3742279946465197	-1.7702760651715959	-1.1826924055756953	-0.07650651018376986	-0.6738330108796068	-2.4551596579553703	-1.8555380059124458	-0.9184253788648231	0.01602959070032908	-0.21738974695156327	-2.1176385826051365	-1.8318126155380816	-0.7326359730343052	0.23279049933787388	-1.3514521087857874	-1.3564504350747426	-1.381791230527731	-0.5183628188397277	0.364090084110363	-0.9479395127205134	-0.8738861061920872	-0.09617342030562448	0.2029636050106756	-0.0021318469608395322	-0.045629106346799383
16	-0.6673330647786164	-1.0339474651934886	-1.53739571183195	0.5552825317668391	-1.8447551680719332	-1.6791864591164798	-0.515398560653242	0.7621515374014665	-0.71709829387813	-1.7585467055744397	-1.3413702215660634	-0.9492243504400478	0.2610289447869797	-1.0923632355767037	-1.8758063268985659	-1.3651006187305763	-0.6701381785639536	0.3759587099596853	-0.228902637380603	-1.4857848845162709	-1.2143330543376682	-0.2153774047420596	0.47649258254865035	-0.825159726443741	-0.7358767371672058	-0.6105116590344729	0.2169418925530129	0.8905857182905802	-0.29792398139121634	-0.04476970795414608	0.6988633257387441	0.7960327843595342	0.7798182944636431	0.7582077364852151
20	-0.802710471510796	-0.6726568920318682	-1.3576319183404975	1.0393135521397794	-1.0606260272904384	-1.362320300477403	-0.13873669470091676	1.2032314508577016	-1.0741848918497114	-0.9895455216219685	-0.8593076445818606	-0.7098288518150322	0.5910596236564911	-0.9204555130607472	-1.0390518877498762	-0.7801468948694603	-0.32900705850504564	0.7829332927963852	-0.0776841116970435	-0.691797791164908	-0.5388311730132088	0.32855373538035093	0.8212094882258703	-0.13926562631731815	-0.047603413342451786	0.10716813030603704	0.8980067349649592	1.2429211108298213	0.22109733466116613	0.6508906467216798	1.3180607524018917	1.0016568873865257	1.2621673313699133	1.3293982710652839
24	-1.1714938849435683	-0.5288144336700599	-1.4433309995450265	0.8377174117872496	-0.4081088890262342	-1.2903457847442041	0.018967471968923108	1.062842008768303	-0.666481552825505	-0.4326059509322348	-0.5964410289964505	-0.6351488216576644	0.7638404350069131	-0.3955079605130503	-0.2655153267832515	-0.3862566640161745	-0.10415142003228144	1.0420323583996998	0.049848105632574205	-0.016199655789959938	-0.0975370255630307	0.6525994522784312	1.0902042361391004	0.3411408058136595	0.4638969886511604	0.4883284854480736	1.2573685614311625	1.2553212610975863	0.4624609935528572	0.9719740127819024	1.541453357619435	0.8398279526487727	1.3397725786715375	1.4845288954447349
28	-1.591878886972103	-0.6778001172119065	-1.7492105916682625	0.17869709387008412	-0.1703446652164741	-1.5469118317648942	-0.15111285409922012	0.4813265788323746	0.19717529366302314	-0.3277049652408923	-0.711846647849519	-0.8228464701858486	0.7211982589632986	0.08534847178368422	0.18863441002427034	-0.3675108542700308	-0.14663618766002212	1.033730981124211	-0.028952097447135183	0.3460700801218167	-0.0579360125986292	0.6193990691759138	1.1456809014958615	0.4117626537417408	0.6633788926542004	0.42010396612912826	1.175748464476894	0.9243742204216115	0.4309783269014626	0.854900357949006	1.335222121682294	0.47805687664450863	1.0917063923929373	1.2286359040711492
32	-1.8126852466593717	-1.0448844406450015	-2.096545690965276	-0.43996825703165826	-0.4118136753175397	-2.029428715350428	-0.6093958600870948	-0.19688083181741495	1.0668263408428993	-0.67557328768872	-1.165294763484	-1.2431265084351988	0.5212425576401353	0.23183117748379722	0.24782611367121235	-0.7121306043765121	-0.4699277567919858	0.7735184411546586	-0.35716110377736254	0.3736794581515513	-0.38044139646799036	0.2679295831114609	0.9652563309140972	0.12243633686386304	0.5847510680693914	0.014153937773434034	0.7376696448775228	0.4151645292290625	0.26385313205859684	0.4468166220828034	0.8688902236935616	0.14630733393446538	0.741127548730792	0.7622503619022546
36	-1.6778020816404218	-1.4541469775679507	-2.2913057746257754	-0.5675076827979852	-0.9734182333211638	-2.5121686395161484	-1.1899375885484307	-0.634380577393094	1.5885910947745934	-1.2618014780612057	-1.747121210455581	-1.7535918906760606	0.2935833327510524	0.037637568915232	0.022864676954238945	-1.2311550347715763	-0.9475156640925857	0.39252051611980554	-0.7958273867541568	0.2016997630272103	-0.8529253580493598	-0.21789003853622238	0.6453060491481941	-0.29014068768680723	0.3899615993190915	-0.46220868709216	0.17581203535514378	-0.029974285437484816	0.13870647514609194	0.022832719551494275	0.41812100900942467	0.023378753975612725	0.5350113497577772	0.37695592546658224
40	-1.2475694386455392	-1.7389786199533732	-2.253766531022433	-0.09611511951260075	-1.5930621583771967	-2.7897479463714805	-1.6967545704918023	-0.6995172482949239	1.6330245692031202	-1.8048547460764195	-2.211923593658594	-2.1846201364673967	0.14396937155137587	-0.23759323298549243	-0.29520362541053574	-1.683342094939728	-1.3965725863482608	0.04629748675459103	-1.0986797781861832	0.011234751874155634	-1.2264815537958267	-0.6273041947739362	0.32563248194496214	-0.5684826955747595	0.25546055967683196	-0.7443395834249834	-0.26917070082416295	-0.23372030199170007	0.16820973115413815	-0.17031553344641367	0.20220805653541032	0.15862099786287956	0.6093751772754099	0.2913314096724789
44	-0.7940177897433447	-1.8439011527237474	-2.0763370938330703	0.6550632698686462	-2.0704803414522273	-2.8128480840237295	-2.015552754081751	-0.5341576920374593	1.2723194328610055	-2.133168453552866	-2.4331099925599906	-2.441683763061415	0.07158474606083541	-0.2655020349475002	-0.5792455062546783	-1.9281709145501713	-1.6931070046593368	-0.18714657378630464	-1.0592808696705436	-0.10139832620054062	-1.3706678117478315	-0.852509138815944	0.08928357787240092	-0.5870469197710534	0.25967037612204424	-0.7264381032722739	-0.48727863903997287	-0.18644699407234216	0.346241890509948	-0.052800889924969605	0.2548294358972212	0.46888837099901676	0.9194890237481544	0.5264313803733116
48	-0.6649199707409772	-1.8587776375570986	-1.9737034986255813	1.1173444958133147	-2.37502407428013	-2.7321264674825367	-2.1758141462705134	-0.45421218757392756	0.6531584246357235	-2.282339805562719	-2.484144442962147	-2.5635182792790814	-0.04253474612225868	0.10134802733105779	-0.8513228871786193	-2.01407980410378	-1.8485653353749354	-0.3522420218634362	-0.6376294477576636	-0.18951810848547915	-1.3561329807374702	-0.9518589949417577	-0.0919667256536744	-0.403337567026333	0.34212431225229273	-0.5251539336297107	-0.5534476027820614	-0.0445437355705022	0.5761028513668303	0.24980454083792447	0.40932917491563986	0.805851695887173	1.2764571872908663	0.8983121491640172
52	-1.0996657582175684	-1.9700139711232998	-2.1617634241837957	0.8010480979722074	-2.6407823495948723	-2.822798960234568	-2.3292369783721716	-0.7536854724928791	-0.13209794428375618	-2.459681981552351	-2.597515814898812	-2.700506680346183	-0.36767235305464196	0.6916672569931794	-1.2581293551151547	-2.148781055747335	-1.9987417409024537	-0.576120196318416	0.008779240749962653	-0.41606381430484074	-1.4144005739741479	-1.104042527272375	-0.32800394213833084	-0.18197995378325107	0.3557319632131912	-0.41170224443441344	-0.6613833291521586	-0.02029334376099148	0.7584325056000956	0.4953163849722857	0.4163133193472406	1.057980653952696	1.4766119681270766	1.1420632571949976
56	-2.104713196208937	-2.357282155761081	-2.7409374644695688	-0.41597384109377944	-3.0586163920427505	-3.3288578903076	-2.6544632844663374	-1.5281318387550582	-1.076556322240758	-2.900358669587699	-3.023597709651306	-3.022474042890837	-1.009099123314391	1.0896129580644214	-1.95138871177091	-2.5679655010238345	-2.309500926862552	-0.9650527810527032	0.600565789613783	-0.933375952271443	-1.795959348912599	-1.478930350384407	-0.7107946854765341	-0.05961589500157631	0.17500247017068718	-0.6488486512014753	-0.9745441650581282	-0.2267093801735016	0.8757662154974905	0.4901725935481235	0.12899488178110025	1.2202229469009227	1.445522662327884	1.096384284112389
60	-3.4616293819767785	-3.1033220212786348	-3.658184519114802	-2.2149717751847113	-3.7408792878116572	-4.318956841054911	-3.248462907218952	-2.6211411886794957	-2.187989229400175	-3.7063281442526503	-3.8752028844268684	-3.611696949423212	-1.9162867020862797	0.8730030037773246	-2.950633041561598	-3.3817269716713105	-2.8572959827762556	-1.5048662386093303	0.8693937637313528	-1.758467669815667	-2.6082465582799226	-2.1030878967593054	-1.2102283208809297	-0.05171567188557428	-0.21005561894788624	-1.3235099282227898	-1.484416719503551	-0.5738551602180251	1.0182729933778993	0.23621347486939284	-0.3526511779464639	1.3964699471502167	1.3135460581994232	0.8411276319248188
64	-4.86270998680731	-4.169242371523236	-4.766171443349875	-4.013645638822818	-4.647452342697463	-5.638191685746624	-4.066846837266379	-3.715709438479453	-3.376757136402486	-4.770211207743972	-5.049490915901163	-4.402889240592757	-2.8723022865255996	-0.12599231270928188	-4.083621491612455	-4.4900979882363465	-3.556640377601767	-2.0322208353232374	0.6699053032174042	-2.726227753431878	-3.7268795873007385	-2.802416079121479	-1.6391426283459987	-0.06132860093726031	-0.6731248480968183	-2.268704170221169	-1.9642362545012293	-0.7862489799675794	1.3358098234782956	-0.028583433406904432	-0.6714674217437336	1.734781618506755	1.374885197982911	0.7004607898193361
68	-6.089252456549944	-5.4433941703693	-5.936996921808619	-5.280566202182989	-5.614747986922757	-6.9855623068870765	-4.953378664862085	-4.517180908242431	-4.406549442609884	-5.829989895406423	-6.276217921623555	-5.214125620075344	-3.586657991890604	-1.6965193705641124	-5.051931368470686	-5.621937737575991	-4.190054406077624	-2.30911039723097	0.015721470077876075	-3.5569124131998353	-4.836860644526382	-3.2712340272328713	-1.7274198488491332	0.018975466441883422	-1.0198086474420154	-3.124267093399826	-2.0612130113059473	-0.5446310625630796	1.94189893709089	0.07043350470164714	-0.36193019060309034	2.333047145675174	1.9441317270785388	1.0949063273442698
72	-7.119853001738455	-6.822208864153752	-7.146340828972605	-5.8044476362546025	-6.467205984953613	-8.071138361580342	-5.736737236797869	-4.910818564414119	-4.968734728666088	-6.622747404543818	-7.2619175727603915	-5.849403366579333	-3.843763818573017	-3.3316860114857625	-5.592840180581584	-6.473389132368422	-4.525251377124643	-2.162516111636119	-0.9440631246573328	-4.002787103083631	-5.5809645511865185	-3.23148583549973	-1.2742812601341895	0.1984044904468002	-1.0992176504992783	-3.503064861989962	-1.4805030785374798	0.3245918146521336	2.8361112999836724	0.8573985674191695	0.9144881344594805	3.178525678239032	3.190574876359246	2.3201141298844625
76	-8.104539850753824	-8.261925676467303	-8.466621377549616	-5.760702118634336	-7.128211003426337	-8.757429100814422	-6.33206270526552	-5.004662501097352	-4.849858748589024	-7.0345787824408115	-7.840079764599012	-6.209272368966649	-3.625511637117215	-4.477001655719363	-5.634100422939571	-6.8615684336039395	-4.450870025841491	-1.6078686673577582	-1.9903098294552364	-3.9818899530967187	-5.730388150052424	-2.59217857660052	-0.2924153797396274	0.35462704211345714	-0.8845993854123226	-3.1717576900511637	-0.15970875282496172	1.7195143656232432	3.898198594741735	2.4331462321839226	3.1720557132742884	4.160548676476825	5.041702257778738	4.372278202462035
80	-9.222663856109543	-9.762281393199288	-9.968301747903746	-5.5449318745807155	-7.651572684996822	-9.100573516757148	-6.7777046986167	-5.039058672580334	-4.090106000110486	-7.149353009293369	-8.03605268356834	-6.336755736564706	-3.1341147343661735	-4.807428824684918	-5.338900552621646	-6.8019032306600975	-4.04434727601337	-0.874532876190912	-2.9070699141538845	-3.6132733730642514	-5.2822446689756255	-1.5141336879648997	0.9504402255857511	0.30670905035783624	-0.4715115714089587	-2.150556082064264	1.6669900375240427	3.2750039017961075	4.956019865874704	4.608917701528885	6.051066383343131	5.143045412430098	7.205241661953777	6.915775758448769
84	-10.513579342047072	-11.289803476439834	-11.592368096647611	-5.499749646606411	-8.152927378097477	-9.27039620919948	-7.181523781764636	-5.223790632410561	-3.0245509071281473	-7.169583779353375	-8.010528544228485	-6.369326098573539	-2.696383231031032	-4.378255833062178	-5.010603415236405	-6.466028197175825	-3.5266065508495923	-0.3074333063946734	-3.522724142717305	-3.1339709679633385	-4.432999122871474	-0.3354169121856854	2.0292508550908677	-0.04663026693611244	0.0021630537175909583	-0.6841325146568562	3.558174601154412	4.5180439834966	5.8848643154338935	6.979857427140738	8.947270370781895	6.048074230182961	9.292742705725091	9.410363173567777
88	-11.79197022321886	-12.69910999906576	-13.084103551255366	-5.704501137636093	-8.68447301579354	-9.403135275941983	-7.613527755588481	-5.6043066836959445	-2.1580259745472357	-7.257445793902052	-7.921562174824197	-6.427704794867797	-2.596523278356518	-3.5681128411805902	-4.903196799296643	-6.050522312146995	-3.1286668698474576	-0.19222350370035887	-3.726969471104833	-2.744945042355569	-3.4492394837078892	0.6017629489010743	2.557112448911954	-0.620825527531077	0.460844247369729	0.8918649531735199	5.061796652411842	5.0846795907390785	6.6736516784021145	9.09578511802656	11.255669565393202	6.891924840692824	10.972712489081232	11.330415697101458
92	-12.702786413546223	-13.714320148174963	-14.04316612512791	-5.948763832331889	-9.140098548700813	-9.478513693720421	-8.005216578299514	-6.027732357065374	-1.9188884448241568	-7.397292118469629	-7.791903476115909	-6.502027018343481	-2.9226097986819104	-2.8515911030299166	-5.047458159100875	-5.6372151232490895	-2.9401817247544892	-0.5950110539672544	-3.487744084135577	-2.4778463777925013	-2.51292800268867	1.1315122814220757	2.3777124821712916	-1.1526682347759496	0.9503635740127636	2.311369174843675	5.918212875682949	4.8860769148489	7.412359218956491	10.637946101986984	12.606393782258829	7.744958858009335	12.07326027682996	12.363119094152335
96	-12.88617893780244	-14.001352274830648	-14.079693758702678	-5.893413528821733	-9.26180264995604	-9.302477813122389	-8.13031957480983	-6.225760444181368	-2.4115893779903015	-7.371532898411374	-7.46943471930067	-6.415433390632422	-3.5125706107147416	-2.5327236588429143	-5.2028550970325105	-5.133909212501992	-2.8362677025711682	-1.3102433648407572	-2.861624472068916	-2.167284244787533	-1.633327003169947	1.3479868139565847	1.6473379093540552	-1.3252377476611763	1.6085096557060543	3.477174034876375	6.161324485481749	4.13542508034885	8.206541040681843	11.512098283312676	12.976084676406016	8.636826493391863	12.58938309352004	12.48866745656729
100	-12.160924880795639	-13.313215222124667	-13.006153073852074	-5.312953458723533	-8.76108262711135	-8.616272904576569	-7.699565868011637	-5.963205799305925	-3.3277130042936447	-6.876776201052116	-6.714644415115024	-5.903625473376028	-4.031286229446004	-2.5862786704569682	-4.979111182039548	-4.338262547030339	-2.5387811596668537	-1.9535611818581984	-1.9820650765921413	-1.556441064719656	-0.6784050447502046	1.5376977881709089	0.7566890101401725	-0.9464266276306441	2.556120389206817	4.449036110135672	6.0628366317265	3.2210729040837593	9.070000625598984	11.8206681906757	12.628102270668377	9.47231671802806	12.61020561849188	11.9188937839946
104	-10.6240424841632	-11.634719819257969	-10.963276835418531	-4.2662653815321825	-7.494153480682352	-7.270640831710535	-6.524493677832657	-5.165123926473476	-4.078857888414032	-5.718099579679397	-5.366011129182837	-4.772366034856452	-4.139220704118564	-2.6930558613494915	-4.067303647262784	-3.087032787158384	-1.7832564070501395	-2.1538469737032946	-1.0249438259950292	-0.4749444711138077	0.4981995510397592	1.9984024712652488	0.1320756670478276	-0.07405188660998825	3.777427425384177	5.341932760103004	5.957404121616715	2.5006503995702536	9.866726850394086	11.748817414184744	11.930324524322186	10.024435018025695	12.228877990365286	10.947181674021179
108	-8.61381433219508	-9.243123984842066	-8.408879258859953	-3.0832087915778286	-5.586270318232449	-5.359769330797717	-4.660040843642243	-3.9581661124431147	-4.091818322341271	-3.9641172785810435	-3.4823188693818183	-3.0444743556404674	-3.664227714824032	-2.4493386683613023	-2.4478461680598946	-1.398247715280799	-0.498173682623992	-1.7431254342892168	-0.1613826300599629	1.0186977360754963	1.9170621585128496	2.8490261959624177	0.023059830011321458	0.9893192623909725	5.068694101887836	6.20718096119605	6.050681098920276	2.130395407066337	10.345848057375338	11.442881555276982	11.161561937762148	10.025231336077884	11.498388261374634	9.806803678548306
112	-6.5648422075464605	-6.64311550370504	-5.965344413955067	-2.18618320866804	-3.427847138333433	-3.2318746962012628	-2.4427995620087937	-2.6116878920419864	-3.1187333981928496	-1.969040627276575	-1.3739528621316883	-1.0092170213014593	-2.686922066580432	-1.6273326832693096	-0.45640468482181	0.480518727281451	1.1080416412988383	-0.8436862208999873	0.4854352461956585	2.6141192847055255	3.406226864797931	3.9384951492054254	0.3898233165435617	1.828069205437059	6.09197662722788	6.970056039378618	6.31448314979843	2.015587324775633	10.253569577078533	10.950244875917743	10.408450100369139	9.311414695118868	10.453814480137417	8.610318162159961
116	-4.8359427329991584	-4.393612850540495	-4.187207688250338	-1.8551274491202696	-1.5315026006178858	-1.3591399158495074	-0.38539788029641886	-1.4146977627322477	-1.3940499985784456	-0.23691652655390474	0.5070502149177888	0.8691420533171018	-1.4994775018980822	-0.34209000977931114	1.342592116780874	2.1565976088434446	2.612803929407943	0.1920675183453755	0.8584880807182681	3.8704202077421663	4.655845153497807	4.909780489923332	0.9449319219573854	2.104590887478167	6.517830832237907	7.463670711746863	6.523957236031033	1.8997472476678936	9.467167830406781	10.248090718144613	9.596326803774534	7.943778971643105	9.174125648224278	7.386044483610331
120	-3.597794762110899	-2.901927940671383	-3.3556947623406734	-2.0671997018120725	-0.3150606445464215	-0.12972876396804436	1.0317108605085838	-0.5559019432337811	0.4589569855069707	0.8092243054939838	1.7664744809374195	2.147754425348315	-0.46192830684384445	0.9744373535349604	2.4199187694487643	3.2702257550643967	3.573647966899037	0.9583623385074918	0.9449388957008065	4.424967277798979	5.368924604212102	5.386726842631512	1.3225946392999297	1.7044619278789592	6.18549059259847	7.536790351912596	6.408669455560387	1.5346667727824435	8.07572172033342	9.327187514598087	8.615502335730858	6.219367965254636	7.82297561577745	6.1622829281673175
124	-2.8241224217638194	-2.2804796638132654	-3.3891072187687663	-2.5060670312551863	0.07747031728735455	0.3267051569319542	1.5672880371577853	-0.062291983357752045	1.7285200313796198	1.0286604140059705	2.2493822517824036	2.605812304593442	0.1651278133991629	1.785876388809272	2.541455024024727	3.6682872679601446	3.7489681149244136	1.1935020655062893	0.7456483226070124	4.175528992601113	5.422328935284545	5.180338846479007	1.2769149509615856	0.7685357908872399	5.193742738962255	7.166018944767649	5.826149925781108	0.829698858550506	6.362102969319314	8.265606859319337	7.452614288587522	4.557481754240535	6.626739485222216	5.028952585874893
128	-2.3717520177088014	-2.332687372040218	-3.905431737576256	-2.7312428882306174	-0.1753634657008579	0.18520510149925998	1.3174067702410674	0.17928640499149054	1.9634277771015372	0.625893472044954	2.1040849632545906	2.3425986707670257	0.32209697284439137	1.7295837358675958	1.8844207477676245	3.4767007739980533	3.2234816469823406	0.8919270016085744	0.26635157994733893	3.335755816620751	4.9444551343060015	4.397572983129373	0.7981299141760168	-0.3945339610152348	3.8711268804088395	6.500468714514408	4.856760489599431	-0.10344026956668113	4.694062697956981	7.237369995918071	6.241952403521591	3.313336840847275	5.789632305786636	4.127989758559761
132	-2.0905287212996813	-2.672934286998438	-4.405030716264841	-2.4163403450040635	-0.6779452545215681	-0.18071310176523223	0.6541846974068751	0.34387248667681886	1.1926035850932135	0.041107751325293866	1.693799610629878	1.7200353102172647	0.14703160487246375	0.8211971500644328	0.9455992555586058	3.0306968612447105	2.36930822727918	0.28327682542805954	-0.4529140282163195	2.333063358138512	4.262283791271239	3.3945526991016974	0.09387449896476427	-1.455560680529164	2.6384928159855408	5.8081569524989	3.7711501026308607	-1.0219945881789891	3.3810951624382866	6.446537955220638	5.209643827636708	2.616723769257055	5.392697797511456	3.5794303326833883
136	-1.9021074723857507	-2.922645799887264	-4.493770111182397	-1.5272295436447265	-1.0230202649036944	-0.4022766937589767	0.033380702053668915	0.5670802578913801	-0.11156307132687372	-0.276339530247134	1.402512069975843	1.1771393984638607	-0.1252435442623427	-0.5356137739010011	0.2865475706972065	2.698943608145539	1.6598530965859462	-0.30260905547034533	-1.2894486156333103	1.6007374484655454	3.74194835671765	2.6001315051235316	-0.5411608205483731	-2.1923971120794756	1.831876750135698	5.350627408823728	2.894789450012526	-1.687185044797274	2.569736235806351	6.028663143195836	4.553523052163127	2.333372587034826	5.3474244936401645	3.401593199724791
140	-1.8139612628915016	-2.8849892543433	-4.046684254919823	-0.34694158943319975	-0.9898309086604326	-0.3049668363977726	-0.23186837078204317	0.8710366465511491	-1.2968966928163488	-0.09312384552093882	1.4395116531267518	1.011115310023473	-0.2979152791131011	-1.7445769265951225	0.249805926645912	2.6961901119824474	1.432225342949225	-0.6068546756681567	-2.024540180816872	1.3733286822931765	3.60714625401539	2.303831333065831	-0.8846650697306994	-2.5486333305861932	1.5715233047862525	5.254058824625401	2.4488363204164036	-1.980045909650828	2.2219419423271476	5.979901298683939	4.336830128210713	2.1683978979677043	5.437895284274784	3.484231940055699
144	-1.8810591650200692	-2.616779559204424	-3.2439284242744675	0.6552324874547363	-0.6361274703177606	0.017114236907665035	-0.11109072686996309	1.154009816117167	-1.8708460283728814	0.501241086648001	1.747791643498322	1.2432185380064997	-0.30350997967385074	-2.3151688517292235	0.7960028032232879	2.986056797117914	1.7288238958579176	-0.5543591366123101	-2.40963196146082	1.5912929733154404	3.834729423377931	2.5256657536635903	-0.8838867522811873	-2.615398638797754	1.7379653409947498	5.449913487979793	2.4581086573528323	-1.9330636214088512	2.1772992555959876	6.159153922743088	4.462892997918069	1.8505762768752905	5.433132157913519	3.640864363061119
148	-2.148896688757907	-2.3666384160371416	-2.469928019963372	1.0426621410748065	-0.2381001108833826	0.28082650828985206	0.1642910535955962	1.2403217522777292	-1.7309527353453407	1.162423488543129	2.06469416097062	1.6416701036966732	-0.21309596246323564	-2.106092686104136	1.5488233527180149	3.3255944168050973	2.30275415792817	-0.2588007741592892	-2.2926390113167456	1.963001127055312	4.184383858606589	3.034345857588647	-0.6459175331974011	-2.558076613643406	2.062256092586883	5.718941674098658	2.770797484078017	-1.6714376168966638	2.257955068609514	6.364364131117805	4.743097293322682	1.2951165404999816	5.2097692358089995	3.7127818967540565
152	-2.605869286633703	-2.4108066497970873	-2.1154940074915327	0.6170901044524343	-0.11493312538454634	0.20114888200042577	0.26651674441759454	0.9751911734755315	-1.1668468684300324	1.493308063551537	2.0963513798237985	1.881107206363637	-0.16371448296697835	-1.3827711308853643	2.017625803621805	3.4222066316032893	2.776164524698622	0.07258782517464733	-1.7370117858900405	2.1448252146928692	4.34331702089453	3.4937763125901955	-0.3397572926049486	-2.5396804745449546	2.277029270145219	5.812783703433262	3.1657075802031573	-1.3106986251164021	2.35593962074555	6.4364843206024664	5.00893734620985	0.6454322321808651	4.810061919465869	3.6562225726323287
156	-3.168591968165846	-2.876601927170262	-2.378088229851007	-0.4845078277276173	-0.4362398673010813	-0.32136985578461214	-0.014544188008244722	0.31704208174768717	-0.6481330974427533	1.2703200546617077	1.7064852671453963	1.7476186708196206	-0.25454556877719503	-0.6596489532028631	1.8763660145115937	3.1140170018729703	2.8624927925318118	0.27200785210598605	-1.049714920254693	1.9397405336997329	4.106254090432266	3.6538460162418445	-0.07866488377260455	-2.6672232083690584	2.250403160135539	5.5875062801433915	3.479947558200061	-0.8792849160882771	2.463698619344334	6.334082587462569	5.199047552333872	0.17466729835280018	4.404440868701633	3.5594706445471362
160	-3.701700439643973	-3.6494483855614193	-3.1598088661524986	-1.8458424759991805	-1.1152601213907818	-1.122208354023996	-0.632629452538659	-0.6144913419467884	-0.5330807553183766	0.5724858031124126	1.0099925969373185	1.2704632250180967	-0.4753909397043706	-0.4173009981109976	1.1461056441934585	2.469797128163776	2.5245053704420326	0.30230396909683277	-0.6721489412503747	1.4059368336467009	3.489047280085656	3.4752812297816664	0.1424856480338893	-2.9647178575050415	2.037858481030439	5.075045572819066	3.6798086073475598	-0.31687137404548144	2.6430690221812623	6.137329086067234	5.367710576810382	0.11197991640905798	4.183227528500866	3.5771608262346506
164	-4.055393685592414	-4.411475170441686	-4.107550133824989	-2.946241848182792	-1.8413805915118495	-1.8456098986758542	-1.2992194858173813	-1.5576657017481192	-0.8635460116518482	-0.2516101294363855	0.3213879755965781	0.7073016148829363	-0.7051479202587047	-0.8467245080550972	0.1872213031095031	1.7566235021109724	1.9829556891921265	0.2620876424848072	-0.9606080627030242	0.8235728719898923	2.718383066943505	3.126613132212262	0.4231228519724127	-3.368485680658599	1.8368946267480901	4.459753502076387	3.842886676622717	0.45702928189283437	2.9657592698559276	5.987399562977751	5.618526921391975	0.5022218214706593	4.245630253563041	3.8255026243899963
168	-4.115818966964513	-4.801053511895839	-4.7856168626123035	-3.3843696031954003	-2.2399110737515064	-2.133755916930289	-1.6477049547556553	-2.199689621140043	-1.372024294250205	-0.7655330281003264	-0.016232775483274797	0.3902000178975911	-0.7791890482303381	-1.7615954831470035	-0.49707233780293536	1.2927874294066188	1.5742791851351294	0.3096617154409424	-1.9696373889785597	0.535377024252551	2.103558773451842	2.8624432014674834	0.8684797861106746	-3.7448725605829476	1.8692475510133306	3.9739558596414084	4.071505059453104	1.451055284651257	3.459849587288279	5.99893473064272	6.009891017999092	1.1847469776759156	4.550918090774441	4.301052559483904
172	-3.8547282121610573	-4.611605155745732	-4.896684157406348	-3.04611229127476	-2.073632235059992	-1.8300980283308017	-1.455392237803454	-2.3077020586877723	-1.6717607932798202	-0.677226064879524	0.17322468713894365	0.5217623697459091	-0.5883641824172637	-2.718516104510308	-0.5359703288851473	1.2696045605076303	1.542763825336158	0.5529873357162679	-3.375952712118629	0.7516506891346741	1.8645732355725564	2.859318964414825	1.4953553638851131	-3.931505670158131	2.2564973774205677	3.7728891277424372	4.398904312471715	2.546848529107545	4.090918053788856	6.196716292948546	6.496127589037087	1.899590845080398	4.9556617611697975	4.873604762170428
176	-3.360643139937433	-3.919656743643857	-4.435964573150852	-2.1487967913735155	-1.376495238643519	-1.0804830762286464	-0.7917557338751849	-1.8417527629128876	-1.505656238569189	0.004376157175876676	0.7913556675004626	1.0432664129620137	-0.15393789073702321	-3.264166346891829	0.10806970271005276	1.645130272526438	1.8926954221623213	0.9729583834878827	-4.598258483721324	1.4281700813475253	2.0162661024686215	3.11037968803938	2.194050068084213	-3.797407855936759	2.953780166797793	3.860025872975319	4.75231407873032	3.5234446436615303	4.7816414712344	6.510955317271135	6.944639188399089	2.452278607852781	5.308640943475632	5.357871995750017
180	-2.8374106812364954	-3.07215832888295	-3.7010865118043363	-1.1473342151284671	-0.45603489760655713	-0.2789020233265255	-0.008808587655537268	-0.9930915807446379	-0.9089326239525717	0.962695000125276	1.5013560018780807	1.647462363852032	0.36215960888025156	-3.174351922603818	1.1130100460561918	2.163104528687856	2.380107873629477	1.422267791018189	-5.068283068258503	2.277828687638928	2.3665533006046173	3.432858696853495	2.7697424818681564	-3.3044848358647414	3.768889179250949	4.09659670749156	4.9923653476554986	4.152765740400284	5.448536859107536	6.823638421950436	7.213690739538647	2.825558178443544	5.537532792415558	5.616149411327178
184	-2.550760501143567	-2.5272695954411573	-3.1394412438284336	-0.533372758472394	0.2464557879901247	0.12095852165677493	0.43049722801237267	-0.11758490622158597	-0.18828543973115267	1.72754752199792	1.8941299867491537	1.9361516188375782	0.7193127256352344	-2.550733321425618	1.9654893825498234	2.4892537530993937	2.6514282159620373	1.697286005503278	-4.517261016884807	2.9163684771339478	2.6304037504542057	3.582181921497852	3.036496631585292	-2.538476222304953	4.458169449040835	4.288279999396522	5.003662096741968	4.312091816505593	6.034433826469842	7.036057931301824	7.240811806517292	3.1698217311937467	5.675041661239524	5.629070267770386
188	-2.7232477596192113	-2.6218194895353273	-3.1065046708830257	-0.6137320979835564	0.3703943481630497	-0.16542640286641136	0.19914051840095082	0.4172054518656638	0.26562890343358425	1.9099873256144522	1.6988308386826663	1.6395174223514002	0.7089236360771137	-1.7249015526137312	2.230680698484894	2.391628497761157	2.451254123220968	1.6480796295517675	-3.1116769235249966	3.0637311858073026	2.5955016547476473	3.405706635459645	2.9161207602308865	-1.6814966159328517	4.848633753932693	4.300132740608052	4.780991065352254	4.057038296946905	6.523235304575336	7.118874531892292	7.086697083700828	3.6784279253594687	5.8140597196653925	5.496297345589736
192	-3.420099726625088	-3.389846793199272	-3.6702098753771657	-1.3727931941658662	-0.1873830701150151	-1.1067247362804957	-0.7075465303677	0.39633926649163387	0.20662788994595846	1.394535418804271	0.9234959459830636	0.774119852018924	0.25922861629840677	-1.0440623733863348	1.7776310398997304	1.8640011501934466	1.7775007441465804	1.2653371063710657	-1.3615430559114943	2.6936261585892622	2.2436556759454214	2.9422464296442956	2.48639249173882	-0.9296004748716123	4.924222933734525	4.1332721605849985	4.452573765003449	3.610051145975829	6.9359125915888455	7.118409138827061	6.903730851862968	4.435556400544461	6.02848623661059	5.369138704095595
196	-4.484121311310518	-4.531515110018985	-4.570013511563632	-2.479946607050504	-1.2214338748611222	-2.3660628735886435	-1.9504655550349594	-0.14386984669601344	-0.33742239986105727	0.3928604414081014	-0.1459345068823366	-0.347407936172745	-0.5173917399694988	-0.675911126814454	0.8429102280316157	1.1294653387163673	0.8994662738978892	0.6975172740491798	0.14232215249368318	2.0536756463652606	1.763458247500821	2.413578504190724	1.952139849502473	-0.3938148905824799	4.834096896364414	3.9247243305298665	4.225109566511579	3.2656774438423595	7.316705685262446	7.123187047140193	6.849523527018139	5.339372621407075	6.315806372909102	5.3593649728885815
200	-5.563522324820644	-5.553765759751283	-5.355712877103125	-3.4417533787615797	-2.3159489573180743	-3.461294403873987	-3.006959430732132	-0.936561522503421	-1.0953727932931043	-0.6650709493058121	-1.085830924153682	-1.2646163670082615	-1.3599059547422268	-0.5518663511648074	-0.09727317815301799	0.5251730667206352	0.2253091031584899	0.18910148692071221	1.0097756360308838	1.5453427990997883	1.4490402900350674	2.111916059883989	1.5551422795132794	-0.03953170021328333	4.81848524784426	3.872920026537735	4.279788483304681	3.259162417766279	7.7158822818498365	7.21413992014054	6.998298627350525	6.1498656117619	6.59896229031554	5.481908784377284
204	-6.244488223522513	-6.015003665996437	-5.638471112320626	-3.83272742257427	-3.0428171081013167	-3.9915127653435416	-3.4246730717978675	-1.6180676180995255	-1.7188416676040066	-1.3431301083032583	-1.5385726651447134	-1.5917663534030513	-1.9621003816657405	-0.4646207976531629	-0.5739926681331747	0.3325977615065391	0.09622628962540677	-0.027967229414901314	1.1986099451320649	1.5249716004970457	1.5424120387235818	2.248701805159366	1.4693632088756636	0.28831076549217804	5.088273989228538	4.130387772622311	4.677626597992374	3.66083382635909	8.17264364086508	7.425877552357418	7.301774006528172	6.6331286262888485	6.781398756071973	5.659203991906952
208	-6.237973674283589	-5.745066628256332	-5.312395559249844	-3.48609255864231	-3.157768479957699	-3.8146488570223798	-3.0384507102546747	-1.9083026599387738	-1.9706431577519603	-1.4043642247029173	-1.3739309276224665	-1.2001702755190558	-2.1013410038346385	-0.23864996373004732	-0.35993033556663556	0.644704936307152	0.6191533192261253	0.16315430361563235	0.9612790321875667	2.1290035194050563	2.1075415558056783	2.849514954048342	1.7331849292865433	0.7624807934583744	5.719338879450438	4.723239886756606	5.328941808597717	4.348361481178425	8.700215317694713	7.737633685603513	7.622841815776147	6.708080274811772	6.81527612872814	5.780271515557584
212	-5.529335484849584	-4.92219446846865	-4.614657390387684	-2.5611245567509453	-2.698778384070639	-3.0923378389485787	-2.0397551008224033	-1.744689817792042	-1.8193893386682023	-0.909242448895332	-0.7311371546405674	-0.2699950032570031	-1.7352576211987296	0.13941515946952088	0.427897333018479	1.334006663769103	1.6218174655021673	0.7146503311233852	0.6475900991302205	3.208209268099391	2.999930851037963	3.746733417588137	2.244411462839265	1.4519026242792445	6.610326750278302	5.535605893464124	6.039929374704258	5.068119036276495	9.26978585763852	8.08925531252337	7.817536811164716	6.497946245953882	6.733292562650949	5.771443829270058
216	-4.4078946002297785	-3.9681200880954735	-3.9865317244015275	-1.4555388652292314	-1.9415348719215209	-2.188757652478679	-0.8690198637956208	-1.3006145921294718	-1.4035639727441833	-0.16112031001896868	0.07076811772599076	0.8087646344746366	-1.0194263432513913	0.5122500645102207	1.4065537417185685	2.129473442423279	2.7467751433641316	1.4405595027792577	0.48287159082569675	4.40243910631655	3.9418661494868314	4.66716812862791	2.815987341446834	2.250825876275219	7.5246314812462725	6.361830695302667	6.607426626689433	5.553491578386009	9.802441572236077	8.407098748915718	7.813662032426941	6.253136142201851	6.622068388432251	5.634063229641325
220	-3.3443128978216805	-3.319259873592941	-3.810640802299223	-0.6037098750131021	-1.2433379857143279	-1.4823284111744728	0.005668509737246693	-0.8823786951675326	-0.9094044543194225	0.4627044189215053	0.6993684751019401	1.6278279978661425	-0.2390230590030769	0.6638529283929022	2.1354093497721838	2.7542228629193026	3.627195825955736	2.10280584758094	0.4608059215832352	5.314410673075323	4.65779112593552	5.362724767496799	3.261299363485371	2.908974878596096	8.196425417233261	6.9962472739011154	6.910087568002925	5.643043026981934	10.180774663016718	8.626098611033694	7.641338805933304	6.193070872883286	6.557089789047967	5.431282029744362
224	-2.767677061722614	-3.1987340369526596	-4.17458723921604	-0.2727060907154445	-0.8636400677810663	-1.1919823854869327	0.3042168907591021	-0.7586702089228597	-0.45826896909406545	0.6987718922138895	0.9604169702123567	1.9409196327797027	0.3143861881901684	0.47197925925300804	2.3347387254896286	3.0463702601766967	4.0450649159346534	2.5118269856931588	0.411976425799688	5.685892567584198	4.992825495512003	5.70951984871351	3.4652891071567478	3.157386771813521	8.444448449749153	7.311066609043773	6.94521425401043	5.342091070039128	10.281887982158404	8.698268868419841	7.397701721587491	6.36438558878987	6.5417837931454486	5.232573972842488
228	-2.8539669441646653	-3.510946026520845	-4.8008861420537325	-0.45420685295823365	-0.8514642693956695	-1.2994800773236814	0.040436211871337106	-1.0161857579324245	-0.0683311445775987	0.5116761313871275	0.8633309580940416	1.7493653253257089	0.4680804896457708	-0.0021581493729254156	2.006981844603268	3.0071878357303343	3.9984805483001926	2.5985381537634185	0.1742785419593954	5.496373162697699	4.95855663954994	5.731288895441996	3.417273274376975	2.8626520561422493	8.244772890255726	7.290610771845663	6.800392610546724	4.806235778118107	10.028534863901575	8.595604874843595	7.175378304485229	6.6125292611064825	6.499608023446024	5.061749922370456
232	-3.4378604802118384	-3.91589020694072	-5.194408880470584	-0.9074278450943715	-1.0563435527834284	-1.5966807563523746	-0.5253954516497308	-1.520808573697864	0.29072382972749494	0.07920305410892281	0.5769187197424559	1.2614817587474378	0.23695567190426214	-0.5505793676780665	1.4014567101381146	2.7612037588977714	3.6556312945576495	2.4257526336460713	-0.25185492571185997	4.940021025583066	4.690462577421636	5.547101483645061	3.1961114325891637	2.1194975322616982	7.727994422474774	7.0121187986718345	6.584280951088691	4.257801521995446	9.434563612959801	8.313408830634195	7.0018462957986	6.685822469997363	6.325750811818321	4.8831391211246284
236	-4.100571145195149	-4.033315171549035	-4.925338732681903	-1.3170264926083604	-1.242364522658314	-1.819153900321934	-1.0464835140509983	-1.9972323128819727	0.6176665409706017	-0.32982706940347273	0.3128340832441359	0.761674402221244	-0.19612468729570343	-0.9412516927796654	0.8550861456263018	2.462630742531234	3.2358336366972487	2.139104360901771	-0.6691764576229308	4.303478230101558	4.3518590817250145	5.283308969510048	2.9197018072799508	1.2206894128497572	7.105804425418944	6.591929419086958	6.360728724632843	3.878512849552179	8.61680982321535	7.8750109473721475	6.826688272406603	6.402092917491054	5.962779506887568	4.631930816399981
240	-4.393797386520253	-3.6595508959881835	-3.889106979087809	-1.4746792279204697	-1.235213515024086	-1.7885940029762997	-1.2685279814164154	-2.1816842500917524	0.8446736314428436	-0.5115953074890162	0.20761950261626066	0.4663516271261032	-0.5763239845983886	-1.0371226046126574	0.6039704665194021	2.2078318540143833	2.8937935756101334	1.890147442813896	-0.7869009951751312	3.8167230986553267	4.045821179665655	5.00805376695793	2.6904985836765043	0.5200666176063306	6.568167669879373	6.132222636952929	6.127606853273177	3.7361841107452647	7.7589244646635285	7.334074001868985	6.564974768276106	5.769327149130138	5.448753820013971	4.267399777128683
244	-4.080228795240405	-2.8781542705348726	-2.393742555296713	-1.3829389775646281	-1.0172424290723348	-1.4902319870517349	-1.1342141599629225	-1.9622722814608389	0.8695919491747306	-0.4290195692674767	0.26653182439268464	0.4418291140368477	-0.6988101583957387	-0.841579673549654	0.6695392710947626	2.0019216486931923	2.6689081124633147	1.771820779141695	-0.39580905337537303	3.557013979514276	3.783626785262324	4.724151122563632	2.562563174453612	0.2623073154025723	6.204666122030036	5.695648178979246	5.848876461520848	3.7774460220333004	7.039496404040945	6.769501669004843	6.169452651659958	4.987384306713485	4.907005774506754	3.8154008292189676
248	-3.259719363565654	-2.0069642016284592	-1.0170928214143262	-1.2253994910773063	-0.7241272312001663	-1.0573449108131268	-0.7740927319056196	-1.428942080704707	0.6377125366322707	-0.21263602322298758	0.3865276863352839	0.6102938636630135	-0.4989958392896256	-0.4460544276896625	0.8708476402230435	1.7854936077814907	2.5100579198406914	1.7924464895769856	0.4924980985604864	3.4450325878902635	3.5144822508771516	4.409283626868118	2.5366573269695794	0.4661500144156594	5.982822879944873	5.308170305201674	5.50876425305948	3.880650748945585	6.554115755699763	6.2645225366738355	5.679546341861696	4.324631680060358	4.476821888111174	3.365829936112692
252	-2.3142960013133362	-1.42218815921297	-0.31538346330170997	-1.2320877282506666	-0.5538659677826836	-0.6845503432156768	-0.4089725603268491	-0.8133366683452344	0.2063791746650999	-0.06965538096723017	0.43376457581677597	0.8214280584577097	-0.06936427188288215	0.05757185057171277	0.9465329027120103	1.495851155319103	2.343287462040311	1.8947876643979447	1.6213164288594504	3.322839013293377	3.187900773582794	4.066329468951034	2.579078906223437	0.9271824336484693	5.788751110720502	4.977134692023786	5.147338854191719	3.935040940840123	6.2726464113176315	5.875835403866113	5.212784277152705	3.9511797328373404	4.227574337776108	3.0227804107642093
256	-1.6977578358701286	-1.3599411214825554	-0.5394451604574899	-1.5193704328323545	-0.6434952600444895	-0.522032199972126	-0.22760853113882942	-0.36024287252072623	-0.26626095108518677	-0.1565089370829184	0.32596546329215914	0.9407744979947984	0.39761254091011106	0.6287243946414138	0.713912246808995	1.121415254622617	2.131753439289471	1.9991586157869603	2.5906164580741904	3.0640630644685745	2.804895632337875	3.7436356449976915	2.6457147531468723	1.3378844227391098	5.506280885145829	4.70670365098903	4.849206912195406	3.8967859646641245	6.0605339850953515	5.609828457973996	4.901180731796851	3.8379669092553774	4.11403654967165	2.8406896519466005
260	-1.6853917794590891	-1.8024481489450443	-1.5144814214616413	-1.9953342625785373	-0.9885425542668653	-0.6076322778619331	-0.3051126293585251	-0.20181392082282815	-0.5990502819195502	-0.4908076512342795	0.07234375160548893	0.9052948332818246	0.7069005948338999	1.250736591042328	0.17329895452614627	0.7142989617433214	1.8897869539232046	2.042996162978527	3.028590671522245	2.650568001730811	2.4234557090608058	3.507156840052751	2.696611397610656	1.4549238645059916	5.088437544373389	4.496337402435681	4.687465179052739	3.7914655112862343	5.755300984157006	5.416840539607484	4.8063764450794215	3.7830967807623197	3.9981386560586243	2.7804295946494015
264	-2.2207262459953783	-2.50111817682127	-2.741012566321796	-2.392115586917032	-1.4430928193851054	-0.8606499411788134	-0.5880077466424068	-0.29907041712593174	-0.6898635012375407	-0.9435762739200365	-0.2399915003677812	0.7320671659106497	0.7511823754418563	1.846787567244353	-0.4912432717795206	0.3618050506517003	1.6565141636033482	2.000960344984682	2.744995825512789	2.1807742063776194	2.1226334518247034	3.389340868975696	2.6994404724631322	1.2259033887429651	4.588542926647465	4.331056107076609	4.663331496862694	3.671447983055314	5.264335142195892	5.214550005145074	4.869523989780829	3.5542766958145218	3.7318949605180567	2.719271414566995
268	-2.9432828352050335	-3.108790389795102	-3.6485257056626255	-2.4043004452084116	-1.7924799873872648	-1.1294361324405011	-0.9399002170674403	-0.47894844291880795	-0.5579848275401983	-1.308043834244809	-0.49714654558549337	0.48797315235914224	0.5492455349406504	2.2366979065690673	-1.0064847443918536	0.13906240428146954	1.4552259408449506	1.8808344555098333	1.806141014307425	1.8132955982203307	1.953392023876753	3.353344193575246	2.628070109407852	0.808685598715864	4.13729380516713	4.177523602428841	4.685581672282592	3.562641850059759	4.629573810332934	4.931962954466936	4.932316290800272	3.0534896773492735	3.252546063794336	2.5165536340119132
272	-3.387767544776177	-3.345685711996681	-3.8678171537021075	-1.855855937086875	-1.858717675284606	-1.265355822229478	-1.2132993905905831	-0.5428267703656392	-0.29860687180468387	-1.4066969120749575	-0.6156071408941667	0.24666109618853516	0.2199575895478099	2.1891176645322132	-1.1477808923352861	0.07128221523646114	1.2720208135914346	1.70657050178721	0.502632139844257	1.6814483361707055	1.9084404658771466	3.301995984323784	2.465954774352676	0.4744749355257751	3.879077901583223	3.9943773645642144	4.609225738332306	3.4390847596124337	4.019391526564658	4.550631511643084	4.82106112216637	2.396324151664707	2.631284230264605	2.0980734772163014
276	-3.2393677152863485	-3.1118676583877964	-3.37771629434379	-0.8073567727685964	-1.5776259859308177	-1.1832444637942112	-1.3064961400424788	-0.3798138191647348	0.0034275569400825604	-1.174802657975986	-0.5726647958602211	0.06190809964404535	-0.08272544273709552	1.5613207777658076	-0.8443027117393428	0.12928271260999388	1.0741420957148708	1.508586402898949	-0.7558636646260515	1.8285986138906176	1.9328234146910128	3.1366758267364165	2.221420044058812	0.4558036017830902	3.902745475452301	3.758229246187653	4.320970524368918	3.248668662452197	3.647389164298918	4.123234738430165	4.452160347188331	1.8538385582849006	2.0480866380480727	1.5153598747141233
280	-2.5064427789349017	-2.502742045759431	-2.4651398596513645	0.4504649031710045	-1.0156384680854786	-0.8892580844362051	-1.1917510002564988	-0.025915047088401325	0.34123229894315876	-0.6837246400736879	-0.40428787367791014	-0.041587702824974745	-0.23969578682463588	0.45059886460979903	-0.20624412544154103	0.25259378488663026	0.846167264232499	1.322334286212208	-1.5729073246344427	2.189523214534241	1.9619656751688883	2.8258466649235285	1.940944666730445	0.8207552412291839	4.19508599175828	3.4854047210433388	3.8176307581836744	2.9673168584292657	3.6547708419078444	3.7538516426678212	3.89400266617872	1.6900852875954326	1.702285762303704	0.9394891238334623
284	-1.519471403100349	-1.7400082305846236	-1.5469199379965632	1.5119074544881594	-0.33132278835569007	-0.47303005933542275	-0.9144979692258436	0.35251939207719823	0.7765519599381985	-0.1029798087857926	-0.18141387357208721	-0.0659908278110465	-0.21018972939829228	-0.7627623061949378	0.5296556936242958	0.3804125180176696	0.6133648737680224	1.1886166304142536	-1.6835592942647413	2.6210050516711725	1.958428973975425	2.43583845477234	1.7065030293294945	1.4373397790859097	4.638011443826035	3.2303309359054775	3.224907628500347	2.6421158247044207	4.0194430249776145	3.5457432180528636	3.3426213180072257	1.994233722420183	1.7064853863546856	0.5835521206427614
288	-0.7532214503344742	-1.0661300393843913	-0.9591618156058456	2.0177049585898668	0.29452550336863825	-0.06995937210539777	-0.5704029784106399	0.5411498532937621	1.344853159370075	0.3785006990413258	0.020389907010574113	-0.033118918454476336	-0.03468761956874657	-1.54810428228526	1.1075974674870934	0.473130135533748	0.4334089447046215	1.1469951839098407	-1.0382599804413897	2.9620308801253508	1.9241877745684677	2.10122799342843	1.6083202321454364	2.0392053075803833	5.048785673745962	3.0564455908855117	2.7386405398843032	2.3851840435843124	4.541993129706886	3.541004648805184	3.018121711740327	2.6066515379897606	2.0200569578667653	0.5897752627741136
292	-0.5703760371112695	-0.653994975823034	-0.8199172595304023	1.7938817694195532	0.7194138747171629	0.18877284181141166	-0.2717472904020083	0.3854481270118376	1.9568082044787847	0.6259536727360251	0.1425576057411127	0.022245967704516437	0.19614322434018178	-1.4759124480177588	1.3541126217032646	0.5141862617862161	0.35893279223419317	1.217293974664055	0.17679907336897102	3.0915791910317933	1.8819276046922542	1.9471540401888892	1.698187466148585	2.3617329537845118	5.246071325408508	2.992496721341767	2.5148348744795097	2.308873886001098	4.923511969533439	3.6840217020482267	3.0345125121750183	3.187509528695476	2.457115405554803	0.9380554533162995
296	-1.0263674233272504	-0.56113564826436	-1.0183738444366046	0.9156839824445899	0.8709838368360113	0.2232327753629814	-0.11053699972139774	-0.13121135499728304	2.390026086495061	0.5996746405719962	0.154002636282247	0.060897711510686306	0.38530835412019226	-0.45524263267020293	1.2346175877871262	0.49942317478926385	0.397770582625334	1.3790042365543598	1.5968296487546476	2.965077392721419	1.8431695653156215	2.0100219198977167	1.9487609814079765	2.273674720745729	5.116827951863966	3.0024328156007383	2.5726811820879782	2.441741698775991	4.901510703109494	3.8323888681928007	3.318160048690322	3.392087212581433	2.766955845522653	1.4298042022845616
300	-1.838461752064568	-0.7294434290589061	-1.3077349629763628	-0.32568520225313285	0.7546092848799204	0.03873462592716594	-0.12002929269765325	-0.867601452067482	2.403322452199406	0.3575806310685549	0.05765056968081082	0.05680893347225574	0.46841660023681064	1.187454816681225	0.8520990588609247	0.43099716196916404	0.5040509092002636	1.5668017824669354	2.7930993963294495	2.6236517363110967	1.7924971535249168	2.210936302325027	2.2463953438309603	1.8353279782687693	4.659737575210391	2.995342485494738	2.7732953955249577	2.68226002969645	4.379085529715356	3.818175544635546	3.6301579383750155	3.0521674079129144	2.748517983172964	1.7675187543112478
304	-2.533571713726637	-1.016481396969764	-1.4322122299274078	-1.5227310619055958	0.44227525480186514	-0.2689892046812801	-0.250793039165545	-1.5676823814866236	1.9124714087838395	0.02242210874260875	-0.10722726556408553	0.01766644786308274	0.43505865225622725	2.8492937016074946	0.39311894675183956	0.3213693491451328	0.6101089104507424	1.6935670333065518	3.4259986790943255	2.1766207163215774	1.701533670897827	2.4022526680376783	2.431918138086071	1.2608807055110403	3.988776196899523	2.876468412766302	2.8944449351665944	2.832530729771765	3.4813847453912565	3.534526577608771	3.690321912985079	2.2662358226779626	2.345543140211496	1.6998072819709114
308	-2.6953947476045723	-1.2449994055786024	-1.2275539605619181	-2.2811894359214584	0.050399150572131436	-0.547091959525708	-0.38142651223202845	-1.9485380600370794	1.1112086744863379	-0.26915439895385807	-0.2735809974915711	-0.00927900613736845	0.32900762474916956	3.9433395763019594	0.04767429444078167	0.19982221672152584	0.6772435886450437	1.6948643880014573	3.3777813826157206	1.7639996960925934	1.5605593880353692	2.4593839583292265	2.3763420521820757	0.8072551468495109	3.293594352036036	2.6102621489425584	2.7617921759495085	2.705039255942039	2.5078465875251075	3.002564899493227	3.3374564563411884	1.3520287241178888	1.6773009257884155	1.159383055620813
312	-2.1802308504372188	-1.2634901968527186	-0.670398412442386	-2.338174814042965	-0.2892404191343927	-0.6493310911950693	-0.36838030722117426	-1.7992604925505047	0.4382224071882725	-0.41674452914877946	-0.3693651249619892	0.04353775073026482	0.2318882042275421	4.183583249019987	-0.06457807107356646	0.110457047541214	0.7284448128428604	1.5718864162813073	2.795347206687544	1.5101708135623684	1.403286930355967	2.3623943269212697	2.054132217943087	0.6438845379785348	2.7706334520960096	2.2584462108812233	2.362645858521587	2.2449843826833997	1.802084322194254	2.3828494488636442	2.6398136549104287	0.6906458121982425	0.9926315520974229	0.3210254303456471
316	-1.1878076761774046	-1.006497261367225	0.12554530767691743	-1.639737840327223	-0.4655314970183868	-0.5062401281926917	-0.11857355356081808	-1.0621472570305552	0.3509970298488336	-0.39024817845044807	-0.35076093585147433	0.22328950408350315	0.23229211510184275	3.6939089204986058	0.06316143258360522	0.09412272250730468	0.8354565480119823	1.4035719597665632	2.017777676256309	1.4799226485081223	1.3005901542251757	2.213195556774889	1.572137828672335	0.7772774676725728	2.551224463697327	1.9638868520744381	1.8717342567870816	1.593455072194564	1.6030833680686924	1.9178425025202788	1.8873292160067414	0.5494832978680592	0.5677167758913294	-0.4603697645961925
320	-0.1537306155853401	-0.5326204286479385	0.9500517821167307	-0.3590014865871234	-0.42405119431244553	-0.16725641446800746	0.3500414183838848	0.13679359818730605	1.0400037739245358	-0.23613224863993026	-0.23053154291123468	0.5152598010405552	0.39432683487516323	2.8914854453516785	0.3292520037921317	0.16150285262817132	1.0650408241085159	1.3172576394202158	1.410131570116823	1.6520256954445145	1.3213223185557665	2.1751413290419874	1.1364884347832305	1.0643320056746364	2.654625885936874	1.8823934745946422	1.568949576231349	1.0440546247825335	1.9475755642356765	1.8278284026727745	1.4620467387479568	0.9713433360371263	0.5927967414194393	-0.8065640309950852
324	0.4687645721521308	-0.02140654990632849	1.5539954861506962	1.1478259534466226	-0.19342288326066234	0.20898471719907177	0.8956608153618123	1.5170518121564456	2.2486360016317	-0.05910639822461293	-0.08485388734374792	0.8284900763575129	0.729704855030231	2.218840355039446	0.5666154012679505	0.2732935242905452	1.4170764648899383	1.4239025080016714	1.183492061487983	1.9209245394845433	1.4809224568170605	2.36805772183495	0.9619836186916777	1.3031821218013342	2.984099857425589	2.0947830624144284	1.6870291190469353	0.8991809464640698	2.6655683450156924	2.205573076401678	1.645421381610786	1.7740615561517235	1.0923445197182915	-0.5008596169224017
328	0.4248353232148085	0.2878802709463747	1.7240694717747675	2.444325917748348	0.11759210348242442	0.42221173537467643	1.3059278693606249	2.7266087463203204	3.3391799842451624	0.019375421057897104	-0.025124644797191637	1.0275185082242466	1.183925387254406	1.8938994359837444	0.6122469290534377	0.3477387419504132	1.8005727484065666	1.7524490312200227	1.2997281518546102	2.1350183433034444	1.7147057013134845	2.7844271589551046	1.1677503556332567	1.355131145870615	3.3720741186835967	2.550741427657287	2.2739849033163573	1.301087137752058	3.470141878903529	2.9626667424742092	2.463141673544959	2.6493387155400665	1.9122042607666307	0.393086462220519
332	-0.23664113819457652	0.20163792320841195	1.364845630060871	3.1516275326312844	0.3611689498842634	0.32908567703130587	1.3983466589908764	3.4526326569170958	3.6108415035635555	-0.08439715930372903	-0.14102937245525252	1.001850244853689	1.6458789068629267	1.823860640689384	0.38090249799880865	0.30057302041460326	2.0723376221787393	2.2217090073759533	1.5085160694182917	2.162420267367562	1.901090259520582	3.2817230141753835	1.7142081217401557	1.2252048223079612	3.655164470980947	3.0823035162352657	3.152067414908616	2.1361837333151508	4.091727246444284	3.8594279191804417	3.655742159196652	3.3048462784297468	2.7823059488621937	1.548320885563827
336	-1.2167751758372398	-0.3211120358942871	0.5626824483970209	3.083153716886195	0.4161382903082996	-0.07539912294186436	1.118917939222123	3.5263888746874223	2.712093823261264	-0.3731390526410596	-0.4421371210379469	0.7375124078250024	1.9851845452732302	1.7214041904857202	-0.09039264894551707	0.10019524370168983	2.1209413951730918	2.670675747804311	1.5033364258003876	1.9575872371840322	1.928813571828517	3.6600468066314624	2.416629785158362	1.0572586032877098	3.7475745583330835	3.4865453155228807	4.00106953564412	3.0749864500611124	4.392873752947146	4.609768855854128	4.796781527806283	3.577321520356559	3.4286901864270076	2.5260400708318347
340	-2.140005821547078	-1.1241030664673326	-0.4113340367422431	2.316120857113172	0.24837638375038948	-0.6408801658662165	0.5811566099752865	2.979260437119204	0.8994545317828981	-0.7556764464372847	-0.8324822762451997	0.34687688859145943	2.1000769085314337	1.3395181860482785	-0.6474159939632711	-0.19418172489254315	1.9464331816167955	2.93243025993031	1.1154226036520294	1.594999786164663	1.771677727994595	3.781166782369365	3.027624599442164	1.0486085388411654	3.678644171010168	3.6351959613572906	4.5232887153864345	3.7333686257517624	4.411982048339576	5.0122914187721825	5.500236497343707	3.47629450874029	3.688084831463017	2.9879565163513986
344	-2.742997162569227	-1.9047691773961204	-1.1840398281720859	1.1646503180663155	-0.06687854213518692	-1.1229702205915917	0.02124689327776525	2.0284831472680986	-1.0314543221181183	-1.0761791440495714	-1.1388707132195985	0.03222098565907303	1.956681008167155	0.6655916554812552	-1.0771549912913703	-0.4397738266808918	1.6820360379667072	2.9134316370839897	0.43892630823897033	1.2463403908733737	1.523289557425731	3.654669275593404	3.3474657451037593	1.3342158760717364	3.5756137280787663	3.549160709957077	4.596512306052393	3.869240989452907	4.320662964402654	5.041370379117467	5.60728214755562	3.1561846653407257	3.575391760382183	2.8618118690716168
348	-2.978245727649109	-2.3462090433012452	-1.431462761125894	0.0626948399749009	-0.3757135262540207	-1.2952343192777602	-0.31291818539770166	0.9969513391119682	-2.1313633864950456	-1.1764286726813533	-1.185517308103048	-0.008426204302494494	1.6025041301322276	-0.053877696258892244	-1.1957120865196913	-0.46792435527917586	1.534418459832936	2.6367971830552515	-0.20111346194035742	1.1076384754825954	1.3641606534848416	3.436797610188887	3.3082680618683735	1.9024047803531396	3.599543085547037	3.392588845270596	4.329246510065797	3.505737772673521	4.322840202861513	4.850074755821145	5.2527885304391555	2.8341257500619275	3.2689821637589427	2.3703973233457662
352	-2.9893810673579337	-2.272289270386068	-1.0387179825306874	-0.6075544341960529	-0.5167028294869241	-1.0570836040510911	-0.2815362207934008	0.19105009686395072	-1.8008136703801403	-0.9634850000851344	-0.8795155860629754	0.31528219501049226	1.1420245141759915	-0.45731037739688546	-0.9253650284292113	-0.16673722821100223	1.671097393585145	2.2244381848440384	-0.4212456930969183	1.3093101945245098	1.4732699357029584	3.340403071552865	2.9885864182357946	2.596200936438387	3.8650751016307834	3.3863527689313604	3.9889147180936315	2.9096138403864753	4.547988403281837	4.68340348014942	4.777895438529015	2.692663424369281	3.0191357059546857	1.906389708474182
356	-2.983383171178619	-1.7375860170363568	-0.17418272749316088	-0.6662195904123787	-0.39610785145887767	-0.4788562047312509	0.08471962043114975	-0.2060679043097075	-0.12733629313744535	-0.4515203226133777	-0.2606094771004319	0.9327501631075261	0.6910349113183539	-0.2824650995752353	-0.3261340550294807	0.4558932471686061	2.1211879199832606	1.832600231312155	0.011805685207243566	1.8537388993190878	1.9313548754567444	3.510045996387009	2.5600600177979445	3.201981774828981	4.384705532447749	3.687534084546683	3.846034278696069	2.4377725062811293	4.993855463771122	4.747908103399647	4.538732994064483	2.8105904985039167	3.024089328760172	1.8188334657524303
360	-3.082192651596263	-1.000230548240652	0.7740853409296861	-0.19498397360687203	-0.029965994803946523	0.23867368637860803	0.6107155069190902	-0.1804624642345845	2.142818922354795	0.24102237759773004	0.5122985826909454	1.6402654606414426	0.33694603954121505	0.4827743458479912	0.4316473890373771	1.2647740808979389	2.749269716950973	1.580320354286442	1.048197982048989	2.612485163768489	2.6702566079433088	3.937303771568663	2.203048223655367	3.572716942349996	5.063549505800972	4.301275242436223	4.025480260222381	2.3428716600394077	5.540665135699886	5.106341825944396	4.717224586021061	3.1449165264836774	3.334428063557086	2.225758308513191
364	-3.242964497961594	-0.3887350549420002	1.3802243436298316	0.5213766084858967	0.4679198551285067	0.8677492715861518	1.0784205171060464	0.13837473059527086	3.999631156360032	0.94037538529439	1.2340331046419342	2.202583307427293	0.11911623894896667	1.6089431006817667	1.1439559430804167	2.0549244828794415	3.3243567859641057	1.506464239131724	2.3716318547452375	3.3864798460337004	3.500142565473292	4.467117298291925	2.0306119867555217	3.7115979100932273	5.7456092689409966	5.074748980107413	4.446510780552204	2.642714255336455	6.021549209650566	5.6521663523068	5.234735952512322	3.5612180143089596	3.832227458815156	2.9526915475683637
368	-3.290140858926469	-0.13216994669446305	1.3967279160521533	1.143017408346153	0.9454362964602013	1.2643444506194825	1.3454966511134456	0.5577056393847752	4.715400207058382	1.490127082877195	1.7486165717799307	2.474515431832283	0.03631275138031542	2.7693343092617653	1.6623314577094497	2.647320740691646	3.6478412059237533	1.5742170770954302	3.553856363860627	4.000040521059316	4.203379620429967	4.892551886603793	2.0577509351275545	3.761745443383365	6.288682921744672	5.778563008024056	4.884517657345513	3.1279401700201905	6.312446578300886	6.1787109219002545	5.814986214261443	3.9019799133967386	4.300438393225689	3.633841743831413
372	-3.0340783519435703	-0.24571537909459412	0.8877794720169951	1.4367649518931471	1.2840429512029885	1.4270845615596166	1.4160037004959793	0.9169830060695451	4.2223815811363865	1.8098113491141372	2.015895123160476	2.4762492117351322	0.07163351756129974	3.711506595777662	1.947267169804387	2.970839254508019	3.6670367625159144	1.7128096775679662	4.256263245326966	4.374841679018063	4.641791808806725	5.078751551203264	2.220175022241887	3.9025058647809088	6.624497396910006	6.228432639609192	5.112027155367298	3.496377697700205	6.391625388220607	6.500063402930959	6.15252731677227	4.064876069296501	4.54478930279553	3.916580190306898
376	-2.405043834336173	-0.5375062213678418	0.197190731265981	1.3697711194740945	1.4432363473693621	1.4732152186391927	1.4226766788803156	1.1467621297493573	3.1010889928724072	1.91136061662661	2.1127834266725705	2.3760821759315114	0.20970030076011606	4.34371279573484	2.0606336541601933	3.0839745920519697	3.5034682662247834	1.8622984839150916	4.3688597568835075	4.544023025484232	4.815293776752464	5.037302004493949	2.419483893961581	4.215546120490802	6.772491914816385	6.375090106127345	5.029773222622088	3.52867745462244	6.3375935394495535	6.551499827056465	6.08518503560074	4.049959172514094	4.49884032067277	3.654787292789761
380	-1.522604223221834	-0.7309604268692546	-0.23888879954105932	1.0942714186697253	1.459737177978031	1.5513386687211859	1.5336337050818045	1.26729571499344	2.190891737174829	1.8716664267014984	2.172741646049389	2.3880674778726867	0.43338850031151516	4.693697440694719	2.10854076806817	3.126642934534574	3.376008740484576	1.9937506863801429	4.018870820389215	4.606137740903579	4.84166144102305	4.906988131531945	2.5681061679851496	4.607340801050688	6.806913835505845	6.314617617876703	4.713627326508659	3.205541125787402	6.273098452942467	6.415339453712493	5.675530896162606	3.954626311808131	4.255506981595966	2.9860017224262805
384	-0.6616249067768233	-0.6339312179772668	-0.13474923338247766	0.8380436876119263	1.4056880438600365	1.742235894572835	1.837796564230554	1.3357157673490774	2.061159128707206	1.777960653584506	2.29764699355813	2.64092897702065	0.7025835496330074	4.790558326070286	2.168060774097706	3.2281241335428854	3.462198725542236	2.09485268063935	3.4563565166946812	4.648933398907102	4.869643675907236	4.853104579116717	2.6093928748053488	4.842087256604251	6.797994119647018	6.214344962642807	4.351507652740306	2.6976575783331125	6.285998805387924	6.256219848096165	5.156305776929089	3.91258501018698	4.002175321011201	2.245757097296317
388	-0.13164153661870212	-0.2559476190303843	0.4798696327014858	0.7667903284740442	1.3368244137391005	2.0063388296970546	2.2749080600523075	1.384187814078809	2.674082034035335	1.680756087828032	2.4946649011570208	3.09161304646994	0.9412549710351197	4.582339752072062	2.2434625568968367	3.4260759267137595	3.7798724079066908	2.1438720172160277	2.9005136416637236	4.692585456444597	4.980389582457463	4.950747000592607	2.5178890164700896	4.678449618925355	6.766262991034504	6.202904208734925	4.117197503185398	2.24760627179116	6.373548014761609	6.209320052682349	4.78172730192266	4.007647504224924	3.899957170176748	1.7736854508441404
392	-0.13602232898702096	0.1932704890855176	1.26784872688627	0.899260995501801	1.259500023522949	2.205567831192951	2.6492364339698904	1.3899477685167811	3.4442593964401893	1.5767053325899414	2.6730837754471573	3.5332856089076805	1.053185221874044	3.971352090345614	2.272684329970642	3.6438853648692877	4.161759366018447	2.0990478939466293	2.4455025134332438	4.685555923076114	5.137300001525414	5.127747999596405	2.2956335486627006	4.034354199714137	6.678019983597384	6.292516215649789	4.063275326960454	2.024057144776832	6.443442328397399	6.292581065503141	4.678889262784108	4.212355126236163	3.981175174198377	1.7270147756842624
396	-0.6809133870099544	0.4218800355273388	1.7669655039998395	1.1171641321586798	1.1368699045088297	2.1872858945936007	2.7257516315306143	1.294036861967246	3.6461028960679127	1.4297006094122036	2.704530709114099	3.7015156652456356	0.966546056214491	2.94723057002783	2.1802792494086543	3.742807617274562	4.345591534133416	1.9177977990368102	2.0762104935678867	4.5558442954434	5.217101560772177	5.2084221708404765	1.9753751704887312	3.082041732636073	6.485969527081532	6.382767661192189	4.1017484561357795	2.0370545335837384	6.375329001543002	6.399850352341687	4.789691912956019	4.393440712326818	4.1299557581580695	2.0085911700081405
400	-1.5746675689995053	0.22483274283864768	1.6449228483631433	1.256305095361765	0.9294284558672249	1.8841345262641358	2.3603005349648862	1.0560297939341228	2.916040651588511	1.2162777154732003	2.5139179166266	3.424770108159317	0.6836150271322228	1.7075589852136692	1.9446408699529247	3.6212675480013434	4.132513035831056	1.5967374999740576	1.755490417816653	4.283767689379839	5.104322420584505	5.0331988207579705	1.6254354674308988	2.2014527265280477	6.18700645792057	6.342394812783379	4.080507268140092	2.1583681052073826	6.1066965902644466	6.379740698919559	4.932344424192535	4.39082478368352	4.161686409933425	2.3464982450369654
404	-2.5144073899682597	-0.3927818228818411	0.8851538874212681	1.2129305570496443	0.6390553100663805	1.3706786597931533	1.5922081430290111	0.704011378894997	1.5227863750158077	0.9604068374227706	2.1447873061388876	2.7346961429216057	0.3002462081481249	0.6533443315223086	1.6299697119568046	3.299344292893711	3.5201785475546643	1.2004241913051579	1.5080524644923992	3.9419162173883167	4.786943900420232	4.577932823067075	1.3426074947791873	1.8006821825340977	5.853082642082739	6.112637027566342	3.9008450409630804	2.2239398900149743	5.689630017220758	6.14704035160668	4.934915530143075	4.125553120687496	3.951946963822952	2.4724914965194
408	-3.20971583509693	-1.2045575349913162	-0.1946051413867973	1.001870272014283	0.32894456303515646	0.846703884848057	0.6542648656538956	0.3446300915123237	0.22532987537714166	0.7371813636287556	1.7625958875023877	1.8787133646262115	-0.02414149226113588	0.22180491629866952	1.364611860644652	2.9384655878264487	2.734555475960291	0.8530727007308725	1.4336712324185361	3.6743087675787307	4.393585670822546	3.998617162145673	1.2240222661586033	2.0952775425462367	5.6119346476964616	5.766428932889897	3.5991349129406456	2.145518535919146	5.283211694730021	5.7557792518254765	4.754138457692999	3.673422565722448	3.534524193422986	2.290848249373635
412	-3.485837689181894	-1.8697256994725115	-1.1027491064840147	0.733815548951432	0.10696847709828536	0.5540374503452695	-0.11294000567293419	0.11802204668526502	-0.19951996156863297	0.64243370132372	1.5897080858148642	1.2191039293027348	-0.14315614068127483	0.6374789460299857	1.2770905462446505	2.7782196928452887	2.1326622909107114	0.6844525319938473	1.6372438627868278	3.6232154277876853	4.143244256049323	3.5643513112676017	1.318822022923041	2.975512973902347	5.583218560427654	5.4808130125905	3.3332295333629687	1.9544699142701498	5.078547464900068	5.382694230794769	4.501100528796947	3.253138533961908	3.103968374044947	1.9351183127183609
416	-3.3245603954301446	-2.098687405055938	-1.4233609402006095	0.5324215279488251	0.07924061248561708	0.668083487254444	-0.4038191427525799	0.12588539687798597	0.5334823118092146	0.7435277085605476	1.8013014747917506	1.0661166879439952	-0.00909964551714382	1.7364014343290815	1.4241938555045979	3.01688646508512	2.0221915194000726	0.7531473617612054	2.1208977645732263	3.8431098364121925	4.22820328598619	3.50899552413014	1.5790392120548742	4.038647641475758	5.801073059694518	5.431256280537885	3.275637141540602	1.7508662894866531	5.1876249182379555	5.220118986301667	4.353008259273382	3.1153149526143222	2.90511607390308	1.671157594276216
420	-2.840363495331213	-1.7889025166168782	-1.0202325556745877	0.4485051024557377	0.2984832219694095	1.2187659709677114	-0.08175613710504419	0.3697870960436112	2.0019574114799674	1.0399014923543595	2.4373583732102753	1.52944254489036	0.2871803932091891	2.9898552819105695	1.7544370845368418	3.7015235330587264	2.4975886281851616	0.998631951671812	2.7216381957957605	4.256434429866329	4.698841559944427	3.8900573155417084	1.8519941521616277	4.778903949116068	6.173278316170562	5.674212441423502	3.485184899113962	1.6049675900945748	5.5618128636128015	5.346312986227199	4.415231216727369	3.39394687749373	3.0768105906052132	1.7140591101285936
424	-2.215234512458218	-1.0638911697229907	-0.08729568846835462	0.428043841234967	0.7343882303769881	2.0772468991286246	0.7557686548225194	0.739321110766145	3.3025581753318862	1.4553228579971107	3.37475275141304	2.460122817503997	0.5540673718768712	3.7517847920108083	2.1278383678119286	4.687330710974465	3.379888049175343	1.2569032875752204	3.155852071423719	4.67950867425105	5.416967378291245	4.53726671980671	1.933953041915944	4.838944899739626	6.505774481560338	6.090672477603487	3.8417091272635076	1.4868828020702616	5.989946827070441	5.6540236330333125	4.6256990315951585	4.001663197904584	3.5434157758895504	2.071721071734739
428	-1.6250400502184574	-0.20077203163478483	0.9701998209299976	0.35579967408948515	1.2835233179111485	3.0136434955803684	1.8147675945239872	1.0644141408749295	3.589160433290536	1.8686444712190158	4.375416744629404	3.5152773768364476	0.6020718797741651	3.6059460548912226	2.3831417500408847	5.692294106416913	4.296933163284588	1.3410150970933883	3.1625657001756897	4.90768479061832	6.109700664353541	5.126996027399818	1.669112678128425	4.188487996016881	6.586623652041028	6.432055457088258	4.093622674143356	1.2802848783593883	6.1865901790825095	5.889124855431682	4.770733344430886	4.640303123202574	4.028009881340262	2.517029040657442
432	-1.1865992516122792	0.5082998858969945	1.7480794147225711	0.14547607265936532	1.8120913459803292	3.7973260783643332	2.731861107604667	1.2008678882797454	2.5920295649889575	2.1666634028091196	5.188827501547907	4.316066254209181	0.35783386140124385	2.5983474189006186	2.4154155193380635	6.423834307664434	4.864666449662478	1.1483927936170053	2.6515147619060326	4.815371978046212	6.500674231329074	5.348332868424248	1.0486131880034462	3.1257915417907522	6.288908465719933	6.450570090220224	4.000664224060671	0.8790531732299754	5.931001648233668	5.787394509008839	4.612683284557708	4.934976565299171	4.191897858526583	2.714039795698978
436	-0.9370866394225663	0.8878756739134197	2.035533661471489	-0.1825614715973728	2.2100439015857027	4.291334141387103	3.231145612188211	1.1050952645057401	0.7962936738890574	2.291602844174586	5.65881012441527	4.619328964014806	-0.0806812194932981	1.2140978544099783	2.221922153585132	6.713561994768636	4.873915183159635	0.7313658576619931	1.768620248143916	4.416720856005834	6.449396593976848	5.070639597488393	0.2480339550670194	2.107620233936583	5.63932369715734	6.042733177187413	3.4893064410804846	0.30050581617778865	5.186343656797098	5.23330782522711	4.0526943104466415	4.62441967750293	3.8246672056909334	2.4239015518026004
440	-0.8428869822202121	0.939011511816083	1.889498348233931	-0.4886353301586026	2.4297757087396734	4.496993530363712	3.2370598234464723	0.8588967897664611	-0.8377556779690988	2.260230773941293	5.782656655016894	4.4181547053369306	-0.48457285639490305	0.10450050953468834	1.8952466201615565	6.590638144065805	4.3856615909475325	0.28581195997556824	0.8346883633520567	3.8551819227159423	6.023169025472892	4.4184598811174105	-0.4293621767647806	1.5056745967997334	4.814190375571168	5.322828756244987	2.7241582801705015	-0.26877593926281224	4.133580674225577	4.34803007935431	3.2257568754769625	3.707762947258061	2.9778964444316074	1.6694081979564752
444	-0.8254568555971962	0.8086315373031893	1.5679995974053174	-0.5838338717979034	2.491452687648896	4.532165992738289	2.8929986880694156	0.632253168417142	-1.4371366464570279	2.1458072608177092	5.69620369426715	3.926250447850842	-0.6106598361810105	-0.2693785720222923	1.5693455894902368	6.257079108653078	3.6875197794319727	0.05609758556627012	0.19068691086309003	3.3290767585626626	5.462554441011843	3.710729112793175	-0.6883413178231099	1.4227530920347249	4.061345566986079	4.580032337069342	2.0431775995167656	-0.5444132671916202	3.095005981260568	3.4481134327616356	2.458675378313926	2.4589495596792004	1.9572803924735032	0.7516471724606413
448	-0.7979723791002731	0.6923734528226954	1.369360562681918	-0.3462071410021317	2.4542043147113226	4.555962551058335	2.473447316600605	0.5975549205952007	-0.7265523653760197	2.032564396494855	5.593423829261751	3.4548768909965126	-0.3394241920484623	0.12474539099430948	1.3474235500648795	5.977821811842265	3.1351292054176896	0.19965204546112175	0.03178230665050461	2.9936346932169453	5.057191359149543	3.293061248094511	-0.3966799666403098	1.669736857966937	3.586607923989119	4.136157979059158	1.7817678406552773	-0.3085291675884246	2.3832142292887486	2.889289848662276	2.1015288776744963	1.2962920633012738	1.1692099541708314	0.09670982485434572
452	-0.701702652590096	0.7257902007852012	1.470379348857229	0.192337020746047	2.374678605759884	4.680128562555149	2.2363851013940756	0.8379249551598335	0.8280467370107929	1.9718282172963926	5.623331055748743	3.249890319248429	0.24652987656339342	0.9051204300916521	1.256888267204775	5.94434307504935	2.965740673206805	0.6865627748321473	0.31368091623264427	2.8937358783141365	4.998549925581779	3.3528788005100143	0.32541888870094876	1.904331440885995	3.462239018282002	4.178813923775681	2.0799429364142985	0.427482037657055	2.1507484858571133	2.8774948047467426	2.32298755059254	0.573619841081046	0.9025695301156401	0.013254540938947134
456	-0.5308172093341013	0.9240440702950342	1.8516579819659431	0.8430721738510616	2.2759506644960865	4.9110317106232975	2.291771167691007	1.2989332643138924	2.32744478591759	1.9598497102847043	5.8155045362511	3.3721859369969134	0.8947947002707678	1.5381371936110837	1.2479484049760643	6.181583865771175	3.1817307391898026	1.295567270822635	0.7926213721290725	2.9569547101705154	5.286224828725098	3.8173625372828623	1.1391578883974014	1.8394406987478875	3.601348391023436	4.659708011306657	2.7829668451617944	1.3696775401820334	2.3192617834663265	3.351317635657999	2.989418499074758	0.40489748018081134	1.1674103707403163	0.501880227252314
460	-0.33976462397623747	1.1913566559276605	2.331205123737686	1.340519663287266	2.1445448344445537	5.150183664670376	2.5538058216467427	1.801522131186152	2.9851841851206053	1.9496213148484924	6.071235641409885	3.681856146099715	1.3067027297407487	1.6661581951036577	1.233055230842218	6.545212252304274	3.563506832662556	1.713802571738128	1.170340296651498	3.044616691531832	5.735211357895472	4.388867367154038	1.636435504596425	1.4034757578701385	3.808783521572711	5.3132414683663605	3.497230044118341	2.0464091249297494	2.6237904959237834	4.0018358129554175	3.704006900972378	0.615233658190947	1.6820185142011874	1.2292557923752483
464	-0.2240816796128904	1.3856486047092762	2.6745314530558066	1.4735333882322004	1.9545516918425752	5.250511633014485	2.79968594797908	2.109720940031743	2.579834454698702	1.8863246393262332	6.221734984901981	3.928032626725127	1.2874212232510387	1.2972915139823442	1.1421287030947957	6.80627582738978	3.798951616232544	1.6920121865468665	1.2433750598032847	3.028243295653371	6.0765437926416	4.697382915081167	1.5355908831927079	0.7538977842370329	3.8784778020211395	5.785920128519398	3.7780301475506244	2.031355137464705	2.748367302631352	4.4222173579145645	3.9939799207938558	0.8459719398120632	2.0196204134495326	1.6904654460188502
468	-0.2757792763899822	1.4020231926806297	2.7196307113647937	1.1973981827068407	1.699478741169739	5.098033892157998	2.8042235303650846	2.0292088934210515	1.5400446614483698	1.741842742336889	6.1211347425412255	3.8939890763197456	0.8426808693590991	0.7509432416076212	0.9581614112504612	6.7747969456333195	3.6576206591766502	1.1749731272596133	0.9813786124247535	2.8469023632651433	6.094567760339014	4.490427482711833	0.8240272978005125	0.14903955123942633	3.686306467285988	5.807700142502494	3.3533284579490648	1.1719490260099241	2.4839708742369995	4.308874119370162	3.550838461493979	0.7556833009714166	1.8370957328190545	1.478459831319738
472	-0.5345157371377212	1.225714322810215	2.445886844181785	0.6573035700415178	1.4106925690320327	4.675070750830859	2.47172712655673	1.49274980644998	0.6148806794854783	1.5306725463368394	5.724482998700146	3.5150916487637964	0.1676887120543107	0.4021464874127936	0.7185347658135902	6.395891173427122	3.1123909871676028	0.33515790020246794	0.5059031235319825	2.5221717293956782	5.7283358429287	3.7584342861651625	-0.2303664380456237	-0.22368425074369272	3.2370085634520946	5.316016183782939	2.2636187019417724	-0.30711406391806245	1.8283715201945967	3.6083974747153555	2.394562238369595	0.20673792011993603	1.0611596080691206	0.5135346042065321
476	-0.9562880968745451	0.9325249171554886	1.9681665847677956	0.11638310522259462	1.1481729716876288	4.072566022127427	1.892015690795019	0.5995379075172266	0.36948674823934635	1.29876362949529	5.1112360825238365	2.909609548852062	-0.46198841812794866	0.40993219510531	0.48692396160213236	5.770765289995648	2.3495502412603386	-0.5095204102049786	-0.009578474773125121	2.1331596320654613	5.089764105344161	2.735667460210413	-1.2086561887743033	-0.3559565237118156	2.6498501233909484	4.473789203792658	0.8472014644213857	-1.8888726186746585	0.9820818280220381	2.5380885536963125	0.8748729802931418	-0.658297179467415	-0.06678737683123312	-0.8956691004074151
480	-1.4216773474085345	0.6383303983784524	1.4672281705051997	-0.1701262588974073	0.9651219820451128	3.4426293286189873	1.286357161135195	-0.41061797634404185	0.8444583394664584	1.091107365714457	4.440941322558453	2.305404180428193	-0.834909496583615	0.612991987111249	0.31409066836211813	5.0936303010131105	1.6624126392354288	-1.0524501773965296	-0.4483265865450861	1.7714866355039276	4.393190372819394	1.7780044033936608	-1.7467589334255509	-0.39953130382755364	2.0960910267360773	3.5765690713228144	-0.42203131211539685	-3.001310340933162	0.24683831569816614	1.472948070621984	-0.49287354821697865	-1.4899436197810396	-1.1115297051022877	-2.197379821951539
484	-1.788432355180077	0.4260103095742992	1.0947616072671205	-0.08181358853188202	0.8670781232876753	2.9163670466224767	0.870983896440656	-1.2459679810537572	1.568319197509796	0.9184130407033857	3.865517844931057	1.9036699485399478	-0.9055840946221893	0.6553179009104838	0.20945179409551368	4.541827667213408	1.2881655660531146	-1.1472604245784215	-0.7986462692124023	1.501361485505386	3.8383414648422005	1.1842743128440403	-1.7097436146484613	-0.5380595908885394	1.7217620567720482	2.901748411481773	-1.1585344046906434	-3.285734645177218	-0.11928845911902976	0.7616547326885179	-1.2713429895727604	-1.9141364049267917	-1.6651774602809994	-2.8738193439405926
488	-1.964619750784746	0.2939516298501897	0.9062502361305173	0.30759489458625155	0.793840883158098	2.533200257581335	0.7212238293558427	-1.676950331268732	1.9002821397487575	0.7434725146596249	3.4470477017157424	1.7608902409918017	-0.798539696107813	0.25303023989689616	0.13579177822161184	4.180974949771201	1.280519124612764	-0.8700584747282097	-1.1257259817311793	1.3395910229240102	3.511213055328765	1.056812402918048	-1.2438052861281872	-0.8424303510377407	1.5894139964982847	2.580353491944096	-1.233548638090423	-2.7549915244163854	-0.019328188102322154	0.5685955271670344	-1.2967289653463743	-1.7222757295994258	-1.5476709565188371	-2.700011008121482
492	-1.9615654895848766	0.15534552892564607	0.8484759905374	0.7693149428017766	0.6425291283597645	2.2236483040934694	0.7200976592002998	-1.627790089312161	1.4738234244329453	0.4989488410273389	3.1275529782487075	1.7569583610044752	-0.7174774986272336	-0.5862855300406148	0.030278775764551135	3.9367360969332554	1.4859778843555662	-0.46445008995095716	-1.5019963941799306	1.2597560850762575	3.352627268909697	1.2692637411496652	-0.6815238577802026	-1.217188593652358	1.660238142590223	2.55368232082308	-0.8077387193313528	-1.7615567401279972	0.4442999947774508	0.8159907439610922	-0.7309865933082449	-0.9806913708722284	-0.8893830753759836	-1.8497073603659486
496	-1.8970476341035425	-0.11338405282480914	0.7961139658855133	1.0223571036275978	0.3189748517566166	1.8542680693540676	0.6229497774608639	-1.212824937619369	0.4277487088371068	0.12250217764443183	2.7656795908719447	1.6654483037861751	-0.8207766989012488	-1.5464385708865724	-0.16817347662904505	3.644164314606132	1.6323553282532717	-0.2049002344203445	-1.9431054543073871	1.2055041759572491	3.2035036006155444	1.5495876034713953	-0.3560875645230234	-1.4675381146572493	1.8149880124998101	2.62626361183856	-0.22465602996849598	-0.8020122627036599	1.0203218434322359	1.2434776990013288	0.043104585151324204	-0.007804244271333498	-0.059351965635177244	-0.7977714518432426
500	-1.937256688948924	-0.5924346432033429	0.6232486947536577	0.8591427185301834	-0.20537528343800496	1.3155506816074478	0.2117354566473499	-0.688654659439903	-0.7113610488097599	-0.407340942784887	2.2246663514236626	1.292749401643348	-1.1333821983332482	-2.1989176217828614	-0.4976168262315838	3.1483917156838874	1.4834343157508432	-0.2531613105104263	-2.3900256096579042	1.1054123612151445	2.899908296892913	1.63089525287854	-0.42878830324633205	-1.4419804775071154	1.9008172702482	2.5806238586121144	0.170996307894997	-0.26745572618669294	1.4185683691448996	1.546247359186616	0.6200393422684745	0.7696774582503852	0.5195416795011191	-0.0746236590647138
504	-2.204524988330594	-1.251518365561228	0.27373161842853827	0.23715767204489593	-0.8612424709510296	0.6042697414400638	-0.5523852095962671	-0.3390189400696576	-1.3966708148026026	-1.0499064895825172	1.4647090398047728	0.6053194388365529	-1.5410618743135385	-2.2809569778074215	-0.959007439576267	2.402715915335703	0.9726132725955045	-0.5844391569640692	-2.738786928891502	0.8927071071974252	2.3672430455522164	1.3876876796018942	-0.8218272307627627	-1.1505799264468717	1.7893011524801294	2.292265170985658	0.19244246136238846	-0.27350595524398835	1.4289025032206761	1.5188374481001186	0.7571106533962492	1.0090795729909543	0.5701779708771809	-0.005645386860422519
508	-2.700585596895666	-1.9359509896037708	-0.2038130308012251	-0.7025997620963453	-1.498032923730953	-0.14874322674867363	-1.4702902995181595	-0.3448010078307856	-1.431637879571802	-1.7085590319411859	0.5884335622236071	-0.22695538344302973	-1.8637701225908805	-1.8707505417321921	-1.5119260511372825	1.51181518649828	0.24535913703483223	-1.0174483035148691	-2.891713135094146	0.5295033441526346	1.6669274526471867	0.8907225109499943	-1.285615083309615	-0.773052630856915	1.4274831974228679	1.7886784031530885	-0.1281646039826365	-0.6532690508561474	1.0014934514509644	1.1366360158833217	0.45740714553743395	0.5997906908150809	0.07630622367666903	-0.5729967937307818
512	-3.2888717568331156	-2.416362756350442	-0.6652641279590414	-1.684338923016435	-1.9397710512777808	-0.7234026175354614	-2.180590385653596	-0.7004953009085739	-1.077992794176218	-2.25780319597501	-0.18661308241458946	-0.8982444978923679	-1.9606335113615216	-1.3315063681363775	-2.0754783101133145	0.6978468877339555	-0.410775273001207	-1.3245358433660734	-2.799150936688927	0.035872250704795654	0.9752625202351476	0.3579732170603769	-1.5535796841497929	-0.5454205856857811	0.8679382183096127	1.229458448166973	-0.5937079176218202	-1.0966100665062282	0.2603631907088418	0.5462254868067958	-0.07637456785231206	-0.2962860755592463	-0.7343378048476354	-1.4624150954517388
516	-3.7519438172026676	-2.4894185003371367	-0.9252228117471363	-2.403456205021944	-2.0579800553814924	-0.9119312144143613	-2.339479440504515	-1.2248522012303604	-0.8435100295704762	-2.5824968749648076	-0.6213882549809807	-1.1155028315036943	-1.8065835191891202	-1.0606758567733447	-2.540184729838481	0.20311184176185773	-0.712668834317475	-1.358704444315878	-2.463605874517298	-0.49531146758910416	0.5048174249301399	0.033254053359711856	-1.494538899463041	-0.5960874542445356	0.26197406583447447	0.8225938060972836	-0.968243954121276	-1.3455728258492763	-0.5500480518758801	-0.019693503106583042	-0.5759486541511856	-1.3248107399870837	-1.5189871749674162	-2.255962604548993
520	-3.89751290290997	-2.081902260292408	-0.8374390580968513	-2.6380572252426218	-1.8290505363061635	-0.6269355996515759	-1.8097867920005517	-1.6571776825073128	-1.0954349013328035	-2.61608099276942	-0.5697274789731059	-0.7517878990266006	-1.4970633945814844	-1.2091630666721933	-2.794749729729824	0.1777653689664688	-0.5272582160035483	-1.125204202672133	-1.9225104998687228	-0.9142659283443189	0.40822762147832703	0.06033227950003274	-1.1748007506273581	-0.8470314123702708	-0.18752980184892046	0.7236881237832147	-1.098863360491628	-1.3291254010021911	-1.1585702866867076	-0.3525641849676338	-0.8466624596200427	-2.097295994231814	-1.9864306399737583	-2.6535916261433425
524	-3.657519808117945	-1.3047413793047216	-0.3666025688929142	-2.3172314108518237	-1.3421995605913744	0.04236267123851687	-0.7527297716209633	-1.7906297400088187	-1.762618418058056	-2.3585004746972142	-0.05509395883478571	0.0789044869934161	-1.1865491837107942	-1.5665793379331951	-2.758233063409666	0.6084718688861195	0.06060064196187579	-0.7635169009958891	-1.2431150643434308	-1.0611814233690533	0.7100550514413837	0.41620111360373424	-0.8004752377327174	-1.0538516018009505	-0.30106222553536216	0.9664068197646472	-0.9733182763321279	-1.1666864127267023	-1.368541118027615	-0.3516461840334434	-0.8417181947437623	-2.356021875155132	-2.018696779876425	-2.6040913992938317
