time	FP1	FPZ	FP2	F7	F3	FZ	F4	F8	FT7	FC3	FCZ	FC4	FT8	T7	C3	CZ	C4	T8	TP7	CP3	CPZ	CP4	TP8	P7	P3	PZ	P4	P8	PO3	POZ	PO4	O1	OZ	O2
-200	0.732297537862125	-0.07161581498184615	-0.03802424287136519	-0.2398829007052746	0.39124438067838635	0.29699456616758024	0.0918755305473983	0.3758661439465828	0.6299573167154799	0.0187188218806446	0.003196921191488715	-0.08769150801214744	-0.028697062211301232	-0.31528723160296307	-0.6918547136005248	-0.13026256826414384	-0.07938992957098304	-0.28122165728139287	0.27378648450391546	-0.8851946569981916	-0.35573673158476127	-0.19390883992828917	-0.4716171312345894	0.25017258461732206	-0.6590514762451432	-0.680666504571918	-0.5084207045116492	-0.43850409873876983	0.12595000831275935	-0.4379164565474129	-0.5304871784168131	-0.14364001118633982	-0.43566411623632706	-0.909695324985192
-196	0.4666039037844781	-0.18646223796020497	-0.03827403848640758	-0.45000043397776496	0.13870382273940612	0.047839105008459816	-0.06907734257423845	0.6918059570012216	-0.32748165643980515	-0.2777571671148927	-0.31731271663660654	-0.3429217925950516	0.12822717395833147	0.7340976577344417	-0.9881941055143881	-0.4766068744547186	-0.2383712077082978	-0.12372713504785995	1.3007309403957796	-1.096568581673569	-0.5603775367893759	-0.2299419486677663	-0.20438043721573185	0.3833315958835296	-0.6902908665395012	-0.7340313773696188	-0.32017362036931263	-0.024465536636929457	0.395957558347456	-0.1859161700084739	-0.1504124995248775	0.3072464756360967	0.03163382775545369	-0.41041913524957313
-192	0.23835188090227818	-0.2581908100285203	0.02278445096521897	-0.18292294396470052	-0.17835687055856517	-0.19147193383512232	-0.1698845024588087	0.6587778909263148	-1.046463367681115	-0.5792555198349753	-0.6205921157427259	-0.5041015135435502	0.19167818080668564	1.7563687518598456	-1.2063398330748902	-0.7639650683188237	-0.3714901497521563	-0.03004414953156578	2.175303215256789	-1.2098865478486505	-0.6770774108958295	-0.25947651201540173	0.014386610091662779	0.5020089732847037	-0.6241055711247854	-0.6538040621463005	-0.15201087257630008	0.28796604202998993	0.6296231134730681	0.12180415510181015	0.23059005977109517	0.7560676913246026	0.530663429350969	0.1748809661026193
-188	0.13492825593260854	-0.3155872217793602	0.056419223404536964	0.44212734587622843	-0.48612666007330735	-0.4004507650755374	-0.24081166027781986	0.2998575560628482	-1.21606325796184	-0.8278967717249166	-0.8758038856328935	-0.5818147644612347	0.1826570923485123	2.299071067727508	-1.3138909306732227	-0.9690002178522767	-0.48527994629408827	-0.005942361414330666	2.512029403066305	-1.2111223905503032	-0.7406090479272001	-0.30976095717424285	0.16279970068359764	0.5583385215014025	-0.5005893098590277	-0.5299004898997702	-0.06798217428448104	0.42319580805743356	0.739509580652449	0.36025243906618853	0.46950498104766136	1.0653918954653565	0.9040067173068358	0.6300782545394238
-184	0.17139960782169028	-0.3658880284131509	-0.019369773517818892	1.151035305931806	-0.7285018544877665	-0.5656799063705626	-0.32500210322340917	-0.18491789651913487	-0.7653710822808806	-0.9861734484569592	-1.0754672261741716	-0.6286658628803922	0.1670618202044683	2.128542894711395	-1.3007415500225228	-1.1024333210767918	-0.6015002712322123	-0.019273936699842627	2.125046963094855	-1.105190155099983	-0.7908272723258628	-0.40303677218723344	0.24521107909758397	0.5205460773676933	-0.3733046641461499	-0.45884343865896027	-0.1004324850884581	0.369850217362269	0.6790045482658419	0.4221326698135815	0.4748661804130929	1.1080743046440928	1.018378851226753	0.7868652919930009
-180	0.29397001788305643	-0.37694704437453314	-0.20510408230496166	1.660267706493957	-0.8693674780830732	-0.674025235858522	-0.44658642894526207	-0.5258201943473279	0.13113187220367575	-1.0328826878219095	-1.2229462831138345	-0.7011410576284401	0.20409055002659865	1.36271166457401	-1.1691592902229002	-1.189642307138959	-0.7345438581041037	-0.029230514467468393	1.1584913701372241	-0.9045622921993846	-0.8449735620145961	-0.5399194346147702	0.26821255616181766	0.4053788472908021	-0.2731812291400719	-0.4904203402535069	-0.23802727400765097	0.1736524994757389	0.47638100265391253	0.2738043956996253	0.24700088736638057	0.8383369424634808	0.8323562720264627	0.6037959441199404
-176	0.4191117276100575	-0.300103335814959	-0.40220656889457546	1.8140710546469005	-0.8924353100179356	-0.7150554638929006	-0.5970782622521353	-0.5339784012664276	1.1514872283473518	-0.9598664021099566	-1.3219331469538824	-0.8254714587351293	0.2958970360437796	0.4023916711184581	-0.9313765740721452	-1.2507245509041136	-0.8766079522888834	-0.02092267753861838	0.029798919259772627	-0.626122294275669	-0.8898160435145388	-0.6952257138819309	0.22169794086272898	0.27219185164394316	-0.19283729742954497	-0.6040299519547379	-0.43326431403443916	-0.089700549614455	0.22829930426654857	-0.024699177530633352	-0.12429317055554034	0.33741170082734706	0.4255624998792323	0.18420417560323513
-172	0.4804112899095146	-0.11979313164506881	-0.46987572193722826	1.6406108099523993	-0.806674657215509	-0.69370829883907	-0.747254608175009	-0.2070308918494286	1.9636174390807337	-0.7783212642092441	-1.3766652310899892	-0.9878445242736631	0.3728860011223046	-0.29448947236096246	-0.6181716903337977	-1.2927235332275808	-1.0004789803994485	-0.020459571801624613	-0.786644874017178	-0.29886454268339735	-0.8971923567054492	-0.8285263159814449	0.0807866079555755	0.18337348057225902	-0.10028801088046792	-0.72636085565284	-0.6235682352534919	-0.3443327239402901	0.0532202421275184	-0.3470960250674229	-0.5014455305790645	-0.20061039873972325	-0.030529897582936432	-0.27492690016952376
-168	0.45467147116308476	0.10613572570706967	-0.32524821080106536	1.2971804109247633	-0.6558373553883898	-0.6449761374401953	-0.8763837792204491	0.26595815949049223	2.3382999837966776	-0.5317417965815228	-1.4026761019578509	-1.154533860152709	0.3243368855870729	-0.46391537668402716	-0.28957423494661444	-1.3182177510358337	-1.0806713076963719	-0.08166669288520394	-1.007088539441904	0.026603808559364395	-0.8531987049496096	-0.9066885090824441	-0.1739103193660639	0.16307061869457898	0.028525439950329544	-0.7805367688499518	-0.7578759770332328	-0.5367578254499316	0.028607791217459426	-0.564225076204558	-0.7618350367385082	-0.5513594136622726	-0.3522506347345845	-0.5791653976123023
-164	0.3576768627673019	0.25273430283633347	-0.013469464111593669	0.9486823058018289	-0.5202013837078274	-0.6350280030430097	-0.9954351757666445	0.6036486610430724	2.197727436238991	-0.3024625472538573	-1.436468120762915	-1.3051092591713465	0.0643258093163527	-0.16308125812364455	-0.035317998290299545	-1.341143723916489	-1.118053195037905	-0.24949641462753602	-0.6682482940968318	0.27641990711041065	-0.7815071324644453	-0.9252161360269383	-0.5285221324928193	0.18290731264664764	0.1790423388729127	-0.7384492736292166	-0.8161914327995442	-0.6434703453030364	0.14502719008069517	-0.611183164960817	-0.8504881241306474	-0.5745061025419737	-0.4354326117966039	-0.6294244511925333
-160	0.2182771856042223	0.18720689368666504	0.30040907783956244	0.6628709418727069	-0.4999114858403534	-0.7400636654288821	-1.1444187135412847	0.5840786084687332	1.597651119966868	-0.19858704457212512	-1.5309591254681958	-1.4516562186783653	-0.40290856259664526	0.29774013086487083	0.04331623006851636	-1.3950010502880805	-1.1471296519881145	-0.5204458819600788	-0.07454838584913312	0.36572259572199445	-0.7441222052860365	-0.913625357228535	-0.919547257485953	0.18217524840136456	0.288072019088133	-0.6456345899493666	-0.8128911832313079	-0.6644242985162765	0.30242937726912356	-0.522227166764694	-0.7973814586534619	-0.29742973967798664	-0.3097663811969037	-0.4641738224231208
-156	0.05304708318430248	-0.15000633857524226	0.414798973943578	0.3893595626060577	-0.6759887916664002	-1.0081497405348057	-1.3633958066850147	0.1646808530702819	0.6831469518579835	-0.31389418165111216	-1.7322312549725447	-1.6296937424521913	-0.9601402258473634	0.5604934678231712	-0.12624892560555326	-1.523040410011199	-1.2193862168996783	-0.8273988941283648	0.3890353729439428	0.22913584055269795	-0.8156424740225489	-0.9215364432910199	-1.2444478241972436	0.10776200118275726	0.2666970186652625	-0.6026824697537027	-0.785179136201207	-0.6126461013584907	0.35559403806552925	-0.4135005463650691	-0.6942278129216207	0.08617871232924508	-0.12373404173605586	-0.23156249464698933
-152	-0.1401533927955226	-0.6921517831493353	0.2045918548902164	0.025245688791908805	-1.0635464164584802	-1.4224195444434038	-1.654345150585448	-0.5008326160183866	-0.34958612830591745	-0.6765711290443855	-2.047594303683471	-1.8651338768598984	-1.4178090059723782	0.42591187250370116	-0.5435181246386435	-1.753206844671784	-1.3707907165250481	-1.0630800697189349	0.4637110221599307	-0.14372146093321975	-1.043621060597532	-0.9925371383403371	-1.3984379733064418	-0.056247766918983144	0.045632518712704156	-0.7118908744958307	-0.7737840990557519	-0.5072137104579949	0.1867016400153409	-0.4213929463714641	-0.6439420564605979	0.3122661999924722	-0.06440664066504466	-0.10689873221349364
-148	-0.36629015114811275	-1.259014722506413	-0.3020719580176303	-0.48095139739678316	-1.5844179351858254	-1.8888432931895032	-1.9595178316234327	-1.1509252757578283	-1.2836233345048291	-1.2169655530721717	-2.424950831966577	-2.1385195201287113	-1.5990066487949275	-0.054963920126665615	-1.1155165405719583	-2.0726485200051026	-1.591878767762814	-1.1298253507699016	0.12679970232420967	-0.6900987011652305	-1.4169011080254519	-1.1392137975540595	-1.3187800612532252	-0.2897956960037183	-0.3828518679012661	-1.0179613802958003	-0.8053424934081425	-0.3704223325437011	-0.23231469036099445	-0.6291908605902483	-0.7096899133884115	0.18828560364392538	-0.2545657449494006	-0.19995357045711798
-144	-0.6110679491827572	-1.6376594263691526	-0.9298834181196468	-1.0606387826843882	-2.0813105053805723	-2.2630574646079844	-2.17577814506516	-1.5521259268673915	-1.9164932917845496	-1.7794812872781767	-2.7610192229180126	-2.375218385421607	-1.4272457325186823	-0.645531235495587	-1.6798471169975022	-2.4190671382863633	-1.8220034791721613	-0.9909032558218792	-0.443570433927242	-1.2850997415521879	-1.8598427725565456	-1.33367979189798	-1.0160119507886982	-0.558093725225928	-0.947091338627501	-1.474486108871885	-0.8833148457160114	-0.2279755020346238	-0.8190839269939015	-1.0198588345527895	-0.8879983402720578	-0.29663991853206206	-0.6831389648356037	-0.5006542789216689
-140	-0.831957993791079	-1.6896738963382316	-1.4435349666389328	-1.543965454971796	-2.3754978119956087	-2.4097502170757554	-2.2039647046711197	-1.611319180235094	-2.1084694809131985	-2.1806182806272805	-2.9416918680307056	-2.4749522146680945	-0.9702075695337987	-1.0907989712831678	-2.065144056828249	-2.6993803909813505	-1.975442285318579	-0.6951389891240016	-1.0012276147359371	-1.7823175146880081	-2.2586371841626014	-1.5201706847910883	-0.5758126363521515	-0.8326877930598664	-1.5152116975675856	-1.95621466142761	-0.9908860300795826	-0.11061746599164136	-1.4133330547889158	-1.4808385334774286	-1.1177533836754416	-0.9566904282257632	-1.207502719691522	-0.8895394183588347
-136	-0.9714060401232717	-1.423092957718376	-1.6651725727001403	-1.750903482784899	-2.3450891912380323	-2.266450160980034	-2.0051279017368553	-1.405021187095973	-1.837185139785992	-2.2890925349615636	-2.8961071894958934	-2.3656177461025845	-0.4127296198914906	-1.2644981113933256	-2.164110893507703	-2.828628056060305	-1.9849274108363184	-0.3580580046673558	-1.363149162665557	-2.068912977717171	-2.5073871549243387	-1.64185809674582	-0.1276647445316509	-1.0946317883511276	-1.9439498137031435	-2.312208408239994	-1.1013618679850146	-0.05007803427450506	-1.8452216340207677	-1.8585421992108302	-1.316838261140635	-1.5023107490756824	-1.6273784596363816	-1.2048643797018452
-132	-0.9913828943971758	-0.991024849296914	-1.5582010706661402	-1.6015280444718503	-1.9893144318900005	-1.8814259720030908	-1.6335036713366151	-1.1169811458996812	-1.2329146830901925	-2.0917134232162455	-2.6372728281193583	-2.052674765172719	0.02508266077563397	-1.2042268484229373	-1.986564512005586	-2.7703118254336134	-1.839006657725729	-0.11038260879065809	-1.466606970898919	-2.110776419078761	-2.551576369519193	-1.6666485029103422	0.2032075072164807	-1.3133306470137487	-2.1334636157530484	-2.4323725638966915	-1.188010331969129	-0.0677622852998792	-2.004538054173647	-2.0311267324665025	-1.4225534164752314	-1.6898990826856244	-1.7867205097864498	-1.3255331482799375
-128	-0.9060817934048072	-0.6143566354499362	-1.231481310596253	-1.1798627346767725	-1.4414594137038044	-1.4018529618155808	-1.2234690158471948	-0.9262912846066823	-0.5507383928699258	-1.7058268742408695	-2.263900035864402	-1.631634946518335	0.18632274819062153	-1.0329910490658374	-1.6599619346670311	-2.555564635500334	-1.590821858204325	-0.03936066468553217	-1.3384311165396094	-1.9638923357017437	-2.407659286142314	-1.5986111123731968	0.3394684484970963	-1.4247448408395105	-2.0630543179877	-2.294095271994221	-1.2298018901293015	-0.16298241872169528	-1.8791342926265526	-1.9619271705684607	-1.4148565495055283	-1.4444105588684726	-1.647973414075046	-1.2255238263659938
-124	-0.786677775781011	-0.46886834383842274	-0.8680761434572747	-0.7032979112988369	-0.9193795896206232	-1.0143429015299117	-0.9324378347696917	-0.9098441577828204	-0.07832241783633159	-1.3294179405980102	-1.9187375258639665	-1.2522611586425436	0.042368546021302717	-0.8379707315269054	-1.3750790322872313	-2.2697479667578406	-1.3330454792698818	-0.1521833088131999	-1.0251395676479775	-1.746945495963227	-2.150613540941683	-1.470678444963957	0.2730806761045897	-1.3376005854214061	-1.7937031939042571	-1.967460984984726	-1.2135375707505043	-0.3070124081966547	-1.5487331112860527	-1.708432074048135	-1.3143622842029166	-0.8887810088606274	-1.2999950614532405	-0.9743510460095436
-120	-0.7294375878037329	-0.6004183277229811	-0.6261038168358353	-0.4073485125747543	-0.6307162030508442	-0.8629742242959615	-0.8683761932383165	-1.0143905852456117	-0.010496151607060421	-1.1459174127257332	-1.7203024582344737	-1.0496463749133742	-0.30852019708940853	-0.6056591257062703	-1.2944934335450728	-2.0098195025245706	-1.1520667047023951	-0.38153013490670884	-0.5613751993311075	-1.582201596080093	-1.8744699907660753	-1.3249485459254564	0.05601826296014524	-0.981142399218105	-1.435305114936994	-1.5762357671995864	-1.1353880138341654	-0.4508489955009674	-1.1407209605980448	-1.3836787904137124	-1.1612211436517557	-0.26576054029123836	-0.8982018805714611	-0.6877309066575062
-116	-0.7978858331562778	-0.9059383250251951	-0.5609289989614454	-0.4107646037698191	-0.6732671839881825	-0.9799353455598061	-1.0336801979669905	-1.1018470497922612	-0.34482452186309015	-1.2281669347272406	-1.6993961291322888	-1.0735794278696116	-0.6981648785130294	-0.26569914750727475	-1.4654452763751795	-1.8316165162572657	-1.083004829533437	-0.6234195216651528	0.0007897822632072024	-1.5312005242789268	-1.6441637236092006	-1.1897360056403092	-0.22812017740828958	-0.37064433004260655	-1.094655868627556	-1.2349672286324958	-1.001446602200289	-0.5437613711933577	-0.7741256336694525	-1.0943119498280702	-0.9905036662843139	0.196162417035751	-0.5768192991952216	-0.4612302172459976
-112	-0.9682764982572412	-1.1855576008428144	-0.6053541883443693	-0.6420321448328821	-0.9777163838497102	-1.2613408533675445	-1.312939402126431	-1.0350697014424863	-0.8713951088839232	-1.4890713654115988	-1.7727496579235293	-1.2528972594099808	-0.9688467358923676	0.20286585339349075	-1.7800939038156314	-1.7138347582462254	-1.0892466279185569	-0.785714803142451	0.5517971501723978	-1.5566865166462214	-1.4617220126440404	-1.064921614819266	-0.4954010235676531	0.35929936079863634	-0.8274673798650388	-0.9938105915727481	-0.8263368585704383	-0.55432498315094	-0.5152564631804563	-0.8885275699116824	-0.8174017647132975	0.39622741837599523	-0.3826848556870271	-0.32283997454196306
-108	-1.1182367773433495	-1.2387183873373193	-0.6175836309099285	-0.8713055827076966	-1.3256965842154989	-1.5038636884867396	-1.5161983928547063	-0.7566496710747201	-1.2706499067650618	-1.7080343918591976	-1.771707768735486	-1.4190599882537658	-1.035261866816757	0.6953560096350809	-2.0077881762357537	-1.560436721676731	-1.0797424289145374	-0.8214832523586324	0.9249349809182427	-1.5325701198031179	-1.264477726604864	-0.9242401695758502	-0.6818257553052278	0.9866539811019253	-0.6182169302590681	-0.8193374255474912	-0.6305374487216141	-0.48389831063168304	-0.36422479060721524	-0.7416375260702027	-0.6398529394207509	0.39055618545154724	-0.26859855584040854	-0.23217457474264244
-104	-1.0711405250208499	-0.9503484344330289	-0.45884916070484427	-0.8295047858276072	-1.4362798892951896	-1.4851279221232152	-1.4537448846353112	-0.31538867870811466	-1.2632185188825182	-1.6233068663620545	-1.5127659997893366	-1.3758892978262622	-0.9000963545962191	1.004266378728204	-1.8880263519302742	-1.241284605707	-0.9509664749931445	-0.7320675831431621	0.9585438346503745	-1.2984797921775864	-0.9553974842745597	-0.729128656930642	-0.7496768813279204	1.2952930894573604	-0.3951767673051921	-0.6189600213636067	-0.43392658124086647	-0.36493945029626784	-0.2722961001673921	-0.5832830652769245	-0.45290499811265883	0.3276541522813496	-0.14444985949285838	-0.12264174937040162
-100	-0.6788771135356338	-0.3268145612571632	-0.05692698792151594	-0.3516073814097926	-1.085549828649631	-1.0544418069920263	-1.0104267571687664	0.17074382262036591	-0.7416221480718895	-1.0502459976383007	-0.8791712500309774	-0.9826555227265529	-0.6230688675408245	0.9452083682991557	-1.2467713324540117	-0.6538161022845147	-0.6318512542984362	-0.5444576726518657	0.6044871791836555	-0.7370955925451405	-0.4517868745841403	-0.44563364870093297	-0.6828204376147282	1.1896017759806141	-0.07210347783242536	-0.2944054596143637	-0.24609604415749106	-0.2418797457071758	-0.17419615343936265	-0.3458223334164333	-0.25994917684727725	0.3411957016913591	0.05335670696138712	0.04624995577579295
-96	0.0901336220611384	0.521459816569793	0.5654475078611702	0.5229277597576152	-0.20999853259949675	-0.1986560518494396	-0.19224454413991146	0.581836818179746	0.18256090535324887	0.02467567653684484	0.12071737616578372	-0.2157228881634667	-0.2710068815064777	0.5043202625893236	-0.08730429388892233	0.22064961437306616	-0.1125871983308188	-0.28112226653648087	0.004412540223484747	0.15897928138171985	0.2682673328302279	-0.05766040817246422	-0.47850280879326984	0.7649530153034816	0.4020226885659076	0.2027332479603615	-0.05902818948028448	-0.1426176872228946	-0.01971846627681001	-0.005275953547747079	-0.07171013933196504	0.4695093619890413	0.31912916818155046	0.2602585547552028
-92	1.1053312988984547	1.429372426238899	1.3046550717793048	1.5496164521193938	1.0534131500350896	0.9428154802360443	0.8699150063485976	0.8501368739598729	1.242552515707461	1.418683644527604	1.3435376848632035	0.8167064765337481	0.11359957576919222	-0.09723090355881778	1.3879616225485902	1.2919856277271247	0.5522773251894961	0.050495609513585976	-0.538319467139104	1.263525840430204	1.1419156760949063	0.42501863729935235	-0.15010364315759242	0.2797904305546597	1.0077521775551577	0.8397560694473551	0.15018114409676595	-0.06181261300335626	0.2073919618854051	0.4057190407999987	0.10429605815304434	0.6465498788722266	0.5850343093406488	0.4606398034386656
-88	2.1009902901056656	2.230129713149981	2.015490288414184	2.3785686432866835	2.408439391731165	2.1194164699450084	1.9578437755744977	0.9781509017090257	2.1443772261838685	2.809759371339267	2.553170912972198	1.9090291213474622	0.5108625279879976	-0.4899067866354187	2.8379902768008276	2.3799085556978516	1.2620704142177532	0.44267591722303373	-0.6967959386399293	2.3493401944926804	2.0310966917256117	0.9634120440001135	0.26065388256067745	0.03252026803031525	1.6503810840900242	1.509197588924933	0.404228149823996	0.03257643795729365	0.485510079826985	0.8156482556730774	0.2730208628437086	0.7617386560281497	0.7687759976050782	0.5836361035870379
-84	2.770616047539779	2.7911763120752715	2.554732316242792	2.7084176471993784	3.5063106925176557	3.0519525927736866	2.8309333252958178	1.0168006394463749	2.6914501122232966	3.8537735841727447	3.4980056197542	2.825739614981782	0.8980380870080319	-0.35971984176414273	3.9050581356637473	3.2703940785808174	1.898458952878971	0.8593366124391483	-0.30065062566190487	3.1672112861777544	2.763652079280384	1.4898117743071293	0.6748857481129719	0.2049830848763731	2.1899976675054553	2.0690641350959393	0.7032821756726559	0.1700908537385001	0.7643858771098756	1.1490548820094988	0.4490280438053543	0.7444742303171911	0.8272908905123044	0.6005498155690235
-80	2.890742771479652	3.0288283748450087	2.8156630921800745	2.4226729808675915	4.073132027832785	3.5258374125153527	3.29799222113504	1.021141764923696	2.8392851281006593	4.31181906565179	3.993827094485037	3.37636565309659	1.2237573831178903	0.35536625891609513	4.34822415207721	3.789085140198494	2.355171436085624	1.2193319766730697	0.5494750128224563	3.5397303015031034	3.192230454968347	1.91722893230851	0.985321280852757	0.7566544990509347	2.4948832925749267	2.399163716934637	1.0113745902275915	0.3457475891920737	0.9832947825401549	1.3591648305909607	0.6428682787876803	0.614278493760833	0.781060157234403	0.5337942825191813
-76	2.420441382972835	2.9152784273930474	2.7519166400094757	1.6411412912895609	4.007576932325689	3.4644515426904787	3.2771229661218118	1.0195327971466912	2.6617007188352715	4.136053551721775	3.9839401144532367	3.4738843353302373	1.410633560433854	1.4030306303840798	4.1323809519385675	3.864306916970858	2.564323180400096	1.4140490257801501	1.5125608406025377	3.4301383408728143	3.249974719425218	2.1623070185427746	1.0901036234989736	1.4347761833205925	2.4972352918518252	2.450162642968597	1.264436718609362	0.5096970783716469	1.0939588519133123	1.4436205589086142	0.8471595027515697	0.46507516385913855	0.695906756551415	0.44140747078077114
-72	1.527204509693984	2.485862248820237	2.388384097744934	0.6677876694031706	3.41127537819766	2.9552559777987057	2.8249657082759723	1.0125212643808854	2.2692701759265272	3.4806067855696123	3.5556492715709442	3.157975665702415	1.3902443612284348	2.327977413021958	3.43735646333689	3.554136028853207	2.512955420825197	1.3556315864668855	2.173700327153536	2.956568948910503	2.979363195526537	2.1748683397696054	0.938435313716494	1.8999127101613724	2.2258498612473345	2.2637135925360155	1.3977521622653877	0.5860888347133526	1.0804383727451778	1.4382063114094665	1.031837460773767	0.39880981940669147	0.6368077977315093	0.3785445978620921
-68	0.5239371644143379	1.8421747637968318	1.8175986959343808	-0.14042553270171876	2.5385289128108015	2.217173809175734	2.1233358329569634	0.9929512714111909	1.7412695840741759	2.6315097742398654	2.9076788352033724	2.5785241061912685	1.1512718171616774	2.708019965010441	2.5798947745990626	3.025864355077102	2.24899506001092	1.0340232823014515	2.25827669527191	2.3428606927847966	2.520712369276682	1.965658182903401	0.5684559926939675	1.9006031703647073	1.798636551130571	1.9561027239050044	1.3831101621039907	0.5187968598618863	0.9674487089526905	1.396906253148871	1.1581164569225335	0.4557000089107321	0.628332672916939	0.3660872867401319
-64	-0.2559020512795686	1.1407022447396327	1.1800464361915066	-0.5254252539720432	1.689793463255349	1.5213681421016028	1.4240665399836792	0.9675224398980915	1.110267159519843	1.8875917148616694	2.2810342254268554	1.9466360758270986	0.7677772621797433	2.3781638085403913	1.8821476650402091	2.495121711153426	1.8732613277823718	0.5468559251329934	1.7678217843245208	1.8264526082655426	2.0624353833579145	1.6166893202972192	0.11254446180062275	1.4029486143930758	1.3768138850736837	1.6728476243699106	1.2539218632510827	0.31848484197315524	0.8126904347882112	1.369924064992202	1.2050194709871593	0.5842823371440611	0.6462466104403751	0.38714799187189525
-60	-0.5903770312662467	0.556038616683906	0.6274484976185731	-0.425117700218719	1.0971988411858329	1.092830059153406	0.9638096069797616	0.9600626206000618	0.3996096243305907	1.4457197152830141	1.8767969560922317	1.4652352296075215	0.3821166744121402	1.5039886198218733	1.5446829756837905	2.1466102545900956	1.5120391807527804	0.07473580520357555	0.9577367877621533	1.5634393652543552	1.7698214009423971	1.2599825827258322	-0.24544657704849696	0.6041992291454725	1.0985339852254308	1.5314404925781866	1.098102686016925	0.07463447730771322	0.6834160072238202	1.3875079119937055	1.1886976927309436	0.6743881685396431	0.6438565834002058	0.40809705750427616
-56	-0.45245170479028646	0.2229614997241323	0.27638208796339614	0.020666882343565462	0.8472093322344761	1.028127548483024	0.8750986434776916	0.9907398794909623	-0.3208917967323981	1.3365251984230837	1.7874759390524257	1.258818027179151	0.14349386059771954	0.4690929043370471	1.5770785768745825	2.0649187512715668	1.2730392185494959	-0.19560156713215296	0.17360518828906787	1.5702875812938888	1.7183456377514381	1.0253686879019155	-0.3491712799793281	-0.17724434986664137	1.0193755600941707	1.572777267299871	1.015521762191303	-0.08329931625554408	0.6237344726073507	1.4502918683629011	1.157104966103249	0.6290765388818577	0.591000674662957	0.4074827720367719
-52	-0.007276887055740518	0.18038824155086536	0.167827710085576	0.5548990950879671	0.8703800417859611	1.2633204428248268	1.1300924987871106	1.0459573242482496	-0.914136705474772	1.4364037477467202	1.9675472925101427	1.3281818594777788	0.131956666374834	-0.3540783813596849	1.8148695184662957	2.2037746850640554	1.1997401684034423	-0.16473090607060567	-0.3508708170138403	1.7274422601955124	1.8605142784828899	0.9782696341611186	-0.1485721167151167	-0.6699589473975666	1.0875323983391445	1.7412431196119624	1.0597091886468182	-0.05859660342442642	0.6275940521607472	1.5260217151260473	1.1586489648176126	0.42431452763239835	0.4946944999125918	0.39020368358323554
-48	0.4723937201494073	0.35111120254561257	0.25396016176001157	0.933614132431364	0.9973282788845761	1.6080278117589066	1.5500138958897527	1.0707508298542923	-1.2159327237901114	1.5444482525932577	2.2569847049950207	1.553850766073547	0.3157638303413838	-0.8047785142607016	2.0100126215731553	2.409200662252314	1.2505259482282236	0.12478569863523707	-0.6096386894092966	1.8422652436473723	2.0455436654897956	1.0838947268776866	0.2662554376555589	-0.7803828100528857	1.1688871354155428	1.9056684922742209	1.200135108778727	0.14891582689834618	0.6371113045819393	1.556140895729325	1.203759071171921	0.12396020410950448	0.3899524500061416	0.3768433620952081
-44	0.730866907181838	0.5741205797005398	0.4203182150242325	1.0290272209889921	1.0509545776536016	1.832368250035275	1.8826140117797545	0.9925157998775613	-1.1235241861587355	1.4857243261973319	2.4506671366807025	1.7504006580028433	0.5684608206701821	-0.9859468315980954	1.9510309646938713	2.4887573656189574	1.317738291274471	0.5061110245324342	-0.7855304459766261	1.7408394769585627	2.08656739661791	1.2209669320751306	0.6996255499342073	-0.6210428460653794	1.1111322613319288	1.9145370673479603	1.329686638335979	0.4285191882758506	0.5694720730708882	1.4727522097597465	1.2447552649542188	-0.15965583880169595	0.30791705769044914	0.3773251762400335
-40	0.6376097782249374	0.6791166049977367	0.5346149192663769	0.8579052068984813	0.9294861531632218	1.7704833701256013	1.9179487179970005	0.7675508241348133	-0.6766197664343995	1.1906192272643612	2.3874001442714663	1.753120537146367	0.7388083916130816	-1.147854325257464	1.5561459025194735	2.299124473489092	1.2836422887818197	0.7745133618827376	-1.0874735089502552	1.3461599315988315	1.8483967734399362	1.2445644108821299	0.9433681345010064	-0.4226101328193493	0.8182001093234035	1.6648534494328184	1.3196672167838222	0.6115332230386992	0.36173424033388596	1.2253934114035545	1.1936559646987108	-0.3340063384683148	0.24688249764099435	0.3720004847194347
-36	0.23292599559626745	0.5694384560513198	0.5030175434764017	0.5305141793208282	0.6450129135059288	1.3951743805946497	1.5909306962854102	0.4232266236587046	-0.07258403282913307	0.7165099960356822	2.0220141359776687	1.500408049609966	0.7351944428001845	-1.481721993520059	0.8998676515747933	1.814619536586739	1.088999030224785	0.7980964759703821	-1.5771285255667782	0.7099828702167429	1.317080136788523	1.0688410970405104	0.8841649271576517	-0.38969865342932875	0.30065843387035074	1.1557865113641461	1.0958228083600223	0.5686656818337579	0.01188996244945289	0.81030308995705	0.9748346184913854	-0.3807616820258823	0.17032480196865285	0.31913965859900445
-32	-0.3076434127669762	0.2659090452633213	0.30430436057508914	0.1586062457133349	0.3022224001406636	0.8259390571722116	1.012960073774614	0.06019453316630459	0.40420287745467504	0.20699478633594706	1.4459197484703752	1.0660442086961315	0.5716306552759791	-1.9706642577961575	0.1680808063078145	1.143674013111341	0.773503301574924	0.5881401285581187	-2.0993571228429433	-0.012313617362285548	0.616030572289582	0.7224620562432804	0.565029142860548	-0.586408494422476	-0.3221248380157535	0.5007109033340625	0.691347299260833	0.2946395866584503	-0.40691468016885196	0.2884216301311804	0.5839824661769532	-0.3603830030402394	0.03677412485732478	0.1879858369849456
-28	-0.765486238454296	-0.1112360429935586	-0.012609345806592006	-0.2160285705834255	0.03124066806892725	0.26632124118322487	0.41430964961352984	-0.19280485760170787	0.5085972534690282	-0.18878686380405968	0.8443479516646131	0.622201798775466	0.35155284315996077	-2.3888575970418344	-0.4341549862390691	0.4831691968163089	0.4622273135436053	0.2897025637464919	-2.363392347090869	-0.6309774502082351	-0.04259476427410567	0.34202754411174424	0.1673632855958199	-0.9116057730547094	-0.8699516036003972	-0.11173646868866814	0.24306949911737236	-0.07227038573853625	-0.768509386029671	-0.22144341412901947	0.11554914683732528	-0.36541408208141596	-0.15762300749560249	-0.002915999146266755
-24	-0.9842773651067964	-0.4154387701989817	-0.36587148812426745	-0.6247372611485201	-0.08896879829355622	-0.10105912361856087	0.020629307203064894	-0.2562404268471042	0.15747062822161892	-0.39352717896287553	0.406161545681694	0.3446122101189362	0.1930447662963231	-2.4489636359373224	-0.7741138915544614	0.027660764683981796	0.29586395546601274	0.0904035342437417	-2.1272928661043213	-1.0011876796240384	-0.453749715136283	0.09832177286358161	-0.0866866631107385	-1.1705740660677169	-1.1789638966358291	-0.496181814609917	-0.0753996221307631	-0.319499968675762	-0.9457071399653768	-0.581641672573244	-0.2678003602419141	-0.45645710710675763	-0.3585544219501143	-0.17572335854510307
-20	-0.9398475861662365	-0.5624812231167672	-0.689323006320082	-1.1102474899871166	-0.07810669372627291	-0.21035677141485357	-0.07359012197749855	-0.16090369183924064	-0.5219752775365092	-0.4377037275707466	0.2284199738695917	0.3088242999862848	0.14314074778180047	-2.011007065464077	-0.8400189259301509	-0.1240149658767536	0.3422110668125443	0.10072046492896333	-1.3753573859776296	-1.0767823430531756	-0.5173859583189702	0.09521969383756199	-0.06071374922563212	-1.1965517967531671	-1.1721025675744778	-0.5538080320681082	-0.14836999736519363	-0.2833413772581883	-0.866883990960132	-0.6931799632691149	-0.41339313879545503	-0.6196215137096539	-0.4734133768050055	-0.226278483296347
-16	-0.7412928920149815	-0.5832652434881818	-0.9657058095392137	-1.6497833687137258	-0.048143785325330875	-0.14761081300660625	0.03858012323771762	-0.04801225277580487	-1.2468930451383358	-0.4373203802988415	0.26575112275738766	0.43853217252638815	0.14141893351135973	-1.2007102935993572	-0.7278954964379973	-0.016912804873800317	0.5433626757254617	0.2812821559956871	-0.3714007129828966	-0.9164816117989604	-0.28759294675696034	0.30223646683679506	0.21593631749470732	-0.9500657892082175	-0.8885787106967705	-0.3180804244593753	0.01614161204196615	0.04840417939124563	-0.5459563122316697	-0.5419054017690275	-0.26064070993421534	-0.7676971535373674	-0.42035654081072626	-0.08280242958620916
-12	-0.5714906439657552	-0.6092774852628697	-1.22811138319845	-2.123836273553234	-0.14522892200042817	-0.10511773053094037	0.12600760130062819	-0.09828471367578608	-1.7130945877692734	-0.5268616663028588	0.3530504992631284	0.5408582077676125	0.05672948420626103	-0.36114406494513246	-0.5784511551557622	0.18308354867964233	0.7359288316266079	0.46279281260948407	0.45443180088704804	-0.6437698586422765	0.053997397286460205	0.5646306262065858	0.5605897293242404	-0.5386530147304249	-0.4599758076975442	0.06192775800090071	0.290135323268791	0.5159913288440366	-0.0733072234329476	-0.20832000620221486	0.12100672691311531	-0.7877370695252848	-0.1801631446104394	0.24198634861408744
-8	-0.5983829483183298	-0.797285137547748	-1.530237194012499	-2.3647959172624966	-0.47115614891306046	-0.27788665820534025	-0.04781392949668637	-0.4228872944168551	-1.7462298825998603	-0.786601183812668	0.2920960776583718	0.4152839173322462	-0.22015091721265076	0.1350932415889303	-0.5038089739477312	0.2736646228079799	0.7405572514910209	0.45085102205888467	0.7292374950117271	-0.38640078804687744	0.2893677942599561	0.6909858566958276	0.7398003321089294	-0.1523882444825815	-0.04869430872424764	0.3948259939715745	0.50013053290935	0.8691945650090164	0.42469447743955985	0.16885983901306198	0.5652249441181407	-0.605825065036906	0.1838657106287326	0.6429997070290782
-4	-0.9008236504699322	-1.23595654652398	-1.9066765260241172	-2.2625749054051014	-1.0232446167860625	-0.7551649789817584	-0.5817490205382134	-0.977850375090827	-1.3905736172853427	-1.2004393308848924	-0.04086749990397204	-0.02348598831922836	-0.6852052790508152	0.10086380664870565	-0.5407341705021481	0.11999667405588228	0.4718776631362449	0.15493263265116822	0.3400962642189304	-0.22540908994984818	0.27454802324596556	0.5698953256523697	0.6067146643579328	0.03777626147269356	0.21969331745470422	0.5415523634589141	0.5316454754758089	0.9102318859961054	0.8353460410008477	0.4598707545113928	0.8986428357323961	-0.23162485600642813	0.5538605437600228	0.9704198216733081
0	-1.4398157560236282	-1.886973018650463	-2.3465361535909466	-1.8583273840716021	-1.6819602208587443	-1.465409752006983	-1.3668094838919722	-1.5615931709917434	-0.8882589317783579	-1.6616278844842973	-0.6241016372182402	-0.6816383583025272	-1.1953648298601067	-0.35924577622311854	-0.6463873966109791	-0.2766536467243072	0.0015155501858251524	-0.340577810142855	-0.49740284555738046	-0.17227363542930868	0.010799206766042882	0.24386796293676755	0.19205634247450834	-0.03511823704912947	0.30073675437338787	0.48150873062634836	0.3991839875633243	0.6125794633658	1.0937589379352404	0.6052999481177607	1.0347721550565188	0.23800896048058995	0.8162525275602848	1.1083992691665878
4	-2.082066530692994	-2.5933573180526217	-2.7930974889808216	-1.3582552637139846	-2.2555673065458404	-2.205278152620074	-2.1328504031691473	-1.9085382174943315	-0.551269410648889	-2.0242869802865053	-1.2958692279523047	-1.3236877884823504	-1.5297203025343118	-0.9155878401528099	-0.7353202086003431	-0.7823926190649928	-0.46794339896313353	-0.8095810392920639	-1.3470863069855916	-0.18174323393712327	-0.3618150046273527	-0.10659539672641692	-0.3046236626563447	-0.31171852271533623	0.23277077020050305	0.3144339911151576	0.23848049282421757	0.14345477485200675	1.188356754163689	0.6369050725115372	1.0161250804041964	0.6575968248930724	0.9164958573090257	1.0383051607620153
8	-2.660960667567609	-3.1509003559668605	-3.167440406431693	-1.0385615799431918	-2.5629355842732284	-2.739156716106755	-2.5912084514046048	-1.8333896352255672	-0.5903646931048093	-2.1733050291503835	-1.8366761161208953	-1.6983916716610699	-1.5095916948351928	-1.218306180739075	-0.7320937495821525	-1.205808159644836	-0.7131109815713025	-1.0082781289393279	-1.7834333136353864	-0.18675823462541224	-0.6463574750793775	-0.26716706089277453	-0.6223880632899188	-0.6521779878362886	0.10307020667994685	0.1956389690466551	0.22144663277982923	-0.2266341144085015	1.144234773607972	0.6453126056591029	0.9777353977313455	0.89509308112176	0.8786792732942434	0.8476803281363021
12	-3.040361635161349	-3.4045090589398415	-3.400271883962746	-1.0880850526041066	-2.5148725446149127	-2.91721986987777	-2.5948316985420634	-1.346418258128636	-0.9978103016456576	-2.0767691082973117	-2.085052723388702	-1.6836943583894612	-1.1087616654059071	-1.1149287195666673	-0.610908268339807	-1.4043357336827866	-0.6244133099049838	-0.8201727846419092	-1.616086002084326	-0.13656315173002503	-0.7024815660860542	-0.12488173661888895	-0.5860614761814699	-0.9153252220885926	-0.0009934341044229103	0.23908694028095365	0.44099607952357006	-0.27896827388902606	1.000522610999314	0.7130222898601006	1.0513548824469023	0.8881660081373877	0.7791458944676296	0.6756899935828956
16	-3.1561927715723948	-3.319201699459787	-3.4595396431362295	-1.4817151985905717	-2.1562855189241885	-2.7486982276183096	-2.223395818818838	-0.6688598973553279	-1.550745602507168	-1.7976692869575983	-2.022458548207992	-1.364793654810758	-0.4845138477967244	-0.7503653745779827	-0.40450173514282434	-1.3610773052183953	-0.28267350721516626	-0.3324702373693641	-0.9912915800816104	-0.019720936144271655	-0.5264508114874593	0.25068303879388976	-0.2066053444891291	-1.0274353001403502	-0.030653223317955645	0.4455597091392758	0.8392710664540423	0.02479409233926308	0.7957691530163582	0.8545062520387461	1.2719429699255547	0.6679596288029134	0.6944272500625356	0.6290507896753798
20	-3.023561470027374	-2.9894604607445743	-3.3597142611555983	-1.9697959373332619	-1.6477160412195555	-2.3902838169784193	-1.7403155521323097	-0.13160157170448114	-1.933698172455528	-1.4610002003976328	-1.7780444577148489	-0.9925136541103549	0.09352011955014691	-0.4849305438672971	-0.1811389918522383	-1.1868518560961996	0.07578811030326706	0.2044148439968416	-0.3133967212870727	0.13749346102333052	-0.25024399098158273	0.6348236187165909	0.32374438561717905	-1.0056451533676674	0.013561162132058793	0.6997826677774386	1.2266509501958507	0.517484663610469	0.5666979537007559	1.0020859216185358	1.5459451636383676	0.3434901228815501	0.6574097855182394	0.7193520050960422
24	-2.7144060066355533	-2.5851907664832745	-3.1520128170541395	-2.209599250936801	-1.1953488558153473	-2.0575640149620105	-1.4436998330859654	-0.0059213568306971075	-1.9187684010698822	-1.1964198320699675	-1.5506278237293891	-0.8409194925057886	0.38088029526868583	-0.6742696149014842	-0.009002989135303962	-1.0473676893493642	0.19206580471184254	0.5137389289283062	-0.025914825433629125	0.2882480316037104	-0.060623228396898335	0.7731347064525635	0.7386566977925113	-0.9336034631999762	0.09480293816234465	0.8386098721312183	1.3840094769820914	0.9205086804037527	0.35016384632394437	1.0465776893895058	1.7024066405230034	0.0511410197814553	0.6451518519325495	0.8579410888945455
28	-2.3234898985374386	-2.2637729587620616	-2.900539867707358	-1.965440983578388	-0.9597759818640605	-1.9083956431843887	-1.4965753517512956	-0.354291289150285	-1.509089823727451	-1.0828518840153294	-1.4914146624103823	-1.0447212431280184	0.288895546660593	-1.4395372831239406	0.07366762291667207	-1.0573606464393077	-0.0581913514456217	0.4493626642802785	-0.3687332561243206	0.3883998682229521	-0.08350095131772955	0.5352392183141782	0.8472049810954185	-0.9040725208345017	0.16670781331887985	0.7535165529300121	1.1919579475826365	1.004131314603484	0.1812144364311723	0.9114002562400427	1.6003881652480436	-0.10344567123760026	0.6073537453576009	0.9168675518729066
32	-1.9402539681085318	-2.0969312138067098	-2.6555294923493875	-1.2628273932044896	-0.9864395235905649	-1.9631941268946076	-1.834828252928234	-0.9886811946702628	-0.9514530277072175	-1.1204242678010834	-1.6152813393818897	-1.5126668176606808	-0.06909321231086982	-2.562186711518161	0.06967224163107845	-1.2047504156213225	-0.5775624499044049	0.07914194444702112	-1.2412761418474634	0.4162011434060565	-0.3013696364900151	0.004150377110343973	0.6385791881651168	-0.960651156861088	0.1999307865817101	0.46710550667131895	0.7099422794537533	0.7192901950795662	0.08596768953553119	0.6144480689747908	1.225710984950116	-0.08259908089049073	0.5130574094216651	0.8156269172103018
36	-1.6353492695527807	-2.0514357038202564	-2.4390673575809605	-0.4018415202485702	-1.1918399303862792	-2.1072812027179566	-2.2088878098985583	-1.5664677580384574	-0.600865183743734	-1.2417184083105801	-1.7952629282448016	-1.97362744309904	-0.44547816998542894	-3.5771694093034765	0.012141863784831172	-1.3548480238086467	-1.0880850526041066	-0.35663095026574637	-2.248543018386085	0.3779129376406797	-0.55782645799943	-0.5581078515267042	0.2798550121871108	-1.0732353898608367	0.1932927216179627	0.13213549520986986	0.1538027074030139	0.22280722800268188	0.0723816825112121	0.2742962234247477	0.7132424098127004	0.07788620869522482	0.3814122071173185	0.5773407206264002
40	-1.4594869576798957	-2.0278873392404284	-2.244517797525276	0.19304877470867413	-1.4104433024082113	-2.1727111284713407	-2.3369100034840247	-1.7738503172911728	-0.7091994863724378	-1.3533976043863443	-1.8461197568059757	-2.1350297873952124	-0.6007228478523696	-4.011693467502063	-0.058449942471036555	-1.3367538418398648	-1.286172505946147	-0.5875061139532436	-2.9000453875755503	0.3006631426372761	-0.6513767822032406	-0.8551367499695883	0.011063498416922566	-1.150602099374672	0.1710600699635845	-0.05166812973090534	-0.21805058364651958	-0.21522736495037756	0.13247588243416153	0.05414668084421356	0.27982577610892223	0.3000554732853252	0.27978587079934586	0.32338133372676875
44	-1.4486075603150905	-1.9355680893667004	-2.0555267282087315	0.19800049016553262	-1.4830217324007495	-2.0536107965119084	-2.082288736808156	-1.5005588493608673	-1.2606953350662569	-1.3890460694528957	-1.651609297397165	-1.8654296351065272	-0.44222018011023173	-3.6389868167554345	-0.11939714818850326	-1.065099236660248	-1.0269952986537292	-0.47397515058059525	-2.8610186504609483	0.21452064758022124	-0.4687276470747857	-0.7314487677226663	-0.00033684138822075355	-1.086720463870064	0.16757164853226741	0.03922421102753432	-0.2469639771901966	-0.3659889390765008	0.2563264363492979	0.0722133515442108	0.10487038615690818	0.5139744268792192	0.2898134283854942	0.20667579717907572
48	-1.627803321543268	-1.7641999676985332	-1.8784831714886703	-0.4375100124757157	-1.3451386656178284	-1.7904720261191411	-1.5544322689865075	-0.908047793003115	-1.9631693313624436	-1.3489307131088648	-1.2628511158530502	-1.2964287963560435	-0.08135363439047279	-2.611328833662766	-0.18148803665116175	-0.6261185987877023	-0.4327076662582872	-0.09297004318606483	-2.1261749213897367	0.13166581061022561	-0.08067263642447212	-0.2767514579461367	0.24108113287616903	-0.8193396309193424	0.20693112857548765	0.35948559551076686	0.03762220581807992	-0.1653428222534861	0.44923758393353314	0.3315725318166684	0.23234720469463732	0.6976503712206272	0.4646160292815929	0.32702293909477187
52	-2.0160031267765364	-1.6199477870095733	-1.7757563546169879	-1.4759583435941201	-1.0770103904235104	-1.578684564419356	-1.0775201293443426	-0.3597468724704801	-2.417948716734622	-1.3130921092259598	-0.9109540558703807	-0.7844598273498736	0.21825364176959547	-1.4009504282866707	-0.29365622923142864	-0.2752318971360694	0.14046323263944402	0.2988199286068956	-1.0291452381853494	0.02969617947889074	0.25778555804971554	0.20305664786093508	0.5621187672728032	-0.37376814986275314	0.2848080091438287	0.6897225362530027	0.4349603343949185	0.26487874917865756	0.7377088647336861	0.7138713580227823	0.5564273581761496	0.8891914464435144	0.8066682795185341	0.684287486732881
56	-2.630100482022354	-1.7054897503708712	-1.8816300583062866	-2.5441117222449483	-0.8881717897879162	-1.6928706126387543	-1.0400943729843657	-0.24704246160600643	-2.3756780564409543	-1.419844146958451	-0.9187281108548729	-0.7451214175485283	0.17063893334698724	-0.5798684940002977	-0.5330269323242803	-0.3367798617920008	0.2681647532368285	0.40126377242822103	-0.08958239830764729	-0.15079727730825357	0.21410700624768556	0.3389901212239815	0.721915183628847	0.12987820771328015	0.36039718894566014	0.7320340853328829	0.6876679045481378	0.7048102599469045	1.1560070485492582	1.0460855934434825	0.9021546817890509	1.1638222903431863	1.2793701854829744	1.1967405050580495
60	-3.4876556308429536	-2.249128097577723	-2.3786516129520017	-3.354993573301306	-1.0406272385073123	-2.3636662900375653	-1.707737799147544	-0.8002976754963799	-1.9263617943765163	-1.8172287895098387	-1.553002711189824	-1.4484270774511665	-0.3909230520392135	-0.5499761090698179	-0.9822267865177658	-1.0519363853598631	-0.32865396059028773	0.032203301706070886	0.23270514548677104	-0.4881004082754164	-0.4571098971746896	-0.10424319628384263	0.5541107640581582	0.5141454922092926	0.36527156737611777	0.26386505298752183	0.6315414293556759	0.9795994733873448	1.7194131569366702	1.208095905114829	1.15529489225528	1.5907589156996012	1.8458119584211325	1.7745611622829693
64	-4.606866824916631	-3.412257662741079	-3.4305922898462775	-3.8677346608739467	-1.7427285865653044	-3.668858995711387	-3.0969927232752053	-1.9848025987104738	-1.5026152096004264	-2.60815166768568	-2.8924646304535764	-2.8823110984510136	-1.4337218963664673	-1.3647332157011083	-1.7031158165847504	-2.4525282321044704	-1.6354627567961464	-0.7765257934992081	-0.24792487856735582	-1.047621962763334	-1.776377673432558	-1.0949534150135236	0.0680777056286536	0.6130811556596079	0.22718127014499695	-0.7290638666819347	0.2962465278775377	1.06805300442928	2.400664085049135	1.2204465835275553	1.3609403337450472	2.1947956029791817	2.5077068742381066	2.39906000485299
68	-5.997039302943648	-5.212311254692962	-5.09757612848728	-4.284357536943046	-3.056807510287674	-5.489450917689541	-4.968916403622905	-3.529093971879079	-1.6631561475724799	-3.8046922587656575	-4.774972903593766	-4.751012313291712	-2.743853800521776	-2.728601687217999	-2.707169764359511	-4.323334206156163	-3.336061230819809	-1.796757693522705	-1.3683762515805824	-1.8426866484848705	-3.498943320023439	-2.333661311933389	-0.548037766026616	0.34762459905595655	-0.09363380050860776	-2.010541672398846	-0.0968042982160762	1.114267584848488	3.13133763476381	1.261313792858885	1.7275832847846948	2.946800939749374	3.3187897121561396	3.153335324909077
72	-7.634990672862173	-7.489084701703451	-7.268820744282269	-4.890561091473321	-4.858358370912535	-7.545277576470025	-6.93382070698109	-5.0602741113695435	-2.760084622090294	-5.307278142880929	-6.847064477799494	-6.602019770166219	-4.021474351266431	-4.156331528660324	-3.9313335319444542	-6.270773871802096	-4.9458317631782585	-2.7161679199306654	-2.702130787702922	-2.8028931546970566	-5.193743215799413	-3.3832814608031283	-1.01801228266231	-0.22147817853799695	-0.5670223221768047	-3.168060056317213	-0.2374172800745597	1.339574214414226	3.83627103790651	1.5979521234222238	2.525957816422252	3.7887854480453202	4.360603798347223	4.178026188792318
76	-9.433482146287728	-9.926084493371663	-9.649821257069648	-5.838633045714191	-6.858340722888212	-9.485435461891422	-8.601303078869735	-6.266666873368861	-4.68044470559024	-6.912875634859899	-8.68567273808055	-8.007062891771414	-4.994246470239861	-5.200342642052282	-5.227965818557247	-7.86176584166218	-6.012725814897451	-3.2777101910806565	-3.7544922733882498	-3.7676110172516126	-6.4034886198495915	-3.8596491716212893	-1.1089832754746225	-0.896917162061216	-1.0753890248804236	-3.7705929184129072	0.12596943942690708	1.9077044677253183	4.479948986186774	2.4624192652521053	3.935115804273772	4.671830165511891	5.68877171033816	5.574377045862574
80	-11.221281976979045	-12.12489792623572	-11.825804680530897	-7.006817323160317	-8.681712128654514	-10.99262044038595	-9.702582334817299	-7.003361207446386	-6.8183755702486355	-8.353017785917494	-9.936037992186865	-8.710020996991245	-5.498102651066135	-5.627599225141043	-6.378928168404032	-8.768982865128512	-6.289168818807655	-3.374975672783937	-4.176253785079752	-4.515698898358478	-6.812363130536032	-3.587804785253187	-0.736499128866379	-1.417060133217311	-1.4340401851687643	-3.539241781835758	1.068188068554	2.8208556104012175	5.090769754908273	3.928729285811503	5.91723392899963	5.57705210231334	7.273715477698866	7.305592041644265
84	-12.754816023095037	-13.713141406722862	-13.390211071539646	-8.030156115284887	-9.975475286093642	-11.860864609336423	-10.137883160744638	-7.298502903631157	-8.333797433793169	-9.356490111570004	-10.40823075527692	-8.679348923704426	-5.5012845854147905	-5.475315557007456	-7.141155224890238	-8.860583282988065	-5.7979745718483375	-3.06428145588648	-3.897964706116227	-4.827801692217711	-6.346482260893176	-2.6533725194697015	0.006728691031931843	-1.5691373308619174	-1.4500096999752468	-2.4531993804029466	2.453297847275867	3.9027256867102857	5.742078766630574	5.851323589810568	8.189442613906165	6.501525385654318	8.966286636603025	9.153030372398632
88	-13.768667186306793	-14.446721040490868	-14.081575358124198	-8.48851487877608	-10.5041932794487	-12.022687881632935	-9.947742437042567	-7.272676926370922	-8.570227601348096	-9.716233228947873	-10.099094365371379	-8.058385828653554	-5.07514189392478	-4.974022375900053	-7.310617428441879	-8.203062036784376	-4.77342938171656	-2.5006918844029125	-3.128154985159419	-4.558271873409683	-5.167225824661529	-1.3339301314054046	0.9064621902468034	-1.289765950761293	-0.9988206003720498	-0.7445992212569695	3.9968850511728733	4.875616538135808	6.493851645286729	7.897442320911705	10.31311509389597	7.415224056595742	10.511624309703375	10.762635203845024
92	-14.052411043927812	-14.272031748024201	-13.86491009072689	-8.136997202356447	-10.20488641069754	-11.533177346674984	-9.249866462242036	-7.030283433330563	-7.399022083675222	-9.344456649075973	-9.151236511014002	-7.06343458299662	-4.344563473222927	-4.3930125125598325	-6.787316305190334	-6.996341687658201	-3.528684130342638	-1.849864597418469	-2.232165807810368	-3.6895630266497146	-3.577223053483639	0.037791002446367364	1.7247544483507968	-0.702339051380756	-0.08680361487407313	1.2045245140181942	5.382137761832551	5.481391892899097	7.325650673490594	9.656615232882574	11.853678673380443	8.216663339850623	11.608874291674297	11.761457413542479
96	-13.53133865754808	-13.331085171420371	-12.927558866286832	-7.048341733303281	-9.190155959768278	-10.533933612930742	-8.190999964060923	-6.59682987454944	-5.30842827410361	-8.299718835856748	-7.784231166259792	-5.895299419777665	-3.4535400780268652	-3.9143476387378278	-5.616055474407249	-5.485845075108313	-2.326766723480337	-1.2300095527111747	-1.5629394014952416	-2.344235175889847	-1.8940510701996702	1.2028483122020526	2.2844436110993995	-0.06288130565502933	1.1354575128497981	3.0094592495277004	6.370403750548356	5.580564961648953	8.107723215613952	10.780982943972042	12.534703223052624	8.73078725517856	12.002068489289975	11.89383122302272
100	-12.307142226617882	-11.900323837752422	-11.579907388060908	-5.581149564003434	-7.698451022738572	-9.21054456292725	-6.9250864807763355	-5.927868828112183	-3.1729574123381736	-6.772818548268929	-6.228205188285303	-4.696013915603421	-2.5459003384208523	-3.588601341723954	-3.983448972181528	-3.8913433453541355	-1.308276649986714	-0.701638279573901	-1.3208298649818755	-0.7496763448861188	-0.35041156322700545	2.043549294080646	2.508357280120254	0.36114302186385155	2.4181566177350735	4.407569874125862	6.86192272361159	5.1851038801889	8.635341622484967	11.097849817866853	12.318274466885187	8.764124848173005	11.569809884424291	11.11747643524894
104	-10.635725948183994	-10.290977452045123	-10.115488026829011	-4.1941594971622305	-6.017646774357684	-7.757109145606832	-5.610353455683852	-4.978738295382775	-1.8245307161042572	-5.037709700263183	-4.682033526997361	-3.5544540792369257	-1.7552443698436415	-3.3709716711766147	-2.172269815682538	-2.3768818318437988	-0.4959230112429556	-0.2942366890631083	-1.4962930641543521	0.8277211764418516	0.9400132870782937	2.5711202556545416	2.4072027145644874	0.4215657402362317	3.4972393424429025	5.30965517610857	6.888531667483618	4.418357837965813	8.714878060272438	10.648830386932648	11.380792589064113	8.196047762204918	10.375864002734126	9.613591169880847
108	-8.844878174385137	-8.74743745502666	-8.701289154972274	-3.213629476063001	-4.40641020616004	-6.345635874939503	-4.398024547917052	-3.7798039817746614	-1.6494705635387343	-3.3787429247428094	-3.292679063113176	-2.52960824327766	-1.186377283915696	-3.1918442168711776	-0.4840371000466921	-1.0520478460453115	0.15271018406936177	-0.03377314275916957	-1.905035729366883	2.155723566334665	1.9576181123899479	2.8641865181134727	2.04236483058266	0.16064242978068852	4.183351029324529	5.773576245036159	6.561425669316561	3.4394223603195893	8.25773904622885	9.650161718799746	10.013194058886596	7.058134061159417	8.661350228376334	7.715522269796302
112	-7.221230011827961	-7.383901100589619	-7.350849609889375	-2.6859486035244178	-3.035789482081462	-5.09794472360964	-3.3986298952126193	-2.462115758401675	-2.424586289960051	-2.0158448168404126	-2.1448502486436114	-1.6602281290099261	-0.8822969175951073	-3.0119976921329856	0.8431349971464963	0.017803458451978803	0.6894741636988508	0.05809905737871033	-2.2909696044300913	3.0880517881628915	2.7252292564251217	3.0050470753139864	1.4962029419316791	-0.22339332047327856	4.411966789550552	5.929654583265146	6.010896190726045	2.380589479158046	7.326229076962034	8.398582437291711	8.50367925404297	5.547500119508313	6.77549122053391	5.791993126550939
116	-5.917456135114791	-6.1864986263483654	-5.991838916909415	-2.397319549229943	-1.9684647272002094	-4.0668234722456855	-2.6434996061340326	-1.2207082479174587	-3.4795105369456714	-1.0538414690113642	-1.2566966978769505	-0.9565957760500988	-0.7992997149314252	-2.8326697278030304	1.6929535823040722	0.8082282522776572	1.1459424466764756	-0.011255228863552007	-2.44310044625486	3.581110945243232	3.2667760766520857	3.045871250091897	0.8605645873277106	-0.49811935299041643	4.236814011367282	5.903621181841616	5.3454685076221535	1.3250807490272345	6.104366287078191	7.166669350649796	7.056490880316398	3.957326402209639	5.068453775960709	4.135518063594465
120	-4.920679079983707	-5.067382799706088	-4.572257030387313	-2.0329749532870314	-1.1749268740553844	-3.232475272600503	-2.066222662477381	-0.22908221127369668	-4.073159207550734	-0.4716855573666188	-0.5827543720791016	-0.3851000060849059	-0.8078056553472666	-2.6634592942702846	2.0871705956215143	1.3421289886921386	1.5379372796330117	-0.17766684248890383	-2.2752942981494773	3.6796278860650573	3.599106064292647	3.0147683544337296	0.23986352919577153	-0.5403235541053271	3.779093732829311	5.775800213536403	4.6440253140501095	0.32702523387358995	4.811963069210824	6.132201179280864	5.7758841368760345	2.5563907558748356	3.7880368137088314	2.9004936145031293
124	-4.09910105624012	-3.94779514269696	-3.1469700257002944	-1.382952329005024	-0.5784163460433012	-2.526951783476017	-1.5340502223384433	0.439129917705009	-3.772496929180805	-0.15675383766652098	-0.036687347945331496	0.1254448887518856	-0.7328608017538303	-2.485970729273454	2.153843397424617	1.6887549119274048	1.8815936994730653	-0.3204525105015126	-1.8497564745931194	3.483380547311877	3.747782220914957	2.939367525308913	-0.24927465554720907	-0.4193671633145975	3.1648943344318954	5.584063515869857	3.969270457736734	-0.5531375990253673	3.6143660454095152	5.362687574198553	4.702790725278694	1.4869918785699252	3.0230095310181473	2.106887335226275
128	-3.3039169228107554	-2.829383366116992	-1.8920181941900933	-0.48061320064318147	-0.10804937752623567	-1.8813750696365812	-0.9241611934217222	0.8294000008623567	-2.642166131024484	0.0319351553110646	0.46695232273463294	0.6475624425751145	-0.4287951279781416	-2.259529108064769	2.063875193153474	1.9431518267209054	2.200366729902982	-0.3053803436198579	-1.3442205156720264	3.1127099912256355	3.7650878334353512	2.8630740570261937	-0.5002284633404686	-0.365387766630814	2.4878110822808925	5.354510293793172	3.383660307924364	-1.2333592145298051	2.582773440515867	4.849025237238589	3.8669633767725005	0.7372158747179935	2.713057272736981	1.6913948016378417
132	-2.4714314875193906	-1.8141082479451465	-1.0322304938004236	0.40965941444918413	0.2649020545947059	-1.2725268570243	-0.20259091206899724	1.0589041683165141	-1.1506066293276636	0.20088198730295662	0.9683646535266414	1.2087279527664316	0.14552994035694508	-1.95149039729464	1.964780087278787	2.1885604803142598	2.5163078244574804	-0.051789298522847194	-0.9741979216775022	2.6842725209175655	3.7296388055097145	2.840648882369677	-0.45603516582745796	-0.6378164871324965	1.81095027466363	5.130513655107001	2.9542977735317155	-1.6268620449953515	1.7217202143115216	4.559430587701191	3.317838183609348	0.19967836091172364	2.7140338352345155	1.5719408949264944
136	-1.6739479261096863	-1.0678153011065157	-0.7312001567499359	0.9389502382414086	0.5205596076220231	-0.7459095697644034	0.5395805822100777	1.2303235499790588	0.12202216654010632	0.3845764984911654	1.4373571836421402	1.7628511145906716	0.8926970340124836	-1.5767154653795277	1.9352108191268187	2.457904809468215	2.832048647406039	0.4162819971064902	-0.9054459310559487	2.297305816572297	3.721364250324307	2.9160451815415023	-0.14067308569200715	-1.3633205856234982	1.1958476274815684	4.9768085354083995	2.7430312564259522	-1.6775766568744503	1.0390821669093455	4.480781067025738	3.1176540772879817	-0.22213606480304432	2.8840715812346547	1.6934279160659973
140	-1.0933910580686155	-0.7454166989580001	-1.0050463651077655	0.8667766429951625	0.614763139126278	-0.3983099450545447	1.121239063293106	1.3625963891913055	0.7834154943714007	0.5486841187929284	1.7862732365331844	2.204224342503106	1.6063982207748617	-1.2175394265906203	1.9764667699503917	2.7183761528047286	3.121484987007314	0.9684865450248993	-1.1893920868408236	2.0263524004320477	3.786617269492445	3.099965564530517	0.34054371628612956	-2.4310951171530903	0.7282691579551509	4.956300722960177	2.788536541574124	-1.3912315333527123	0.6034501775764713	4.6263995053787905	3.3062281525107307	-0.5286251889233758	3.1458630482403205	2.0361263700576395
144	-0.9284325218601873	-0.9138450599486224	-1.70571398304395	0.19608785162532524	0.522872804275271	-0.3243746749317651	1.3629380430142954	1.3826370204349583	0.7715526203702847	0.6314784272463074	1.9191642951194807	2.4199433265623496	2.055069918212326	-0.9957989429127903	2.0418744035666867	2.8914310859157806	3.337139359631784	1.421942945704983	-1.738522882840571	1.915767188003729	3.914457072865359	3.3606915389088683	0.8372138717494584	-3.511636009887023	0.5125535117560062	5.093553053393677	3.0886044424278536	-0.8415914156646451	0.5383261428593019	5.007792460195895	3.8605606458468933	-0.6197829826919428	3.4923808486502375	2.5871667796618794
148	-1.281451937301144	-1.5109229049682453	-2.5811002189319567	-0.8161238411325396	0.27606761385835515	-0.5560329542426666	1.1849340170507485	1.1847898930200456	0.30010974331425616	0.5967887624931921	1.7910220577797398	2.3517334401836596	2.0851042218016578	-1.0120378707129773	2.082439894186925	2.8983676360386483	3.4309787663620255	1.627244110767397	-2.3602440297617817	1.9731179425967862	4.038629044826635	3.6331326869789553	1.215812799245126	-4.2010249985487045	0.6285392626152089	5.347177491992839	3.590692749494553	-0.14548107944951383	0.9464540457671715	5.59048746604895	4.675477492925778	-0.3802988817626922	3.9390649696080398	3.299336186662042
152	-2.0873513169040168	-2.3610899388782984	-3.3795006189852814	-1.77882289437365	-0.03459330266920824	-1.031185147542992	0.6533055885033024	0.7196702342936946	-0.32742383993451896	0.4665161359452679	1.4414781295622168	2.027937645560492	1.6918708043298163	-1.288285132970232	2.0825395531527375	2.704962485159762	3.3732683573433015	1.5393892487760745	-2.834680788512675	2.166389698281002	4.0651874439600215	3.8383157156357224	1.4142626488264858	-4.214324940531728	1.0770704719052921	5.6102661944841214	4.194241989990391	0.5770159349178391	1.8127502157220128	6.266849025162835	5.578810200911196	0.2078954274173905	4.46097658938409	4.067724694472414
156	-3.120912544000336	-3.237028590612689	-3.9378876586674085	-2.3493525922587626	-0.287784724701041	-1.609706755388701	-0.05038043843900951	0.058870546371122476	-0.8969860054257577	0.3187413803636209	0.9834674571956332	1.5492608508095618	1.025036213194198	-1.7467350915677011	2.071539158359344	2.341688388634314	3.1608955780333	1.2364282576815413	-3.0008134766155687	2.4332449374754215	3.9139172932036357	3.9060842892256096	1.459693666587455	-3.526320448555393	1.7542972520405518	5.7451171729949735	4.767973887803332	1.236705776906915	2.957379572077402	6.871837598617074	6.37863300620385	1.0072563861211676	4.963585841044811	4.744845855177398
160	-4.084035863101887	-3.9408278365774656	-4.214667309610453	-2.3858058392370394	-0.3865313520209283	-2.1340885108472962	-0.7198470812742966	-0.6114034637273508	-1.3376704420649066	0.24749363896349463	0.5482140765654164	1.0368497345495644	0.3251077226536845	-2.2298588696448056	2.1021406597469263	1.8858991813729007	2.812608234933759	0.8755066372701491	-2.8136711049567102	2.6991646221678085	3.551536074254669	3.7920133971796264	1.4408682548384146	-2.3887093006860076	2.4770348009512886	5.63720701701742	5.179375635421868	1.787668938891721	4.083121766271919	7.241004448728719	6.922478181527549	1.7698044732233236	5.312366949020424	5.190505968340545
164	-4.733575808971722	-4.3727383503185395	-4.268114556027025	-1.9982869574639657	-0.3124683789470398	-2.505084746711768	-1.2238118617630773	-1.0734328004438345	-1.65847479878364	0.3035871378863177	0.21590560620156432	0.5738869890982549	-0.18084649695990276	-2.5645706588845787	2.206598514707805	1.417327877280966	2.358333343273686	0.6104862078512181	-2.3533520639130936	2.8971779273319354	3.002339593936545	3.486954441803586	1.4519765340385795	-1.2173898189326118	3.0533122939268695	5.244962202181328	5.331363187680959	2.2185494843736766	4.904598223701064	7.285537701332348	7.145476800044122	2.269528144828464	5.408813462906559	5.335262761950899
168	-4.982501494225813	-4.556298244416863	-4.204453934544686	-1.4793194495045183	-0.14675277434490844	-2.728489868904682	-1.5559611281211363	-1.189259049274021	-1.8466733647452518	0.45312023048439937	-0.02531262853311286	0.17717499986262028	-0.3727107932694297	-2.6337120466494666	2.3596911370782414	0.9768944954049774	1.8336580945449579	0.5181154595645343	-1.776890273376332	2.9843158646577095	2.336613410772371	3.021394006730234	1.5414017399971898	-0.4002182473568556	3.3668963824143208	4.624020564802521	5.195968137973971	2.5378792221843898	5.293402658449408	7.04478405127491	7.0884861767138885	2.4402756629367968	5.265292154369989	5.2224907743205815
172	-4.92692183204314	-4.612606990612588	-4.130719651283582	-1.1561508149520936	-0.03955748667266418	-2.9062621520099277	-1.812595720483145	-0.979095218093818	-1.82973598971935	0.581639765224616	-0.26696148447346324	-0.18850974691003733	-0.27894312072899435	-2.416673177339649	2.4739825663093367	0.554007648022957	1.2818634477676343	0.5698910937226013	-1.2453082768470487	2.9487500116286083	1.6458034473828316	2.4636647639061873	1.6922813611219927	-0.13088834252689954	3.4274353894483642	3.9134914776224354	4.830505358897897	2.764518015557494	5.350202546916842	6.6824006865587355	6.877639753143441	2.4284210143766387	5.0248355738613615	4.999199854626768
176	-4.785543429690125	-4.69692944294486	-4.131995667515712	-1.2386729685981153	-0.13936845923045726	-3.1756286540916836	-2.1165046638457925	-0.6191974266631477	-1.5354810914373087	0.5464693294079562	-0.6202635749415534	-0.567425249574469	-0.049944680058027706	-1.99077009652103	2.4365830359929945	0.10954258563279816	0.7568446974719328	0.6612759811871891	-0.8640503861546641	2.8093821931480805	1.0173047755306124	1.9086346578093345	1.8430885029989315	-0.34436359914620573	3.360362998107696	3.289259425441756	4.364663113064758	2.9266669676322383	5.356036649532728	6.420166476252796	6.672583563170436	2.516334765756851	4.902401911755926	4.853865134382131
180	-4.781414019910512	-4.926399695356226	-4.271078575794933	-1.7326054529315	-0.5157458173128266	-3.6282434371896635	-2.5362245972496025	-0.35520252495731053	-1.0085953448580216	0.2530591183472169	-1.1418061227580858	-0.9729029511683815	0.1205143254932884	-1.5091850719495616	2.17236327576531	-0.3803354194098473	0.3171161107163113	0.678531943038611	-0.6673099977811466	2.612092965206857	0.5188583122504945	1.4552966319534757	1.9327732275802387	-0.7702388147934626	3.343555918834944	2.903776161491912	3.958611001510595	3.065196267972183	5.625656590563429	6.439033492043785	6.604065878406903	2.957597009820993	5.074885832371471	4.9278631085910565
184	-5.0263910166674926	-5.3286962374618625	-4.587729442457624	-2.454319470884738	-1.11192023473387	-4.251958359473577	-3.047315828259026	-0.37667235636977925	-0.4740565705251529	-0.2806867950028513	-1.786516900320411	-1.376081463200533	0.08576978721421535	-1.1554224461947773	1.7040388541114118	-0.8875595308783293	0.007956707830009855	0.5626109824281156	-0.6446745379383932	2.4251944957538036	0.1938680852525269	1.1769113510935258	1.9398714254993292	-1.0760012837900108	3.52242135112261	2.835804216854565	3.7448396588191146	3.2289507307545433	6.337113364432455	6.794213754666328	6.72475765437782	3.8187837504292985	5.579093919019611	5.244000898472817
188	-5.462972150361374	-5.82857607323592	-5.080485331106113	-3.1256091515782	-1.7535355046822456	-4.923898684467765	-3.548817148785459	-0.7191711646042502	-0.2617094510146622	-0.9088121629657848	-2.413036340343216	-1.7225547985455596	-0.19199825774832138	-1.0818335982665575	1.1724783152541933	-1.324807044499117	-0.15532170196895728	0.3374163201873055	-0.7730678300412944	2.33353399641247	0.06486669911458197	1.0983331175730449	1.8927910280122997	-1.0175678704319868	3.9501433272766024	3.071358434552084	3.7800998592305795	3.4571053894497483	7.435134868923401	7.389771919666594	6.994576913340147	4.925747382125451	6.280321105359533	5.693168148925693
192	-5.891644462969266	-6.2755975564823	-5.677226052255738	-3.494308462857407	-2.21179389395189	-5.45732210688809	-3.917422284726159	-1.246846434306239	-0.6148257240031342	-1.4026249611727626	-2.838237993703889	-1.9600717971905766	-0.6318357570908337	-1.354107138075959	0.7999151924918219	-1.5726028641096985	-0.18976929735908965	0.09266453212945931	-1.028003570822204	2.4266662536388814	0.13966424727940835	1.1935852735901855	1.8503876877796972	-0.5254501091088518	4.5807437781075855	3.5222258478882402	4.0307073491374075	3.7584175968646676	8.662465073649397	8.02741620898077	7.3073391729875095	5.952310070268492	6.935384732856048	6.090300544621027
196	-6.069034084256019	-6.502709849152304	-6.222209437873195	-3.426695815017858	-2.2959265650956766	-5.679464325870692	-4.063469399683353	-1.7234066681265385	-1.496110793151089	-1.543776389039046	-2.914096586499425	-2.056812996439737	-1.07493197646544	-1.908208723018845	0.7999618033239185	-1.5285720786602577	-0.12691509691620348	-0.06403565390631868	-1.361069556614594	2.773072712572639	0.41377138987024464	1.407392855905598	1.8683053207911002	0.3000695399814567	5.307953344295239	4.06961630747423	4.398642052035366	4.101397980825386	9.696609472588728	8.50309274433986	7.54487798693246	6.599856359984914	7.3168291860861085	6.2699055513392
200	-5.8284520955751	-6.394546969481541	-6.51158378864406	-2.938844911784842	-1.934786791684957	-5.503507600240721	-3.9596366782353	-1.9341800164026757	-2.5357682640903545	-1.2228007285716604	-2.589702361244223	-2.0001020381020833	-1.356093760881307	-2.5508508617848182	1.2744963136919962	-1.1541204423375908	0.016859197946540797	-0.05844860881711307	-1.6688382583445718	3.3856604013793974	0.867803571417405	1.690511103176633	1.9713374326525512	1.261725303325375	6.0201535072920285	4.611079681198719	4.775802600246945	4.424312580382419	10.311821911526188	8.7007322091729	7.632801990311547	6.761332971668289	7.329034786793818	6.17221878400771
204	-5.163203226405083	-5.93546818188328	-6.373296721579871	-2.1615304892326015	-1.208667632866071	-4.961458670487437	-3.634478798273164	-1.7912721588685858	-3.1846036830607227	-0.4948702442072683	-1.9297203968918404	-1.7835011437209694	-1.370897051211059	-3.021565429688175	2.151758903792795	-0.49480852359775923	0.26090013914994525	0.1229286190744007	-1.7938399269590266	4.196556080713308	1.463966127514168	2.0287125059406153	2.1480843966609586	2.153324598597802	6.639533502981663	5.090524660609574	5.097866045478735	4.664570796633735	10.475194904582949	8.63486287797934	7.57163904185757	6.567318899739915	7.048953038538554	5.873319611025786
208	-4.2338690650856545	-5.218603120979567	-5.756622776756208	-1.271360036501123	-0.318543194920243	-4.1882200135346475	-3.1476151863737143	-1.367566701297287	-3.004489414258876	0.4326715756459668	-1.0874769660196433	-1.4016846382991601	-1.1084284754424538	-3.0928997915381027	3.196277133501221	0.3309714487779486	0.6517770273918968	0.43970236071198654	-1.5772728880160598	5.055358397118039	2.142955297781697	2.444497340706289	2.3684580266282507	2.8199827599853307	7.12491176713706	5.49821470779803	5.366881833831518	4.791904914201652	10.326379749929375	8.420282342632433	7.426102142658365	6.2876534303227105	6.666841490125851	5.538374409997662
212	-3.3020510590154175	-4.417461384110654	-4.787693965268192	-0.4323998082687996	0.48917043085572265	-3.371876231263442	-2.5719213420783	-0.8523040988384344	-1.9383983563120692	1.276514765377574	-0.25163295801527685	-0.8663768746436633	-0.6463764293563682	-2.6791481904098733	4.0934672252301745	1.166555520927106	1.2215722768459412	0.8232604244427685	-0.9558101272292979	5.763520703069359	2.8247425484864968	2.9653530045981644	2.603569739444074	3.174252978893741	7.448675136833551	5.845393642926126	5.629063115213031	4.820163714636897	10.064220403057083	8.190736749950261	7.278587322931927	6.154758914667027	6.365129931591945	5.323701845079452
216	-2.6238977842841082	-3.728907337310878	-3.7486338520773574	0.22956773580765	1.0089762185371747	-2.6943902901333536	-1.9934583852029022	-0.457578359879119	-0.39081144234215337	1.7853523447737296	0.40884256259692214	-0.2356052094709957	-0.11875224083482297	-1.9093373965694622	4.5760989073612555	1.8598604155313547	1.935629958987821	1.202341672722741	-0.049314141148992297	6.140364154571533	3.41755055518377	3.5770306496907898	2.8316323685679787	3.1810779491218706	7.575458030647977	6.13278339744956	5.923250183409489	4.790575492207938	9.816384290706734	8.01716993215117	7.174999695782573	6.218133433855166	6.21007154804178	5.284495340356663
220	-2.3493959844400494	-3.3042132771038304	-2.9692685529128635	0.6244500263660727	1.1400938005273016	-2.2811577262505183	-1.510054226877482	-0.32231011905357	0.9569210385958169	1.8323019696704521	0.7863654474431765	0.3770250072497025	0.33380618607166435	-1.0853501530901375	4.532587516785076	2.302830928710447	2.672565453457499	1.5195946655054333	0.8435738065402248	6.095170482505461	3.838444223249534	4.198051442037658	3.0315062923187166	2.8480601238823375	7.466126423105409	6.337017043326742	6.236845477570129	4.738552081542165	9.574190115598002	7.875333289290279	7.096935254298757	6.3220739205007	6.122254833023017	5.342828737121006
224	-2.4714233812877215	-3.1976752200455425	-2.6839139393755023	0.690462349102087	0.9078968144382802	-2.1725430433734987	-1.2145996063084308	-0.4610512543005113	1.4979019127220674	1.4560474120571711	0.8560075738275582	0.8308959582331525	0.6094681009163802	-0.5436350093467529	4.049293507842923	2.4583806929509002	3.2580373204943394	1.7365441278483136	1.3643778528098547	5.674167141893587	4.041500081348928	4.697800624430697	3.173486224745286	2.2382962647193287	7.111659508869737	6.425194247236196	6.499235136789251	4.666213500639597	9.231254554330041	7.681550006545892	6.978039723898257	6.22178600647778	5.944365009558571	5.336165414689098
228	-2.842510931467759	-3.351845732809376	-2.9251975939329453	0.4036432196439695	0.44219890125210065	-2.3208594263608524	-1.1603049010545816	-0.7725544552371401	1.0220135424559798	0.8372513034662828	0.6758414489848875	1.0186806891471336	0.6719917638024989	-0.4854571807048804	3.3688478384793403	2.368564838151418	3.5420598894336233	1.8330558492156679	1.2816159692831517	5.055136191002878	4.04072426729449	4.954468714602985	3.2187547602450075	1.4897317848740428	6.5722145868308255	6.386666281787815	6.6191110443845425	4.540323245983075	8.692717530238056	7.369447212686659	6.754258615607048	5.759383187058076	5.5598931172187225	5.11802242894225
232	-3.2451128877724535	-3.623468151480895	-3.5078494460232923	-0.19504150699009623	-0.07473953794444518	-2.6086029940547797	-1.3190947737768446	-1.0927066775390324	-0.16774196880428308	0.22196696642624347	0.3702676286885772	0.9330342388438084	0.5578013048393983	-0.85859584591575	2.782717459328684	2.1428670829076517	3.4854576499677656	1.812464471055681	0.6418861730581957	4.484546650054561	3.914978971133695	4.927015292125912	3.138595096293338	0.8104358891052743	5.9870676843164805	6.260293944765566	6.547460539499524	4.323227871470153	7.976256350406322	6.957197648602977	6.419583781246943	4.987480150982042	4.987397181316724	4.6534943463138
236	-3.480327835832768	-3.8395459555007805	-4.116498936750394	-0.9734475588063193	-0.46744084240197864	-2.8831324504539446	-1.565445419173851	-1.264102694180884	-1.4130307400313784	-0.17182934240827466	0.09716792380119099	0.6943383199327553	0.3642577519756928	-1.3702505792354571	2.5111339028854602	1.926083440686118	3.2008232989560517	1.7120221810031822	-0.215366094760742	4.182728756834645	3.785769929864457	4.696113574569234	2.9462554380417667	0.4259671558115908	5.538264737451552	6.133936389695184	6.325941069843964	4.019817342145859	7.237348538246006	6.559159739146501	6.050930961590543	4.158695687284727	4.388113487608822	4.0527076618870375
240	-3.436063280967108	-3.85986041048184	-4.45141362020047	-1.7115441517532903	-0.6139336808916779	-3.0016298218283515	-1.709868069146438	-1.189102646686525	-2.0477702565944034	-0.22679836990792657	0.0010055825088861666	0.5100311028001249	0.22233200017108753	-1.6349103409497627	2.6254744463437265	1.8500193310759154	2.9131410048367985	1.6077263314663939	-0.8060353377972623	4.256605137568535	3.7692048454488827	4.441133487932723	2.717448466115787	0.48818766947514725	5.37557505204077	6.106746658165931	6.083793624776616	3.7068569566597627	6.695325834536357	6.32799003910759	5.779791340540486	3.5826907067443705	3.977532853574638	3.518731346783172
244	-3.1124064843752053	-3.6252660659813603	-4.360415447670208	-2.156841272630671	-0.4735644447768073	-2.878242723827496	-1.5793160160245123	-0.853593347301671	-1.7443789199656785	0.04426480073481881	0.16083982546252504	0.5761296734569115	0.25604736740316414	-1.390615817373737	3.040254585219603	1.9813951203865574	2.850863926365493	1.5982450206459105	-0.7556815128320779	4.657788264912578	3.9187574287657565	4.3544201740952575	2.5755951339544008	0.9890030001465927	5.538259015405668	6.229048236378878	5.974770530874627	3.514217606255017	6.501789553439296	6.357424243134838	5.719926819665019	3.438679209610406	3.8931162259038588	3.23668669837112
248	-2.60192894278684	-3.174074164959866	-3.891682853409919	-2.1177806800779226	-0.090033814083714	-2.5173771317820512	-1.1088690729755213	-0.3249230674646365	-0.6682510359104845	0.5206429349152087	0.5530353770598356	0.9683786606181283	0.5351592288810916	-0.6591479165601462	3.573292484798494	2.2876703681408137	3.120642415750896	1.7639554694462818	-0.021565295701416052	5.207072244849011	4.187509526170719	4.53387402343466	2.637467616097992	1.7318097309257574	5.920205101324892	6.454246504700688	6.084943755999299	3.559835663390819	6.636606199674844	6.605415327561211	5.890415653615679	3.6637856867794936	4.100229729790738	3.267037860251278
252	-2.037904257397511	-2.6186103754687227	-3.24259804860644	-1.5537795981278648	0.43026366721241	-2.0157349058757243	-0.3919919123289496	0.27027138999412875	0.6393864734719165	1.0332028839728344	1.0511741611643997	1.5866155584331456	1.0382273170961351	0.24629436371131927	4.038229932126227	2.6419203214700513	3.637528648729331	2.118528837577254	1.0525755855688204	5.674484715440149	4.435136307009144	4.915291773783929	2.9452896043802648	2.393566363967202	6.305133803661145	6.6371779274260865	6.365471346996356	3.8733255765397625	6.899113160834587	6.888655645144437	6.181109889637118	3.983144511656784	4.3954162486682655	3.5055293948359125
256	-1.5386376342073544	-2.097253078887684	-2.6423699789091013	-0.6123906358516283	0.9544494724018007	-1.5288063249136337	0.34377854975689	0.7793656567923617	1.5557812413036585	1.4310773574937496	1.4698497019850922	2.1888670866062103	1.6411573845436096	0.8798080064495052	4.319021690908262	2.8703646587381333	4.153739441874877	2.578047507452848	1.9006038856204428	5.876476749842277	4.483246315127424	5.285981641775029	3.4213550004408884	2.664894812531431	6.460654242416443	6.589056952053196	6.633321745337433	4.3523645291114335	7.00593326707124	6.958939057900339	6.386422141163432	4.064743508566855	4.509361255704801	3.734359970201164
260	-1.171605345629017	-1.7231782631283359	-2.237664693904883	0.4143547107248663	1.3645414079547054	-1.2111331193863357	0.8301559665701344	1.0651038858225288	1.68494355253151	1.631913061790155	1.639803167017732	2.502294534087587	2.1444289630154025	0.912793812831373	4.3979987987105735	2.827195160403522	4.376769531643811	2.9725458546929193	2.0432195611865813	5.747432694229362	4.199069489367851	5.381362901452428	3.876491536843659	2.403467649113712	6.248193248232397	6.169159396808403	6.650131685633127	4.785586821871412	6.7453675099776405	6.626806242424196	6.297532065704264	3.712625971003718	4.253903855074134	3.7366619015765776
264	-0.9463342404314755	-1.5471194943467674	-2.036972756011313	1.202745911422587	1.593396421224253	-1.1530729503129529	0.8793589450569012	1.049362895223538	1.0341507170316595	1.639976020487144	1.4837461672515206	2.3572645127862724	2.340665334513972	0.33229151284245634	4.335657108804495	2.4652240214095746	4.118646134468362	3.107354633115377	1.367851969126462	5.358240114035221	3.5696248918054345	5.019840704641794	4.082084645455446	1.7202855305154001	5.695196137354411	5.3693671090937976	6.244683249919725	4.9431242818008165	6.102761253207731	5.867865070786872	5.809572205180873	2.984525434588211	3.629925480260978	3.4131369504585853
268	-0.8345853665261448	-1.5487331112860527	-1.9410000990499463	1.5226330718698324	1.6417113501107536	-1.3444566692740303	0.470609663728817	0.7417656760561463	-0.032293379225260266	1.5275955161627233	1.0543019744957363	1.773146505647442	2.0995371288697107	-0.5403476939864001	4.22016428835634	1.8657839251141775	3.3971588525832765	2.8521106171124675	0.21451742892941147	4.874951827138951	2.7261247566059663	4.206099022736334	3.8773507974005716	0.9435114836713293	4.988279330057172	4.343744743824359	5.415632234251648	4.69395636327097	5.280344949742141	4.851794230609284	4.987341868206512	2.164207691450574	2.834634773727024	2.8375849652173786
272	-0.8014854768544649	-1.6550342994866012	-1.8295401288571125	1.3218104805952444	1.569849487155896	-1.6825450616318038	-0.2404993170388242	0.24320524869550555	-1.005819675767129	1.3936705554107633	0.5133681284340946	0.9514965390977937	1.437835332101321	-1.2183134525057193	4.120010365574537	1.2106778591106906	2.435566896011429	2.217079395418648	-0.789256630335352	4.480407703531808	1.9021408509867406	3.147449485461657	3.2595720208841414	0.4668521571293408	4.3886151202979855	3.3614792738922312	4.356719959703464	4.084981431184216	4.598091590716374	3.8747823140543955	4.0502610104344745	1.6084852178017581	2.1623334830049883	2.21790217793305
276	-0.827713010605538	-1.7739705994640258	-1.6457822281293453	0.7305330019626494	1.4680411778578835	-2.019853586819305	-0.9902605985435335	-0.28259736228165794	-1.4770967923064557	1.3190937008932413	0.061930958025259004	0.18391779018697363	0.5386111126652536	-1.318044659147843	4.063693513147142	0.7080412489180867	1.5623481234205625	1.3750885690303714	-1.0715488168365304	4.29861401426301	1.341851469466765	2.1726188604814616	2.4074504314675482	0.5519322739017626	4.111399163356287	2.7008840969559476	3.3860487852437733	3.3354389583299247	4.328967083491795	3.2281751551186844	3.280611506762418	1.5571762284064596	1.854801173295593	1.7875001385381435
280	-0.9098144746697971	-1.8257377101579115	-1.4260369503256893	-0.009286205260852052	1.4189335071978717	-2.2267215195703294	-1.5141003093639096	-0.6632902009429985	-1.2946059671141246	1.3382173742839847	-0.14465734326079766	-0.27356314590050596	-0.2995530359334596	-0.778973577440019	4.048785676270719	0.5076352941094269	1.0653437349124995	0.6092249735709552	-0.4387786377319121	4.353566158747071	1.2004702060908081	1.592160816941179	1.6180798966563181	1.1910026043385886	4.2284150016838975	2.5331184800089095	2.8102688718415205	2.7419185569200946	4.557209003386731	3.068954221606494	2.8983507083195748	2.0121989199379966	1.9829289863113346	1.6867943959564025
284	-1.0408871147578769	-1.7604324773210824	-1.2605820862414694	-0.6477083547451562	1.4701284133033583	-2.2372341099521127	-1.6406410891118688	-0.7754634003134139	-0.5875964745944949	1.4365127050370945	-0.05391020314195455	-0.2959011487642587	-0.7678261975929804	0.09855099742564782	4.065541257130515	0.6464206560026798	1.0744140121036496	0.20451299794537764	0.8097723702013099	4.5749616507418125	1.4843168221191594	1.5686668117972484	1.1843427389760697	2.106178516792396	4.640436160769377	2.8514683174619893	2.789963953603601	2.5389144356522353	5.1345147956913815	3.3558504496724337	2.964168064263021	2.748103373264953	2.420454257576074	1.8968934964925426
288	-1.1825369566625135	-1.5579985340837048	-1.2130128114592267	-1.012991664236265	1.6290969807502067	-2.0563805051383386	-1.3316184248682723	-0.5796552881864745	0.32916483199936775	1.5742893179247157	0.28183647919069876	0.08890826232635905	-0.6668193323465944	0.8216943124052491	4.117599476908748	1.0500936481666394	1.5280598363443514	0.3299039891973612	2.0371684976642612	4.844242560553887	2.0592729993326957	2.0592286534770947	1.2681096760204378	2.88424228893686	5.131742941297745	3.4813206107936403	3.272879115424519	2.7851874758019397	5.755212292445804	3.879693975190066	3.3579814349270634	3.43399404612431	2.9164066241065076	2.2573215904464408
292	-1.2537910906607757	-1.2200807302188477	-1.255683299709038	-1.047266003825634	1.8783189010880839	-1.7332785085786044	-0.6656078083399486	-0.12224018542898306	1.0993854971785422	1.7205698446702609	0.7521032075966664	0.7459712605715901	0.009650284400059545	0.9793671344825969	4.22585772401091	1.5833094080050916	2.228019947148838	0.9629685854441042	2.613276475030529	5.054520117396034	2.7193217208870584	2.8508422302748495	1.82838689819291	3.1808280864516028	5.476295934202247	4.163645733811536	4.025704850523328	3.334041825459917	6.108217700795274	4.367979992328844	3.8420617483411084	3.794493188814601	3.222205630750211	2.553268187752226
296	-1.151609417868833	-0.7663227300369618	-1.269279834403714	-0.7944111803978691	2.195767397105146	-1.324162837500011	0.20924632198433046	0.4891192602683122	1.4541954957486753	1.8756672096580111	1.2505372731107023	1.5084164104524789	1.0661988231442885	0.469245700843543	4.413541305842964	2.116265291592979	2.941758386814107	1.8942865085459386	2.2556948604853377	5.15364407191872	3.2773227608905944	3.6638221648220037	2.6406946115579846	2.886432401998958	5.54009245427433	4.66842507137376	4.745526778637593	3.9049193760510605	6.024020656635292	4.607914436150558	4.175049294421172	3.723806848661036	3.204069129483745	2.62221311860843
300	-0.7986798266273261	-0.2363266044848909	-1.1063735457143657	-0.35782027154226936	2.5677366191884747	-0.8679041244528872	1.1271430225524919	1.1260067196073626	1.2951695886336976	2.071818823351924	1.7187284187792191	2.2394170704568555	2.17961882994621	-0.4396524716244355	4.68729017981612	2.573913567720243	3.49730967592356	2.8122558522747365	1.174412843600139	5.156712042186853	3.635170212150813	4.2698507201156595	3.3985359582926904	2.17041038918882	5.333472238426367	4.885308253351817	5.195384966130961	4.221650112937549	5.544305310556418	4.530457485204761	4.2215843094098835	3.301470986613928	2.8876652644683793	2.4265229640732033
304	-0.19764332423377903	0.30530825180218407	-0.6853052360398512	0.14148922228853364	2.983650199986539	-0.38888087770507507	1.9388072441741961	1.6759271579391009	0.7176769357681486	2.348996633321063	2.1492223685361376	2.85379146809089	3.024003736490491	-1.2459174363151153	5.0263199679311	2.9449973032030243	3.82736753451102	3.429943076057023	-0.05173565806797507	5.126108156613485	3.80256890290554	4.5695748213791925	3.846707095924595	1.3848357165658818	4.991296278749506	4.85176466670555	5.298080907796727	4.14485930350008	4.885592448297389	4.2213826072924725	4.005445470233902	2.7233710220242955	2.42388247831632	2.0590720124710207
308	0.5428966270091395	0.7705360035515624	-0.05937996491698979	0.587839423125986	3.417872658683323	0.08168156424403786	2.529772036841089	2.0602061696489433	-0.021373579224625194	2.7193534305579985	2.5542817051294278	3.3063535606830214	3.3927531156711823	-1.4855126104996244	5.386036382428177	3.2547957815010586	3.956265439535316	3.5973396210445436	-0.7923544029257975	5.132485376751193	3.8634624383658123	4.602400768104176	3.8843326470533546	0.8845099784453854	4.6967105746897975	4.711905467534734	5.146749483465667	3.732051363105552	4.32483004431767	3.862627734922485	3.6836779024580304	2.199781650711344	2.0042757937372975	1.686285968337752
312	1.233801004155765	1.0658255788596471	0.587783335155394	0.8869172312278513	3.8176321886951454	0.4910994159697184	2.838776819691298	2.240805620258037	-0.5870873317201091	3.143572084119518	2.93060278152611	3.577311506776262	3.26662277350611	-0.979676661402134	5.713512883066222	3.5283040911285095	3.9578966994494102	3.3514783297799076	-0.6998036486123466	5.218765245612947	3.9178540607718215	4.499621379935935	3.592908850181707	0.8593991973160044	4.592347610323161	4.635842311598846	4.938647734570908	3.2017614760624475	4.071660031529128	3.64303325686973	3.4631545456234405	1.877904648807941	1.7780079796723383	1.4676684104103992
316	1.679654236367496	1.1264528007677355	1.0256412003371407	0.9831616257640629	4.112814892875418	0.7761780600024665	2.8782687114525527	2.2243738118278436	-0.688161252191698	3.5376615434974625	3.248167029763034	3.674234857819396	2.802745335178387	0.07898424545850478	5.968101486396836	3.770379295366572	3.916833629255843	2.8842661307947104	0.13475196029496925	5.385589586012069	4.033853520699288	4.413424003902342	3.181360236718814	1.2689076630026759	4.725440490236157	4.743703353349228	4.87167690954468	2.8223326134950226	4.193632592103746	3.683841457602881	3.5038444907416557	1.8201674176991358	1.8091621353248828	1.492932077453243
320	1.7702056124816492	0.9534019803771626	1.0969544621428708	0.8809416867902709	4.247524727587798	0.8981986023160068	2.7455081870379847	2.067310566451075	-0.20298577793847605	3.808572521130739	3.470684996425351	3.647697916358075	2.2556621971400834	1.237792488787716	6.134058460007376	3.9720351595730157	3.909546603822581	2.448345416563273	1.2744421926746767	5.599396214653167	4.2301182640086985	4.4563679582616915	2.8803045676943606	1.8992481183738048	5.045742499009992	5.065399157132972	5.055366503349708	2.784388773563966	4.618692386410212	4.005378236194765	3.8534726999266784	2.0229451605267097	2.0808167405044995	1.7621515944813537
324	1.5389177760370916	0.6282325371139691	0.806713281025226	0.6589343531184552	4.218906391936176	0.8787286855446375	2.60096120177671	1.8721349192082501	0.7446936946187	3.904668082869322	3.590299597258607	3.595475426179255	1.8662259531587158	2.019803995754977	6.224311336061247	4.131994237004241	3.9987683195244417	2.2442183437906804	2.2022051755617924	5.817278847312294	4.48814772426422	4.669363010061578	2.8355469632083636	2.4965419706255485	5.449380860875425	5.546025739018871	5.472299085152279	3.1178877274949115	5.198841081844892	4.5384960059974535	4.437242019894453	2.4442231593410146	2.526925557432382	2.2062056008904376
328	1.1557146281627284	0.2949870817366135	0.33094742810616473	0.45480877046197826	4.0983123675824435	0.8088362196528311	2.6089832716874866	1.7660244658705015	1.8180829240673135	3.853168477820513	3.6490123179813434	3.637006512042417	1.771733517941964	2.156464332858063	6.276258929619058	4.272591103256934	4.227338303383394	2.3417897165301764	2.5958619052197602	6.013063892441764	4.777241694786769	5.020880209644052	3.0528192443065323	2.893532507266676	5.837409958406488	6.082972034355107	5.998984798544205	3.689632883293215	5.7879967543381285	5.16218660958636	5.097976671699159	3.012914649985895	3.0625533980295145	2.724811070238433
332	0.8518804290244406	0.1097468880028306	-0.06317564084076768	0.4149952222360055	4.015482892388736	0.8166035989171254	2.8592789100936367	1.8586831045907235	2.616342061112877	3.760485162777416	3.726870765813334	3.858623494896584	1.9724590728551026	1.7035101609135888	6.342681868751892	4.434696186313234	4.602313030067288	2.668863766607714	2.4688551363601237	6.191460116966943	5.072754847116841	5.42861603319958	3.4153578195173093	3.068847410083326	6.158013805100703	6.570988161663023	6.469640715477251	4.277166355778341	6.294260485970092	5.747179970536152	5.6644921159780734	3.6255302337663378	3.601468077149843	3.2227528013878675
336	0.8063033202794959	0.173716321148971	-0.14877483211148598	0.6234946831220247	4.104258526930224	1.0018247340657895	3.3050308144095055	2.188153499800761	2.8763327525951357	3.769472351093959	3.8974659344500058	4.2532453429603185	2.357198232421449	0.9863560174834454	6.479328139158847	4.650994765936811	5.073301302498763	3.061755172628698	2.112864250570682	6.383569701290263	5.356932626550729	5.787652954747933	3.7553696537571284	3.1204135339155363	6.414625628488465	6.934429628030578	6.746192915096406	4.673640239359861	6.689343912401801	6.190324290858971	6.0144843903324645	4.153714646342713	4.06316327022856	3.629753103628723
340	1.0542820665444315	0.48446035262817355	0.14997930786890487	1.0491195890641793	4.431723106639344	1.3730919326447264	3.7635688686717303	2.6851611069596335	2.6186237269091186	3.986972798771752	4.1770539178291965	4.698887813148656	2.7670130659814927	0.41257393255973035	6.724828226277056	4.915428149210831	5.528755650866673	3.349586716778092	1.8885259580615201	6.6230339836751755	5.607540593294713	6.000359996904991	3.940062512940482	3.178426972947533	6.639601213857956	7.138041478255033	6.766265852057446	4.773511397707564	6.980528337020636	6.432514651270448	6.10769222624826	4.475273597862397	4.379125107199387	3.903855552353795
344	1.4735413752545803	0.9344100928556851	0.7269349675898671	1.5477088650728184	4.952977644813049	1.8304175092259911	3.9964649576375573	3.186683885158132	2.142052645043497	4.422456730167378	4.504712093424058	5.004553782225556	3.067385665778545	0.26670134000199786	7.082120400667949	5.175464617060161	5.829944595876508	3.4328098210449025	2.0146014639535372	6.921058160474006	5.7931604239112735	6.008259758084997	3.9329795738104156	3.3255002414665897	6.860674840771723	7.185699921585635	6.559316618571153	4.606754768184736	7.179677468292734	6.467110617522213	5.986941799307033	4.527078617110265	4.510487068232476	4.031686772657883
348	1.8515430642111064	1.35726284638098	1.3524656261629893	1.9227342557046447	5.514634595299298	2.2067584935739784	3.8338582418920937	3.499487152800997	1.8488329602293012	4.96597908673579	4.767329203967069	5.005990015742438	3.1966187873242107	0.5917299374899427	7.501682262554214	5.353810296846698	5.872251495794107	3.320008984766587	2.4758551058248726	7.248803120431441	5.881877884319608	5.816291317560149	3.8038232230470266	3.5673837571675384	7.078443032513171	7.113153916519773	6.229476436145863	4.312757004339606	7.289700489712951	6.339595778671794	5.753089413422844	4.350007523044386	4.4702458268789975	4.031247605636287
352	1.998399252614439	1.5999944169656515	1.7897336437815279	2.019083256392173	5.913802131980706	2.3504276216292173	3.2770805276148387	3.484677544378915	1.993274087641722	5.423870072975967	4.859117018829321	4.661929118783959	3.171182862858401	1.2121518819722645	7.88231847680316	5.3902277810382	5.6441144800737115	3.108378164072876	3.0775494497799833	7.540477256810513	5.861011490329322	5.499414906922197	3.684303035970856	3.8564081094651654	7.267943363913391	6.9795813384268355	5.91570995744586	4.070226659035189	7.314324360500391	6.136801227334436	5.5270156720807835	4.089247216390731	4.33195065358314	3.9535679717381713
356	1.846311802970957	1.5886449773733344	1.9069753837122665	1.8011631920162208	5.989308342117219	2.206185335311265	2.519650929765202	3.1255311887030306	2.5059428151757883	5.6024150706941285	4.74361561531234	4.0941300288784035	3.055652133856265	1.8638315153748441	8.100310305171242	5.2799014911861315	5.247293935879053	2.9231886789905075	3.593484392630205	7.718890170636187	5.754712567105269	5.182874666479929	3.6940677072718864	4.138688077014196	7.39893816033559	6.856379968498631	5.743728623193792	4.015933980339257	7.27510212015142	5.962112411704926	5.410101400067614	3.933200826251263	4.207250584470486	3.871561994314601
360	1.480830069617892	1.3553606237524207	1.7255983309093963	1.3727765048653713	5.699450001632001	1.849297638038797	1.8669171286177861	2.5398371155510286	3.0189061088635905	5.401067243291107	4.481156814705454	3.5415229707948424	2.920474521892868	2.3462603032956224	8.060955980929782	5.083664404431827	4.858308779848207	2.850928299381688	3.8977613350687665	7.731137256176556	5.6236438609237345	4.995595919394169	3.87612747167429	4.383681763071672	7.456897239931689	6.809136850331775	5.782043442432993	4.186838616290821	7.213777047064063	5.898683056243732	5.451565251891639	4.0163254636451535	4.194313038726784	3.8504567049086584
364	1.089787838091751	1.0165913079344524	1.3899835313035562	0.9276269650880818	5.150050150266416	1.4533503018878942	1.591340537821851	1.9289809416706238	3.1010839860822585	4.872328269101142	4.20607899557574	3.24809931888674	2.8092398572567165	2.610634320343596	7.756232718912268	4.904424178138759	4.646846759508074	2.899723522494576	3.997979392448187	7.581759433677722	5.544858918495694	5.014917837832934	4.172644604638425	4.577362525827303	7.453909378305932	6.8780836885366075	6.01726435095777	4.507107723300822	7.1755399522814525	5.976300224474281	5.633103356444285	4.33939217425527	4.324064243843529	3.9125914474885994
368	0.8622812606975524	0.716701982596019	1.0828306647618429	0.6521450264678109	4.5569257621154735	1.2094849317531677	1.802611108043449	1.4919553957464193	2.5631112987655826	4.215019215432318	4.066401948198898	3.346311799183821	2.7296814849600235	2.7380592753899213	7.294780235946464	4.843317019632152	4.696020114486462	3.0050785465663483	3.970711936462343	7.343702297743114	5.581957326147391	5.231610284948192	4.451382625785265	4.6951107860280645	7.423096161220642	7.0658082783641625	6.36004589382402	4.82236717913939	7.183536034567172	6.15961120957665	5.877761349143233	4.758037078288625	4.537423122394205	4.019371499404064
372	0.897378144382745	0.5678132758109772	0.9370850300971615	0.6369039400232893	4.160213459955455	1.2406663863329506	2.4029281078705678	1.3509914840921262	1.634494300530281	3.7016355897906212	4.1588768854043865	3.799072017614686	2.6688682965607056	2.835338585370755	6.881637555867723	4.959576117391604	4.9680123203732345	3.074488393650627	3.861709584976683	7.138558369733221	5.762220844979379	5.555238709729253	4.569486606505148	4.684464442823743	7.402141552356311	7.3403243833229315	6.681928617773306	4.9681844585869115	7.224105339884667	6.36771295847141	6.082466110131531	5.055850969901219	4.713491904756071	4.086243142301636
376	1.1700686186812976	0.6139412506815453	0.989673850421846	0.843488929526279	4.127046574663217	1.5535452326651997	3.149515620862935	1.5228698215182825	0.8828296639087647	3.5652468114484464	4.49111603556654	4.4300131685943445	2.6179275446598997	2.925067655807663	6.740982038644719	5.252305017561959	5.333827005271174	3.044803850115954	3.6400768664963348	7.0892028629608586	6.071387752462967	5.86070822189747	4.44402455161561	4.4858631974450365	7.416973095287615	7.653491477716586	6.871424657639113	4.846656787079774	7.257315617358191	6.519024355641876	6.164789661101662	5.06832646043979	4.74060915703746	4.031470288588606
380	1.5636973341562919	0.827996490295374	1.1879627674627184	1.1344941825833703	4.483076084262375	2.046385759909056	3.782718172059662	1.9372115086282982	0.8855926968149967	3.893091191953116	4.9840626590778285	5.019369112693522	2.587947362087887	2.9089279101361316	7.00737617630832	5.666935429570537	5.647156224298209	2.920364372509601	3.239585391448519	7.260954361703253	6.46410129822439	6.051842674234726	4.0974383250736635	4.082951058569713	7.472778778282706	7.963708380619887	6.8849601571776935	4.480099666728386	7.246952992262284	6.576319201078275	6.1038222158820545	4.781362044660399	4.58771895204017	3.8348536394573296
384	1.9416502665135147	1.1338583202345118	1.4317243063065082	1.3452821936020851	5.102893816462135	2.562769406524014	4.145997513793837	2.4803435739837063	1.8353432370577931	4.579319465519629	5.508579717079722	5.408672319108087	2.6068117552745123	2.6253483229157	7.643107871785771	6.11801479702298	5.818922981829628	2.7719161440483373	2.649440997110243	7.622493724651537	6.881108266623453	6.107610210257257	3.6554379370904866	3.547644129379241	7.55620143889972	8.249395349655677	6.767217142185659	4.014449109432362	7.191173535310829	6.565953714959425	5.953732475507821	4.34769963120451	4.332515705614184	3.567424288325883
388	2.210623735568614	1.4361399375896104	1.62208556719369	1.3634666170028291	5.760708317517377	2.9568853303641722	4.230699528503081	3.033985607116534	3.3433265601624274	5.359421239673108	5.931757911964669	5.554736123365776	2.6970186165427332	1.9770888040216974	8.428252198874517	6.511569006692193	5.848279461400285	2.694698803773932	1.9871369550125635	8.046596506783906	7.259710293560642	6.082020267389736	3.2937405026246562	3.0437469405574653	7.642963390127201	8.50289247273392	6.625359995327018	3.6613261607236915	7.130531769869452	6.5572585894015445	5.818239197346491	4.009070863138567	4.126028050495867	3.3688533221066455
392	2.337136739552178	1.6404237705775664	1.6877291159934102	1.1700947255156435	6.2156228862235645	3.1364686409917004	4.1270747080554795	3.487531414763555	4.5856466177558515	5.9140744059973525	6.1501688801937515	5.5081152776888045	2.8467388081202927	1.0413578722411243	9.040906883301835	6.758168203457285	5.794634327563558	2.7492523123947428	1.4797909222435013	8.35635850703943	7.534050445608478	6.057344421352183	3.1580426613229733	2.769650690715434	7.704781035997737	8.70882508940149	6.566844923605857	3.600375881641736	7.122507077354312	6.611446363922937	5.79415892091803	3.9625015158745516	4.106809605720169	3.3748493109373325
396	2.3204648436134354	1.6653772550497823	1.5873299797036198	0.8318599441506711	6.297920687987218	3.072724573006887	3.9278623958600782	3.7357468510722964	4.739833342983022	5.999714359394414	6.104554637755205	5.343724714139007	2.9967515392936708	0.08248814174568263	9.197916007661284	6.781934721036441	5.716710553041058	2.920441620129035	1.347078796800369	8.399830796968736	7.635077934061904	6.0814761961936	3.295631161952158	2.861695043968152	7.713351707057641	8.825407959590546	6.633864862859255	3.885276784624213	7.197014313646912	6.731153471164651	5.912566170069764	4.246697415120405	4.312739361364798	3.63074039496229
400	2.1543786471333486	1.4569685422352043	1.3067024913221703	0.45863592508869866	5.96604774876164	2.7869062353343437	3.655625334093187	3.687437286603812	3.4807002456523843	5.550489411645541	5.782740101519369	5.097557055000999	3.055638782415869	-0.5492434487780885	8.791625000691464	6.534473879528651	5.622982964624134	3.11744140791596	1.6618107515340064	8.120038965704927	7.501718502178146	6.129219516538147	3.630265941991076	3.312244168502011	7.643368224873493	8.787173248993719	6.7715391941767	4.4002222903736605	7.321794491401941	6.843797189599735	6.110925659009872	4.714320647734936	4.645289409353315	4.044846524516748
404	1.8142576171845766	1.00632643445573	0.8603983499738517	0.1471473570923253	5.312530981002432	2.33083104498802	3.2619352258342293	3.294451466825742	1.2291202514133712	4.702802646207619	5.219108091528829	4.752551543634506	2.9386963770104364	-0.5928557500176179	7.947736243209041	6.015073284221359	5.466798768546293	3.2160456099375163	2.2816033305737338	7.582609157491494	7.105178338231803	6.11318729764552	3.9923453230196624	3.9554178614887494	7.475516300401038	8.533186890992395	6.8503765886920105	4.894497859041507	7.4005312732771245	6.831947786248304	6.254705890122692	5.105556475146819	4.9099387998594555	4.413685787501534
408	1.284988042448161	0.3681550016644921	0.30178818030457116	-0.05583727345674172	4.520853508025639	1.7755782559388487	2.696842425213222	2.5923983985298964	-1.014340159716259	3.731435527917288	4.494162548162608	4.280175198239006	2.6137485438159582	-0.02735284895249469	6.96894357829134	5.288354383468257	5.188834177268105	3.122156612142947	2.8944518493053706	6.944970113386046	6.475640757423772	5.939023479725866	4.191267002967873	4.528493869792238	7.199809056224085	8.047345141120395	6.734211427852487	5.087326513797581	7.309738140724373	6.595546228922798	6.201058372100181	5.180116163526688	4.91309069346722	4.51319741063286
412	0.6104518159712695	-0.3323611012650559	-0.2692495577690017	-0.15951490361948037	3.7971854114030186	1.2097701995823427	1.9958431670343446	1.7223344997790258	-2.1799702589309184	2.931754104841685	3.730077972531311	3.7039685155812396	2.1292777007703307	0.8910903908166192	6.1934194408450525	4.4856467133757585	4.7774014352343634	2.823804371380101	3.171236745457142	6.383950694178704	5.714561447974463	5.573036656614249	4.099313248774985	4.785253989535827	6.821150762502371	7.3874130062509185	6.35967396084156	4.8006911156565195	6.958733064248515	6.112765296761576	5.8747386784050155	4.834921824646023	4.564330566326515	4.213348378034193
416	-0.07784584890023317	-0.9234072542718618	-0.7220631223568059	-0.21482400541903968	3.2992465412765264	0.7327167969324165	1.314980026739809	0.9037994123528305	-1.7134904818188719	2.496774190321007	3.0699355524755982	3.1326758782449287	1.6064428050490411	1.7378255084984597	5.833824142985853	3.775765171054878	4.302593220338168	2.4027204452886943	2.9446334764522337	6.0132260170751435	4.975368487194261	5.078472124629262	3.7074901964042577	4.604883659180671	6.361159308585613	6.67958257896087	5.781198963827948	4.052572716971607	6.338227256031206	5.462673650301093	5.314819799356028	4.145431031251322	3.927458037950943	3.55455826815573
420	-0.5891177043346117	-1.2429922787755034	-0.9416094994613486	-0.2850893430664582	3.0885207575068	0.43281185517709153	0.8785017706625504	0.35184422046520963	0.10208564225887154	2.44695543625062	2.638813250555044	2.7307791640954355	1.1912279098952707	2.1284685081149033	5.8832349628684275	3.309793940770771	3.8970057865935015	1.9964361140390732	2.305559629341375	5.836040482091586	4.414134968103427	4.594833362422598	3.127076856347444	4.041566838550907	5.856440529342327	6.075742229380684	5.153494821888579	3.0595097464563885	5.532069669107818	4.794962394052331	4.664208877231573	3.3155221855378025	3.190988294174364	2.738839857815929
424	-0.7560794334395937	-1.2083996503838377	-0.8856691695740504	-0.4153533269409119	3.119908563366274	0.3534994414464432	0.8607020952428601	0.17602810219190904	2.284342998459273	2.641878121381657	2.4984230932099103	2.63674186994504	0.986975786578255	1.9102489900043553	6.137091621163048	3.1625165859485187	3.6908757593429335	1.7297435955244798	1.55963921153165	5.7575964782308	4.130752076210258	4.270108212180439	2.535369628227103	3.2928380883050354	5.352884279087806	5.692512020997662	4.658816802660226	2.141833538369856	4.685420978160684	4.262661446299582	4.1054615870773326	2.5717623168864407	2.5747468406520992	2.035633797274459
428	-0.5272884355583731	-0.8632783867974824	-0.6195666178319543	-0.6132400020375333	3.2722141660090833	0.4670721876749736	1.2747087446454393	0.3236834994726947	3.6757950689970973	2.8652210163255827	2.6206607752438194	2.879315130593587	1.0047185395623286	1.2340388266878182	6.318363173744932	3.3031887924720174	3.741907348722148	1.6539171892370412	1.0672042342898211	5.649869904558692	4.132807244356925	4.186376561085688	2.0945537037419117	2.604583256821276	4.899647223499941	5.566297040237222	4.420082557962679	1.5789331157874418	3.949959744971158	3.957224359058041	3.7783312702152694	2.0664739556591196	2.2274532261877447	1.6540594059191163
432	-0.011403528944669054	-0.371836929574584	-0.3024875812045998	-0.8449337461119866	3.408073655106989	0.6790245158217912	1.941165084706268	0.6047365054121214	3.5617017656047354	2.9411621019492795	2.8996879981263795	3.345896712438653	1.1556597918896736	0.4638051378937934	6.239190085871094	3.6150388626380408	4.0009002584533855	1.723182077825592	1.0505719158351097	5.435245977030497	4.342548359397448	4.320067871630719	1.8811889839360623	2.1637861674037864	4.545850265469853	5.648646817250989	4.445316780311078	1.482964631151199	3.4354731949853217	3.8801593682552973	3.7203349973209243	1.838204975255524	2.168442959079041	1.646833892479107
436	0.5607407078890754	0.04504581156920979	-0.11902943968523166	-1.0493665907115048	3.4331750783071637	0.8664502479611966	2.564803832254351	0.7937672714219862	2.0404632040005475	2.8177013326076676	3.1994972148224368	3.8286628626480086	1.2936876979590333	-0.02736095332151853	5.903519138690018	3.953783025295978	4.334927547954286	1.821019406489404	1.478315230451878	5.136033045199267	4.6410179021009155	4.558131206448368	1.8591746044903006	2.028254742269896	4.332667816667266	5.840742096459598	4.631178367366236	1.7546001628445356	3.183505765506732	3.9600944419060196	3.8584761522150712	1.8355624629407234	2.2981584014090117	1.8942010354855465
440	0.942262527947859	0.205453976470071	-0.18878160369417152	-1.1684564322534834	3.3303732787925435	0.9342224574344059	2.878599159602353	0.756815431591422	-0.061501070701772756	2.5771062309049313	3.41462515922558	4.122764576993363	1.2895798650607742	-0.05431285859342779	5.494153008894711	4.214522827951882	4.59219692978155	1.8226798726793647	2.0894532150920693	4.860704409724971	4.924443232501058	4.757980811504099	1.9083491515615814	2.1210040992592374	4.280740250270051	6.04570196532689	4.821145999180316	2.1452171748359223	3.1703469673221814	4.100699414390381	4.053579320210032	1.9746016214107893	2.4652197298751615	2.175319666138705
444	0.9924725269055636	0.04893098014160169	-0.5039236532839895	-1.1765137881138779	3.159961454042738	0.861714360922525	2.777349465033765	0.5272238837282444	-1.6700892406259593	2.3784134327920805	3.51487015790437	4.124388207512946	1.0974235506960688	0.28690549658817904	5.259099947049197	4.372842777655922	4.671581733353095	1.6595803457321425	2.527869456584662	4.737074363192625	5.142601953874088	4.8152170059701875	1.8912649106913237	2.280089372600261	4.375699985900662	6.208139403881619	4.882996546814685	2.388558620144396	3.3261017715401446	4.226975907144074	4.168979157412572	2.181485885834441	2.5450925762768954	2.2844345511934168
448	0.7447266559871776	-0.33806842480182425	-0.9307458973273691	-1.0956225367540826	3.025401107779077	0.7109415513208899	2.3635866582323466	0.2804147594047832	-2.041232342334787	2.3639755189338794	3.54848813114713	3.873114814516369	0.7798898796418376	0.6860498768651501	5.362031446270522	4.477696407457111	4.559086788110994	1.352834817331796	2.5126800473670303	4.828874098983802	5.29897354695463	4.702457892943109	1.724166508136217	2.3349673689064097	4.557195175109179	6.31915806128565	4.76303385485682	2.330539459066515	3.552782049745908	4.302713860138889	4.125484932974044	2.397245639470608	2.4860181745705754	2.1266825145433623
452	0.37887176775643816	-0.7671169619265886	-1.2765943971827927	-0.9900512074269662	3.0206122322113336	0.5896876439465151	1.8800384950855125	0.21945126299288248	-1.1159123154122674	2.580804818313196	3.602840414487687	3.516482344332185	0.4749257552553955	0.8085474947542681	5.783135399522521	4.603277671635897	4.314751614167334	0.9980680321290157	1.964831108854586	5.085929380927573	5.419050679830175	4.462502945123644	1.4152311050923512	2.176659101712716	4.7245406985209	6.3911084967424205	4.492476928812615	1.991225356796675	3.739515771961218	4.3175148854921455	3.919373263954021	2.555171721682967	2.306038850684159	1.7476510957462965
456	0.11450761527714973	-1.0408965322917276	-1.3878263200052916	-0.9377509331869108	3.185076705520466	0.5902447089551794	1.569738384098315	0.44106855877143397	0.5239934311988639	2.9597344323772425	3.746663322526058	3.221433631393029	0.3197165719543289	0.4937525379112621	6.328332408186315	4.791731822313661	4.023655404422546	0.7097215634547074	1.033148286118358	5.360381589707305	5.512915597348316	4.1665530099577595	1.051355120865481	1.7960605575991722	4.765532004722338	6.425298674573579	4.1492848291541895	1.5294891557224566	3.7788281345328625	4.2615775954417225	3.601532450166038	2.5637326175811523	2.053709740221986	1.2872823444290626
460	0.08705359675362999	-1.0467646095550494	-1.227271911383553	-0.9903521512776774	3.4843470962291145	0.7376853805037039	1.5459848603316877	0.8661971070354746	2.047244543628812	3.356239071955388	3.987132539219347	3.0869035642888374	0.37669655585549694	-0.14582604133028046	6.735393984001845	5.022428023055673	3.7474307919302485	0.5598049745731091	0.018166935025482042	5.4792775969449625	5.559931264191283	3.8717455766200457	0.7462719660037228	1.2790375915659675	4.598884570908464	6.399818881089325	3.808007230681116	1.1389613122794284	3.590955725186638	4.114679326159285	3.240559569760268	2.326717609253166	1.768170709914155	0.89423501265774
464	0.2750283770769977	-0.8073165992381193	-0.893545208105496	-1.1450548143087216	3.8208796881528886	0.9740212535108339	1.7418199733626423	1.274780627846857	2.844005100699216	3.6231939701156204	4.26380585547638	3.1030437867975253	0.5943374022737038	-0.7880772332321591	6.811964494672781	5.224150644464096	3.5017518908781646	0.5392106757855355	-0.7562674860933852	5.3338909014502125	5.525232777950763	3.6017603783270835	0.5757847413784671	0.7688502053876363	4.2143745315960555	6.286719783169306	3.5077931792387664	0.9360938048570493	3.157030812875821	3.861295928742986	2.894101612413555	1.7998964741086523	1.466245289915335	0.6534150226308337
468	0.5213731514165084	-0.4628688681360254	-0.56925648307128	-1.3444950546651686	4.071026791784634	1.1876589029844207	1.9632062862421111	1.431689735612626	2.8055496144986996	3.676736822382171	4.481602180610091	3.1753222862183113	0.8268738964185086	-1.082247135290965	6.5300555064318955	5.321012483513977	3.268380156848231	0.5621684775464203	-1.063728687461743	4.938558566022549	5.395100579945575	3.3562416945597517	0.5350836501917072	0.41123768583420695	3.6901829149538137	6.08522795094487	3.2517874158775504	0.9020433999175361	2.5459635193441548	3.5196938425845747	2.59913062393099	1.0476871702445536	1.1571333379140905	0.5594551549138055
472	0.6324783547645348	-0.19798280248724018	-0.4291378248824125	-1.5036542377655275	4.1297392740887915	1.2690020767597618	2.008688683206747	1.2280675141800061	2.267758125301683	3.5199839979946086	4.560003745963904	3.191891185331142	0.9069831944454696	-0.8476581552085017	6.0247902718066895	5.280107484837956	3.0276946945042433	0.5143064843544245	-0.8421231486993439	4.424771297727452	5.202631937243035	3.13598083658009	0.5445625768264056	0.3032533518764182	3.172007314302853	5.843270287066009	3.031676761602344	0.9094663835451877	1.9118157576929657	3.1598260322901504	2.3794274270064393	0.25429373915365483	0.8676505066900083	0.5449863062450441
476	0.49298629040228664	-0.15392482241868918	-0.5598957524468727	-1.5503658017116182	3.945092906528245	1.159571167879249	1.7828931763457954	0.7478159647180863	1.687319036038391	3.2188680090697948	4.468722332162385	3.0898003500176077	0.7336758356644313	-0.18351589096942905	5.505443559098138	5.129363523884319	2.7851958204521874	0.31831157127123066	-0.19729842195765704	3.9741444487370017	5.020332323750661	2.9592313691766083	0.5009648787248093	0.46049973252379706	2.816489689391733	5.645065770201925	2.852328531693216	0.8131237009499896	1.447004791421127	2.886879198415066	2.2531583252286804	-0.3358425489529519	0.6488409622023187	0.5343967066624052
480	0.13241173293538397	-0.3690484156827748	-0.9282178259302485	-1.462559815528888	3.5340802580298196	0.8720241166986498	1.3441518511214186	0.22172069493581453	1.3010688987308028	2.855496160927162	4.233654488365005	2.8854627536402	0.33101373827330993	0.5704887494942552	5.140635000601467	4.9366593236262215	2.576682322672359	-0.016085777391113772	0.639351902778034	3.730736484645127	4.921112524959418	2.8566374706624393	0.34488347085662413	0.8097542503893439	2.7238910129440033	5.5673127033816305	2.736873619799043	0.5471984134210081	1.303379055547175	2.7919123102271	2.2292270604117816	-0.5285485969550329	0.5531557188373333	0.48628994699725725
484	-0.2980191998110046	-0.7756707648720639	-1.409774180667652	-1.2848448720917718	2.9747075959441753	0.47190084934300397	0.8609384872634426	-0.10793585302996696	0.9910917257081832	2.4891242918112684	3.91187476124163	2.653245203948783	-0.15724849661226306	1.002960202545894	4.982921587761129	4.762949454680031	2.447510713119946	-0.3874322762244337	1.3848177159632051	3.7378346825642175	4.929373251867273	2.8470766472460265	0.1040079516526693	1.2155292003460008	2.8923356460026084	5.627965912914775	2.7078485420524996	0.17077656047142614	1.518166299801642	2.896232359249606	2.294228309561024	-0.27937409211195474	0.5980736002127266	0.404431789092357
488	-0.6193380936244625	-1.24620747251586	-1.8570620966755047	-1.1146051855556434	2.381538385100475	0.03832591315368269	0.5113605247938386	-0.1305361684841333	0.4363157142113665	2.1468105261960355	3.556279411873919	2.473189824535825	-0.5354515300583321	0.8403236248734735	4.971225249137095	4.621898639453875	2.4223670898313765	-0.6469379051087347	1.7876086189913607	3.93046974143455	4.995654570364479	2.9141628668642476	-0.11421444983256214	1.5285556277783412	3.2173087515664074	5.762158856148969	2.7602510382580867	-0.1624391521882616	1.9844603488410375	3.124591104248007	2.401965373650586	0.2730177932045104	0.7399911265763737	0.3160536281235501
492	-0.731766162455294	-1.6610038238550746	-2.1701807920977245	-1.0659693452624825	1.8719550323907723	-0.3727654209262284	0.3841349174814618	0.0669556481935898	-0.5709450826535034	1.8406188441535434	3.191602460432579	2.381060355850583	-0.6538864357651721	0.08752374328927007	4.997869478958741	4.471507061159261	2.484934323712716	-0.6717622263160484	1.7039068894282121	4.181226719790097	5.014389502262979	3.0019352360274096	-0.17900025799380753	1.6401574570253823	3.5381586462336343	5.845369324231119	2.84848880048648	-0.2899175576996539	2.48947357502877	3.3301744376980746	2.480370276864498	0.866479752260286	0.883595047150393	0.24136029122926977
496	-0.671094237063737	-1.961789364630088	-2.3327615202181313	-1.2251605956616496	1.5315257272200002	-0.7451628427765427	0.4338864375127116	0.2497742318761327	-1.872525687258411	1.5890848596506661	2.812681429437358	2.3475325048304962	-0.48824801917782995	-0.963715014408742	4.988671767037383	4.241581906100117	2.578314297842189	-0.4318232227390206	1.15027188964345	4.369027603562771	4.877573000990976	3.0354008597985076	-0.013396228629801107	1.5253164729708455	3.7108755018003734	5.755620465052195	2.8998179362516616	-0.13158246841587887	2.8102388311006297	3.3648676787298677	2.4599583086848322	1.2458090750711872	0.9300728416802647	0.1809203173122707
500	-0.5825690612389629	-2.1659007017764993	-2.4060642658521516	-1.6172039467989106	1.3883956635707488	-1.0941469641717485	0.510448514126433	0.17080947713642025	-2.9374499246820407	1.4210164511089336	2.4020070969018237	2.295362228320368	-0.1607950027697671	-1.8649007034901257	4.943445193207477	3.879533281068157	2.62579488091323	-0.0177285018860727	0.3059442035580095	4.431797493235836	4.5345396881058315	2.954498760393391	0.3488574019207334	1.2523142067762598	3.6706185248207137	5.440930829616241	2.8483025955766714	0.2630941265139433	2.819367401634223	3.156733028071275	2.308944457900334	1.2882798877615051	0.8345196226031235	0.12477406082837407
504	-0.6296107157069861	-2.338890069778464	-2.488464110767403	-2.189038271145573	1.407837148926632	-1.442063327963144	0.44084352143565264	-0.28744503783132364	-3.1315793912024086	1.3588376010919698	1.9535101602823994	2.1414396708781744	0.11241259397497073	-2.213991397989921	4.9186663503440125	3.3873448286364973	2.560998910160076	0.3887816061694523	-0.5423059449809068	4.380493629839975	4.024134148928173	2.741995089283793	0.7630903105543086	0.9542838310943881	3.454723826269116	4.9532594555728355	2.6696648530314726	0.7379342298950129	2.5445461208949745	2.750838272778922	2.05344366508838	1.0554071638163711	0.6359510405696709	0.07110084575344813
508	-0.8912633038906761	-2.5418674881655314	-2.6553442411138932	-2.814527027653524	1.5107455215458416	-1.7928968622717714	0.1202442493979124	-1.0431975099928275	-2.1103477424746186	1.3943184578978363	1.488508459147761	1.8423998309349354	0.12846322325220724	-1.8318092776779826	4.971259581412399	2.8296079564179384	2.356122010958102	0.5948054179432986	-1.0998462410814926	4.274990547830954	3.461861601672237	2.4324030814747393	1.0392459604727748	0.7751407603720593	3.177354566181442	4.429552067063526	2.398296826983213	1.1098244162195692	2.1497988646589494	2.290784830031754	1.770560498535746	0.7459798436404161	0.44184830673241693	0.03942616646468465
512	-1.3102974858580767	-2.785477631211974	-2.916076891212443	-3.32659505957906	1.60912215303422	-2.1200554317353872	-0.43206554542174314	-1.8536457968641837	-0.09549968665568746	1.478373046957164	1.0559476587338297	1.4228908979730976	-0.19546671162368912	-0.8445829131737245	5.106155859453167	2.30991601360772	2.0383062311208615	0.4885006534640726	-1.179411527516962	4.18067168133935	2.9895155354362077	2.0990524238996207	1.039022204636853	0.8084738830181564	2.9689478799247815	4.029084195454982	2.1159009880050315	1.2575179306705924	1.8460951996923902	1.9481620739387855	1.5548846682392106	0.5742858633800847	0.370072363872786	0.06319791807669624
516	-1.722269769134963	-3.0174999160876	-3.2096736350085355	-3.5754980950681943	1.6447251993615672	-2.3722736775585584	-1.0756720277331027	-2.439305299322303	2.1432130282650546	1.5389665326363946	0.7194263320878894	0.9747889613336027	-0.7711955885489815	0.3613176336702802	5.265429006634048	1.9312164734719255	1.688422914056844	0.09840556209276306	-0.7804978470170117	4.134089936309253	2.716185086068317	1.8284974052040446	0.7534381728223303	1.05720615120044	2.9133143351433675	3.8615519902962947	1.9181330155581806	1.1733186215341151	1.7808144047598573	1.83935606015252	1.4760515652583135	0.6482959373318685	0.48229619738881024	0.1659612055403083
520	-1.9438228558100925	-3.1460366169654685	-3.4302539738833864	-3.4936838061817377	1.6171170432270474	-2.490308040053519	-1.6033595759918842	-2.616680377075768	3.6282558349557457	1.5228288135227805	0.540816007679218	0.630639313059278	-1.369140502333963	1.2997035947410247	5.366868005553965	1.7632795527762355	1.422128554568345	-0.4108811606523831	-0.08479803779173439	4.134523381284965	2.6826376847247935	1.6955507950889577	0.3178772024235267	1.4336943590206506	3.01381324960826	3.9453401465941496	1.8776085329334444	0.9544738507014523	1.9664896676959185	1.9753538320259556	1.5517103632850666	0.9149525142457531	0.7481676321213733	0.3404028705108809
524	-1.8719123554652208	-3.0875565927753477	-3.4726579101624355	-3.1348438183792253	1.5828661878676606	-2.428777211732917	-1.8215470268036238	-2.369918578840139	3.658511390985925	1.4330571853696104	0.5638322815964799	0.5196310268634118	-1.7215143398689872	1.5891443450860019	5.36101625996327	1.8277435256588288	1.3540487255242266	-0.8116139153016408	0.6308171137141941	4.1568388833953716	2.860535137583751	1.7449225143246576	-0.05166929202147553	1.794944877861083	3.199737302330986	4.212370861862344	2.01834320512451	0.7414693813677159	2.2838776053940415	2.2676515521970937	1.7479035810209276	1.2022025554821865	1.0609320375359426	0.5455802665287312
528	-1.5416647156892747	-2.818968050515236	-3.2848918355022216	-2.6651890210572993	1.6198821026911967	-2.179152483206665	-1.6275936324034774	-1.8353555156145858	2.17407941269335	1.3315157856702282	0.7972764352696328	0.7168197017691532	-1.6522119003543227	1.109328982413447	5.2629303799313725	2.0982620663118947	1.550714131254806	-0.9217202044103985	1.1123191090156999	4.169857014618607	3.1770245948687985	1.9787391374220715	-0.16893151359822342	1.9965759465353632	3.3648502741736372	4.549779403643527	2.3088769854426188	0.6411734207177711	2.5545582706804875	2.5817391807223355	2.0020203539846912	1.3283280100663992	1.294406172345342	0.7244849186725604
