time	FP1	FPZ	FP2	F7	F3	FZ	F4	F8	FT7	FC3	FCZ	FC4	FT8	T7	C3	CZ	C4	T8	TP7	CP3	CPZ	CP4	TP8	P7	P3	PZ	P4	P8	PO3	POZ	PO4	O1	OZ	O2
-200	0.380892514220834	0.49570309990661204	0.06331638230788823	0.4110284735315735	0.4610677051824278	0.603299914267372	0.3753027906479105	1.2578754393290525	0.25100272830533543	1.2874598470607557	0.8859944321197686	0.4637225556586656	0.45624980215275224	-0.7164131384881668	1.3104958501153883	1.0606561872406186	0.5122092949332973	-0.1423132266981506	-2.152973408031672	0.9047375298545818	1.0198541853905088	0.36605060008136525	-0.3567999592355803	-0.9748049353783622	-0.0068666948763512255	0.4580223250746076	0.7418991308554614	0.0919747648301182	-0.5491569028340931	-0.11169622810296576	0.32749977625177107	-0.12038344859485328	-0.04029688973981668	0.21092700904998002
-196	0.59090804904521	0.8376539328407241	0.28260043192085615	1.1981773346213773	0.9455297565429731	0.7390351872858795	0.502759753388399	1.6789066749146104	1.2110041349353673	1.6033626754334047	1.0683277818410006	0.5866355881184969	0.82767694979554	0.836508868012835	1.685260887659493	1.3223642077438098	0.7117098551901049	0.19427250276630686	-0.6870399100123697	1.2462204663283882	1.2355855672158345	0.6139577015634617	0.0588632522527365	-0.08634351172105235	0.294606744499262	0.558006642840131	1.0086301539704825	0.443357734752898	-0.44867631679742276	-0.0677832586842066	0.5013825880743407	-0.2945213310435145	-0.1282993998864557	0.21201209670421522
-192	0.49917238824700455	0.7632456402582012	0.2915159456522376	1.4271823131768013	0.7511695604432619	0.46344932796770505	0.34644544037134206	1.6401178795413514	1.8010319425887567	1.2081884115232868	0.8544200637226185	0.47137251377304884	0.9507874822453358	1.7020951466501937	1.3091516461698074	1.1522383660789148	0.6409463270217503	0.312875389262861	0.4738489675479243	0.9633056497094581	1.079917308941867	0.597443161886529	0.3517427435577357	0.30151408834626353	0.1179865819217132	0.41325363412471044	1.0484325859302326	0.5593868479910653	-0.6733877641842587	-0.20878623373247085	0.5301319347348488	-0.5803917035708152	-0.3700673868849598	0.12021987854884139
-188	0.151451736306235	0.35920432119278195	0.1744697238570298	1.1696118086848926	-0.0034440422809342078	-0.13487169112485953	-0.05092620091693686	1.1945691078543643	1.7036489205262757	0.2858758859569284	0.34391555103256033	0.14443395995390468	0.7852630595408389	1.6495842892006785	0.37133744265262725	0.6590007526925673	0.27945905853286757	0.15718544979941107	1.0722330781568243	0.21846540217078658	0.6516383869884993	0.32142057933718793	0.41332331195427696	0.13835710252162306	-0.4025498320429703	0.11505299032488701	0.8702266194306966	0.42110365522877713	-1.0512055132074725	-0.43113502751218147	0.4425951231272447	-0.8067021349566811	-0.6178640707628886	0.012459640359713411
-184	-0.27895462442540697	-0.13843847776269722	0.06661596132387249	0.7103616577333342	-0.8917695261374754	-0.802692828535987	-0.5347655402033441	0.5604197964824149	0.9521594619553119	-0.7079950553185024	-0.2189047927098002	-0.27555307676363067	0.3941010524813241	0.9174368954383637	-0.6580364687518256	0.09660645549940498	-0.26277390056069605	-0.2133324885942684	1.11197268682114	-0.5972609504879106	0.1690447773241719	-0.10083389256768452	0.23073115886608347	-0.35226476103536064	-0.953838107561883	-0.1753538991553956	0.55949336149101	0.1163971346658232	-1.3287810053655484	-0.5912664517733395	0.3007432810819743	-0.8456646182643772	-0.7293500285807789	-0.04922742011635335
-180	-0.5892500862503236	-0.48288661119614223	0.044666506237268346	0.36408078578580144	-1.4219254219394635	-1.2574430672369437	-0.9169547534679928	0.009058491303998042	-0.07653950135456974	-1.285470959278912	-0.5767070040447483	-0.6377422793499385	-0.08787243791090633	0.030894432138881763	-1.273631569507778	-0.27322077682178053	-0.7968558052925148	-0.652318058751157	0.7687333206795268	-1.072746393356334	-0.1506100740206479	-0.5062407838437826	-0.11495423287932413	-0.81807672770903	-1.213884350572932	-0.31890273013662046	0.22766414227226445	-0.21641600077348738	-1.307549950159447	-0.5854961261272026	0.16122533340279777	-0.6828805190965102	-0.644369660181137	-0.05223011957333182
-176	-0.6580373032168504	-0.5530869350774361	0.06470108760949168	0.2866969399366365	-1.3170206513531872	-1.3392624821228376	-1.0718778344748598	-0.2708823972061786	-0.8789081551296031	-1.1898944347857223	-0.5977504238295703	-0.8331484177535275	-0.5132656084453399	-0.520745395299319	-1.205653545196679	-0.3193660072369675	-1.1451559037860053	-0.995159861913122	0.25858330661337525	-0.9967088078129894	-0.20671482332014388	-0.7603145222541269	-0.4891359495688072	-0.9741169189654569	-1.025468585286307	-0.2745557420474445	-0.040968149797001766	-0.4620239424961451	-0.9461882090521444	-0.4050749232078597	0.04777004557708128	-0.4198008765112106	-0.4146515418550983	-0.03850081553275389
-172	-0.5052298294662996	-0.40669450061160756	-0.005542260580673142	0.4001326848894966	-0.6692953688889575	-1.092182991131358	-0.9938187574090618	-0.25195550854966453	-1.1114371986938298	-0.534808932384631	-0.34237801942213864	-0.8398383834615821	-0.7740862946040001	-0.5527612552992057	-0.5622254595866817	-0.10291105482821777	-1.219609853526311	-1.1279489965571097	-0.2593945556290425	-0.4663514483121693	-0.06065516158525613	-0.8123579004758489	-0.7585439066808995	-0.7472143750398872	-0.4792296576321482	-0.11556585103898141	-0.21579718535299164	-0.5740950093079957	-0.3786121299244521	-0.137536048541915	-0.05033826815293739	-0.2119956011188153	-0.17159278647491957	-0.07597326468121375
-168	-0.2676000588336521	-0.2221950286977395	-0.280205755718406	0.47395360350156335	0.12429986117689949	-0.7287033777912433	-0.7865061740091358	-0.04930183278987726	-0.7762800435494197	0.2663908594081467	-0.019805086726611153	-0.7180934530247873	-0.8273759463401842	-0.2450798147689588	0.2428209179469642	0.17138287381771183	-1.0495771143163202	-1.0241576407324269	-0.7006695252848125	0.17898286833873822	0.11362172634525095	-0.7021701914225337	-0.8359496572369641	-0.28807690666899227	0.14197640085137528	0.022602694052015905	-0.31082531731330976	-0.5699558243666639	0.16141490597502728	0.08539441206352887	-0.15596371849737325	-0.1785297240279774	-0.05081780242010589	-0.21274203008345297
-164	-0.10810092064267506	-0.17330996648424074	-0.7492862324870488	0.3032515935394018	0.603216646578831	-0.502952037971959	-0.5964804872711922	0.17119628147771357	-0.19509436140871736	0.7410870175724471	0.1367531117324446	-0.5653281197579865	-0.6943390351884908	0.021530395319343025	0.7365081291677174	0.2816371910613954	-0.75128745843033	-0.7413275819181532	-1.018511411956399	0.5606260881574617	0.14131663704002223	-0.5232364522121276	-0.7051793915110666	0.13908918166806727	0.5235366808071031	0.02820865244001905	-0.3561040750095845	-0.4954852151281857	0.4608241904068127	0.15924516280023038	-0.278936027776284	-0.33972555313168584	-0.12137949436059946	-0.44582378751728646
-160	-0.11565500468617912	-0.31448918501608025	-1.2474168507552994	-0.1365466114411416	0.5139751421349547	-0.5650829062499996	-0.5276249633819253	0.29884540959247274	0.2095269108489022	0.6264083369652239	0.004781597747502278	-0.45742192748930094	-0.4403398621885722	-0.061486635201902666	0.6598616225748848	0.1197050359803132	-0.45822709683121643	-0.3857978870664966	-1.1650626629978307	0.47841378925652256	-0.04593411076392559	-0.36566039827532837	-0.4223496605223384	0.31108999173776664	0.4897466587576339	-0.11922986775336347	-0.37140327598261547	-0.3900147368597746	0.42593359839666695	0.05630443603486027	-0.40535572068868764	-0.6191282256707382	-0.35931873230813943	-0.7219404559981679
-156	-0.254594116760242	-0.5473576770314458	-1.5276467761571006	-0.6565157158488658	-0.04823431360464524	-0.8789251424533211	-0.5855994805809822	0.329280554416907	0.18311805976888015	0.013456952724157872	-0.3584596505651607	-0.41069483653328565	-0.14746083281956882	-0.5169882761300328	0.11056624325016684	-0.246893718215345	-0.25317078764892165	-0.06352320297415608	-1.0856083604106526	0.019158765625266156	-0.3683512499569196	-0.270544587882767	-0.09017680562616914	0.1599543984666221	0.0914707852080729	-0.3376451424180205	-0.3570680907294254	-0.2699166231493213	0.11340375961043825	-0.16913284318660518	-0.5057110177623565	-0.8970659352541998	-0.6715806109638763	-0.9653482412761089
-152	-0.3932474543656509	-0.688157437494442	-1.4036471808280797	-0.97289365284382	-0.7096783500873542	-1.2483203379585237	-0.6838353258987564	0.3319942346773896	-0.21363995915356598	-0.7154505234774745	-0.7503424267898021	-0.38380819462195037	0.10655225786486966	-1.0651564571190881	-0.5256497846683452	-0.614851652023546	-0.13712094689558604	0.1578082587310967	-0.7538524847071181	-0.5030581938440359	-0.6437500699002611	-0.21810543482073563	0.18290258897856113	-0.21069180912229016	-0.43304589281421124	-0.4918515669802401	-0.30384167952118835	-0.13804979587509822	-0.3154792181632999	-0.417644797701194	-0.5545911774938348	-1.0801233025936905	-0.951307711583622	-1.1162049742173759
-148	-0.39168658753685853	-0.590864180026766	-0.8704394080120075	-0.9009159780644561	-1.0521566841263967	-1.4336681329770156	-0.704261003146686	0.3641933193548533	-0.6671450717294695	-1.1173846693437919	-0.9394385790948204	-0.3149553231393693	0.2600245171180831	-1.3082832064976226	-0.8144802430570078	-0.7622669915981048	-0.04827596235007689	0.26237332754649434	-0.22046644930013384	-0.7390889506753311	-0.6938273889190306	-0.15196737608688504	0.32326716102998976	-0.6059747322995591	-0.7986435870033942	-0.4743122744505937	-0.21104501134517617	-0.0037154948710720294	-0.6849635822168613	-0.599372266209814	-0.5481115565766616	-1.142329689956471	-1.1285531492350278	-1.1561690539733487
-144	-0.19562886605939117	-0.24747678575022697	-0.12700003353479397	-0.487407414874685	-0.863088069167195	-1.286741849511604	-0.5730687961414888	0.3976885070296855	-0.8322951176610774	-0.9457178091967647	-0.794020114324485	-0.16858333306664705	0.27453139355011524	-0.9970568989375989	-0.5332908020860347	-0.5725177512019315	0.08542547353395902	0.2755565040306966	0.3652675440626056	-0.5079952465583166	-0.4451921570981963	-0.019878800908205856	0.31912010827556747	-0.8572046139055601	-0.8260247090465377	-0.26440977983474884	-0.09414739137959881	0.11019292445971991	-0.8818486310628834	-0.6685790402698554	-0.5009706603753379	-1.1106355162236248	-1.1832337349581787	-1.1015052767599822
-140	0.12111646651445034	0.1958814109386669	0.5167292939491376	0.0037178264371316924	-0.25444093282355607	-0.8292029479072267	-0.307190894304984	0.31634205499889	-0.5638789520332211	-0.28552332448397216	-0.3515483132069693	0.038928832760515036	0.13854765857048887	-0.20957758969799453	0.20031757602184225	-0.09684907620535065	0.29512891098849847	0.23698446094761597	0.7909479121265837	0.1053364348732303	0.030609078628030327	0.19224847804645673	0.21826201622216526	-0.9026489831069252	-0.5236689435135259	0.06521295739636919	0.022269517127078708	0.17755988195412445	-0.8851609803739785	-0.626331268159724	-0.42931023131699003	-1.018644568732491	-1.1250666351523386	-0.976181087413462
-136	0.3982127298791615	0.5218142853913773	0.8037581423493678	0.25315633352260014	0.41848260058604164	-0.23216521681343635	-0.001965159079686344	-0.0018015791383721228	-0.0064752241433095855	0.5094326125634462	0.20766191132091127	0.2506502264370237	-0.12463292448048287	0.6757925135716505	1.0055131886844677	0.477300910936731	0.5538858161293437	0.17892844929819568	0.869288859556813	0.8103533962771134	0.5588101730543193	0.45230859403854207	0.10195095066318041	-0.7909151295720399	-0.05933018758814742	0.3955678035762537	0.1205058169302682	0.1891637588731841	-0.7435318808856713	-0.49900096528906335	-0.3351043454292724	-0.8676425196676285	-0.9652470325895358	-0.7914797643705717
-132	0.48344817635547577	0.5673528299312498	0.6647031290438318	0.09478599554211002	0.7786801437745307	0.2834797792430073	0.22898535372618123	-0.5713849649308352	0.5052861558554702	1.030809519072566	0.6618546230772077	0.4070334126209448	-0.4508849967063209	1.1922848194537594	1.4667066298647318	0.929158148803851	0.7983888367522674	0.11864358901825235	0.5319515453259578	1.2849535909635676	0.95728683229988	0.7013085466798361	0.04466353345561768	-0.6204041822982235	0.35064682275933995	0.6314664467127379	0.20189632424402207	0.1620892431219911	-0.5262259827679342	-0.3114541165117802	-0.2032706881397831	-0.6262699945850495	-0.7049891334854239	-0.5467530475163708
-128	0.3228690020038954	0.31550577203248026	0.24066546498571612	-0.37135273124397356	0.6492953284082943	0.5624468908414633	0.3207530371197113	-1.242974874219273	0.6608837826255572	1.0477858755360525	0.8617275931536317	0.48332944390338295	-0.746717987559451	1.0571559640896657	1.3713678086943064	1.1158475847682048	0.9710755919734713	0.061530332856993296	-0.1139851284129484	1.3534868921439924	1.1273422212748283	0.8842302538481607	0.0773289648726266	-0.4621511984124193	0.5605788216742741	0.7489749770328176	0.28376305031658716	0.12921011415284075	-0.284937947269111	-0.07742472718479708	-0.016661759423865947	-0.27169760993071346	-0.35047587663855573	-0.24898517068942708
-124	-0.0037808953688947752	-0.09655649935662873	-0.20989870972091118	-0.8343952277097914	0.1444761600422991	0.5835396036673902	0.293267964576342	-1.7482484534947274	0.35779890327717134	0.6215679033798801	0.7949098924594455	0.5039247857722373	-0.914970336034496	0.33875963006321697	0.8165516832716572	1.0323101256056426	1.0557516786623031	0.013556662912712184	-0.8057686666172105	1.0649821731382048	1.0900268527166967	0.9756317710085989	0.17688475504561932	-0.3206057242405209	0.5557684884344659	0.7936363200177453	0.3830402185782808	0.11622283578377883	-0.046130016329646494	0.1890834863180355	0.22035357300437544	0.16074566502517884	0.05975992217473181	0.06295180304845943
-120	-0.32394045509567265	-0.4550695407822122	-0.4617774474882988	-0.9614595746561355	-0.41427153244329223	0.4489073742023112	0.23389680624559556	-1.8299504472307104	-0.25243762071771303	0.04621636855854682	0.5711616859320704	0.5226407037891017	-0.888212678574129	-0.58316302152265	0.13173691895126313	0.7930205444341254	1.0812060805679466	-0.010441807072323667	-1.2289302318063071	0.6360077245867092	0.9531517004743827	0.9851440762442871	0.2823969118617844	-0.15480105539815875	0.42802306901631526	0.8349763133902395	0.4962550091135164	0.11792289435893148	0.1705324347482037	0.45544865612434887	0.46691414595975067	0.5593221173470027	0.44157111533258886	0.3140754989800611
-116	-0.4655994165109369	-0.5832692369993716	-0.43796545156529454	-0.6023939832737181	-0.6940869671463721	0.3109544209735673	0.24114061831150468	-1.3879301512962283	-0.8687902667045256	-0.33597436462453983	0.34752389700886277	0.5851098880300333	-0.6544758660958678	-1.2306151359005637	-0.3227479151683399	0.5563524351378561	1.0958906384456055	0.013395274955487108	-1.1626422375889025	0.30695587319122797	0.8368977883190125	0.9459763741451476	0.33382552777884517	0.06356558932706496	0.2956101588891999	0.9111917591931448	0.5944224581015836	0.10148896996385394	0.3299321225896241	0.6647894961738933	0.65508729054043	0.7713078836994549	0.6853725892882773	0.42127692593070176
-112	-0.3515042951769138	-0.4296026517035198	-0.22977854253452712	0.11697983712225685	-0.5398988710123747	0.281699150089483	0.3612818708835053	-0.5539872036298507	-1.2185174195996258	-0.33224153434793835	0.23776581823400383	0.6941240412353288	-0.26380652122650017	-1.2908153501345592	-0.3591240039341499	0.43547123560632084	1.126438853280893	0.10576933595656039	-0.5954862221942042	0.2028340394144222	0.8014502505094916	0.8906238652631402	0.3077033750394689	0.3029241256218326	0.2239028656790157	0.9973970626444731	0.6341485961162139	0.032478760845914584	0.3792207827530393	0.7520455699053141	0.7198296767180662	0.680010078620664	0.7060676199252669	0.3412711909737765
-108	-0.04117581982945551	-0.08596444108239913	-0.021360309740615577	0.8641990401383586	-0.04767693194630632	0.3776124408248032	0.5571383223772355	0.3558508744792179	-1.1926724880623998	0.006881875434279131	0.2585335367351135	0.80066472089798	0.18667353642540024	-0.779972312865354	-0.04715772706284965	0.4461154926480807	1.1500997514297733	0.2653378539538809	0.24622921583474425	0.281476437334842	0.8190749862972078	0.8297010043177124	0.22662374320033676	0.46905705214330523	0.19577510605497836	1.0183317635574995	0.5798637256287278	-0.09594818925474813	0.2723293297567705	0.6755995733369996	0.6328634007688116	0.27915394235703267	0.4923980223621612	0.10450086716255609
-104	0.3045819394051073	0.27147889068726233	0.033212635582278126	1.290167209228908	0.5107999431111415	0.5270428048178739	0.7283611875264517	0.9937672589961059	-0.8573675730039646	0.44208791740380904	0.3384362152614822	0.8284758904520921	0.5856445416923186	-0.006733043102312033	0.35738363771806964	0.5158739076941257	1.1015475960576657	0.45640066150829783	0.9905806158805246	0.3907892396120306	0.8033558109981498	0.747370121976292	0.13933105731595513	0.4596008050758866	0.1456670161384212	0.8982568360538052	0.4254152466046865	-0.2491327964930018	0.007874693701651132	0.4459455598062551	0.42100098622841076	-0.30071741266620705	0.12601534990442942	-0.18818005871945584
-100	0.5145445453050564	0.4785253095466157	-0.0988198292740673	1.2219955890320673	0.8521551468315168	0.62590682348535	0.7695065121296011	1.1530427903627727	-0.36713978555491844	0.699749229571804	0.37397870326989063	0.716224966625086	0.8429439046558288	0.6264587624945765	0.580751954042928	0.5384656177277243	0.9083644724800072	0.6102617367595607	1.299345847663986	0.3841490735845602	0.6695317013048953	0.6107607468443604	0.08127405473931797	0.242860674244929	0.02400132448871984	0.6125044211182173	0.19702757845248148	-0.3699907055096499	-0.3477184167665961	0.12901517716259503	0.15312324425661233	-0.8349179604431517	-0.24751733180973304	-0.41173338786123
-96	0.4977490293333619	0.4585891354426681	-0.3233031622353432	0.7381907682854785	0.8312942960731807	0.6026545747800182	0.6303872450171594	0.862571952549388	0.14184547924945667	0.6282740815512726	0.2945388548090342	0.45365634446047803	0.9138970351987353	0.8555864670132832	0.48801934595872654	0.4373070288584456	0.5380617366557459	0.6482236368979385	1.0385805342201824	0.214796661788318	0.3885767152035542	0.39101657172662996	0.047146633148368845	-0.09855174248370564	-0.1563632782326163	0.20958274549975459	-0.06041454508548597	-0.41538578166991014	-0.6729480607208608	-0.1795049603221689	-0.0948235837211266	-1.0996911497961785	-0.483420251579469	-0.4818710374587008
-92	0.2869717769530019	0.2435627722551269	-0.4916878926261001	0.09843429898205285	0.4957712578177407	0.4556679416119239	0.3438726356884304	0.35138070494628404	0.5995404109123008	0.26676884226203557	0.09875410025220718	0.09105113870759127	0.804008243438214	0.6811873895612951	0.13841089571339704	0.20296229370849383	0.027637384762127674	0.5168110119169184	0.3501275768976901	-0.04639473173229655	0.004967397066330255	0.08459461459021017	-0.005924748241844007	-0.3910862793585188	-0.32113286771758354	-0.20807723648465762	-0.30416825336908815	-0.38558244607849984	-0.8368775227398401	-0.3944035758551178	-0.27473756601587274	-0.9727333759544237	-0.5020406233509995	-0.39736962218094224
-88	0.011864813946034043	-0.06056407078710812	-0.4970803248253151	-0.41493821039342177	0.029014542625605492	0.24685679313799988	0.0089370133129622	-0.08969324804548845	0.9648284887749797	-0.20230792411747933	-0.15317921301791512	-0.2812506549410029	0.5574687109223913	0.3251120141880975	-0.2819266610180162	-0.11087814690490838	-0.5207494484151535	0.2203958624997368	-0.41143277183606425	-0.2736357741599814	-0.3878962983828386	-0.27481558849568677	-0.12324614791747872	-0.45005258804181175	-0.3813188662438359	-0.5328944908039238	-0.5065209256735197	-0.3237620583943103	-0.7561286668760538	-0.4737748193700109	-0.3799881627502626	-0.4858333158147859	-0.31772133627783256	-0.23260091186448323
-84	-0.17759336486324248	-0.33311575567065177	-0.3305673590897141	-0.6384869201752374	-0.36354622153048305	0.06386337413161097	-0.25739639932495956	-0.26627582244402065	1.1772512167771771	-0.5693249688079539	-0.37756994271318567	-0.5689368233621566	0.23776163100771894	0.06627426279739906	-0.586591540286119	-0.42083737147891537	-0.9747711991495045	-0.1663880493016284	-0.858529744364861	-0.3752398481431866	-0.6943779570214308	-0.6187773331278315	-0.3070581547614043	-0.1771401758489982	-0.28937935756101335	-0.7001754623855166	-0.6516091807126331	-0.28111058402613437	-0.43125092874365456	-0.4264171708785088	-0.43032896410059657	0.19579105029741553	-0.017428724051222037	-0.08357081541181052
-80	-0.19347318958072576	-0.48930969710788874	-0.07113457453172525	-0.5749117717532908	-0.5520822987922834	-0.023460894763841274	-0.3721218099735687	-0.17148543850995013	1.1618974179496697	-0.7052190882043867	-0.5093418346896824	-0.707693515421345	-0.08789468534451257	0.06332101656900782	-0.6880855542930244	-0.6529742462838326	-1.2216194837244843	-0.5153619037967977	-0.7808664421393721	-0.3454540065149737	-0.8569844343483157	-0.8619235732251583	-0.49078091855116524	0.3779632439607431	-0.067399479278628	-0.7091092449404757	-0.7220571022876988	-0.26900821856291546	0.05454067127047446	-0.2933733753903612	-0.44139066227098694	0.8507233240583374	0.2926061146024271	-0.0028832238094729933
-76	-0.053376588835659815	-0.5017419444767841	0.17305915013965914	-0.3412247291532914	-0.5172371255213418	0.010129064295944516	-0.31438818494576337	0.039527580042223634	0.8921593405133224	-0.6056790932622197	-0.5257287012178287	-0.6795232278833678	-0.35584175496859033	0.27410775353844374	-0.6196787341684938	-0.7679902891796327	-1.2090256183616883	-0.6891860944513786	-0.25851145321427993	-0.2533940964500089	-0.8720421173013265	-0.9307473278388401	-0.5579512701252746	1.0286284659164515	0.20578455873032186	-0.610140441307749	-0.6910467726426343	-0.23793305396566014	0.5712862000346918	-0.11962224512892922	-0.4030441929654892	1.2939015594239474	0.5386382327785579	0.03395326799522602
-72	0.13758325542045793	-0.3933985223374527	0.32376921095166533	-0.06928753835350816	-0.3213170758717968	0.14326377176830626	-0.12130249261032466	0.16367073315782368	0.46555772306202176	-0.36130824593875177	-0.44566053039565884	-0.511000870368172	-0.5133159147654033	0.5123447762905298	-0.48156484839926267	-0.7666433434203992	-0.964113054225547	-0.6001945718870592	0.3881374885773133	-0.18601851118329488	-0.7802513222068431	-0.7963870147625399	-0.40425217049577983	1.531190153070762	0.43663653621106	-0.47219142198555036	-0.533315061176397	-0.10360028568575727	0.994321164958605	0.06436754001817072	-0.28446653413477263	1.440564032732249	0.7012006026684204	0.10832583131858654
-68	0.25060418184905103	-0.21675863807311363	0.35782888441341765	0.16207683045474797	-0.054597046088418755	0.3241358987253977	0.1385356333334358	0.07688024620672916	0.1070871275939918	-0.08997563249997952	-0.31297027985710385	-0.25949883395481377	-0.5281271921175348	0.5886921271719899	-0.36339715031427616	-0.6805071813568357	-0.5826095923973078	-0.2552820735685027	0.7873414138942646	-0.1909715379423351	-0.6433341486900684	-0.49554931992347984	-0.008431966395249093	1.693509455219844	0.5588245973783186	-0.3511135271267529	-0.25071829494118536	0.19228863667577276	1.2443805901581066	0.24194595156619292	-0.06372966601255615	1.3182835545634997	0.8002467135252256	0.2975733868715327
-64	0.20927748031230814	-0.029074940757061962	0.2950316958131152	0.3320325008592388	0.20613732881953437	0.4945397066505009	0.39750796456111664	-0.20055969008830862	0.06320382638709468	0.12209724604059197	-0.17539305940691416	0.005086872713835729	-0.4000114788446518	0.4394719291558667	-0.29709431454036	-0.55658382036829	-0.19474527190631044	0.23651574492344687	0.7386075239606957	-0.2573497288882183	-0.5201214538793855	-0.1278209534040516	0.5309387432044914	1.4582445584673343	0.5524244294524303	-0.27419802477272814	0.10364104036151954	0.6224629863282123	1.3010506597095477	0.3967686285491894	0.2377640896993097	1.0335789892804175	0.8608098008356974	0.6109318717790785
-60	0.03702588742563979	0.12721657720871624	0.1692045326729278	0.4426308561116973	0.4106732596519314	0.6102902277796914	0.6091664418099335	-0.5310906158389957	0.4382875550648475	0.24262025891083444	-0.06983024609339848	0.21664377992292144	-0.16922113256645582	0.16066151816812965	-0.26231202416949767	-0.4424097228801389	0.07779274861245297	0.7001914364302761	0.3319714060984983	-0.340311407183704	-0.4503330278947719	0.17410246983917343	1.0192756627097794	0.9222889519294093	0.43663108238607684	-0.24271874068491595	0.4243301738516124	1.0574539873127904	1.1904337376102885	0.5016062247009733	0.5423644171372838	0.7122354489464072	0.8846359230594778	0.9655753349721298
-56	-0.15340776702772932	0.2356023484480537	0.013290584053816328	0.48536649223808365	0.5298100100492297	0.6522102935536752	0.7502957563530608	-0.7535495739031343	1.0742809745368467	0.28078403998055684	-0.016410697210125277	0.3261367968431334	0.08671919234554254	-0.07086986285436547	-0.2266599530219464	-0.37388691211716824	0.16024148423745796	0.9616979336299906	-0.11433012009603734	-0.40263494747549466	-0.4473593223721132	0.2936623089051804	1.2456917731305654	0.28460329699186443	0.24905651744904309	-0.24380853710607653	0.58600503058301	1.3116975989603157	0.9599687432847774	0.5221757279563828	0.738768456501183	0.446604638164195	0.8475860931931501	1.2216769426019025
-52	-0.22044704798830844	0.3086205713109569	-0.1315743174807264	0.445309637852752	0.551673828162669	0.6280308349965584	0.8131325820420388	-0.7799589614249579	1.592112179551165	0.2635114186309623	-0.017486026466448302	0.31333306352661333	0.27512222458995955	-0.11995794593803724	-0.17915540888376616	-0.3650946905931934	0.04780374455303609	0.9188586450266015	-0.25904664331836696	-0.43600913772173827	-0.49613737934734914	0.18073300971653694	1.083315608150511	-0.24204073785230767	0.03320160499773223	-0.25844666296557267	0.5002053367383541	1.2353448836608392	0.6624755246602653	0.43950828798908786	0.7344006877477147	0.27651536394877746	0.7259637099057042	1.2598371473929475
-48	-0.0722068471873661	0.38086497687501725	-0.20096278139874568	0.3393549612537305	0.49157002444135434	0.5668711647980359	0.7970748523615113	-0.6373883469701559	1.604492302658336	0.22397528532223496	-0.05781327545947565	0.19527327965072017	0.3229306034041152	0.019989792207078003	-0.1270909157166858	-0.401379941880595	-0.19285610269492415	0.5842738136798797	0.03144497416424997	-0.4453895974835163	-0.5549222216900815	-0.11979988187107259	0.5583060965747265	-0.5138909207720997	-0.1593068685085783	-0.2613197558481046	0.16879031019510704	0.8015953878191533	0.35498207717916536	0.27503216197193137	0.5090462552569875	0.1987131381978291	0.5287267552378166	1.0533206436266318
-44	0.27643674542251717	0.48857486124663063	-0.11513318092364924	0.2369802290178476	0.3994132270265517	0.5063707815737095	0.706129727964966	-0.4346181739324492	0.976138350883266	0.2001809174728785	-0.10823758664221937	0.0239986832579049	0.2099959248962944	0.2285636955689435	-0.06810533238143725	-0.4426306474954411	-0.44764041787616426	0.0804498789663477	0.5774456844055846	-0.41635310544752774	-0.5666552767752046	-0.48026665923933226	-0.1519764508940292	-0.5009549247491569	-0.2641667716986131	-0.2211496675391468	-0.3010339133291653	0.1364775147568602	0.10347930315832987	0.09599675958953685	0.135295614258593	0.1915112878017359	0.3099103860183175	0.6889975053557854
-40	0.7003255468806822	0.6420797093392927	0.1803175504423402	0.22939081432124211	0.3453734806400855	0.4746839988167969	0.5528214559902769	-0.28223976421623087	-0.039954841036056093	0.22970496060073767	-0.13562956418126518	-0.12846142021170734	-0.015227319634258456	0.348732410980955	0.02845184870331438	-0.4403065729945492	-0.5960981830805681	-0.4104724516041901	0.9877598856782956	-0.3031782202218685	-0.4819191384069131	-0.7409570794471648	-0.7929875830656479	-0.276945113436523	-0.21601544266044687	-0.11017458858091717	-0.7336967568946946	-0.5296524153688414	-0.02160750324039106	-0.008341419489483286	-0.2481198751622462	0.2354831391588039	0.1495814617671948	0.3245067588242539
-36	1.0154889796367594	0.804019210692825	0.6583396775790326	0.3575005820308237	0.3787542870018825	0.47295829534329437	0.36013033895167446	-0.2230194354387077	-0.905975518323441	0.3276262871099874	-0.11907903074955958	-0.19792790660954063	-0.252122759182482	0.2928851835485609	0.20126791247574172	-0.36484122184192597	-0.5587688670355944	-0.7216208558936892	0.9062679387099708	-0.060961171830760386	-0.28826972769435383	-0.7800952772472151	-1.1448519200984184	0.026781389422153426	0.016441507223460917	0.07570446263511658	-0.9614298915431123	-0.9659976934839418	0.030841836627935718	0.02803281687573044	-0.4989834415235436	0.3195112339535961	0.11333922268147063	0.10669977936031629
-32	1.0608733865656317	0.8905893541739024	1.182501313085028	0.5477451668261524	0.48406824347350863	0.47038137793990364	0.1574915345507211	-0.21673823838349077	-1.1200231285427578	0.46029254677908094	-0.06250553562357221	-0.15714272817037617	-0.3927355696776122	0.08453528561706666	0.44898286348472866	-0.22724391462649773	-0.3313637665488697	-0.7666372637466474	0.2518809133369164	0.29804587288947426	-0.029092658237676716	-0.5699917063627281	-1.1156007023301686	0.2788034670466382	0.3926469971756996	0.2987967722024588	-0.9020648575896011	-1.0453544828725134	0.26165261798601236	0.20730690605752536	-0.5373285995268596	0.43562057504342855	0.21488103216278456	0.09780964975696443
-28	0.7758660296878551	0.8078214505780922	1.5445475539312028	0.6172077640209238	0.5708921537290765	0.41912689699211453	-0.025950403818534758	-0.1814310397097392	-0.5610280022761674	0.5398472533901295	0.005124505596335777	-0.029181696400875454	-0.3710809936691286	-0.1765746022773136	0.6917573792158523	-0.08062259087472892	0.010758995982662806	-0.5662415609368631	-0.6963132602277569	0.6665982587196806	0.20265771397446058	-0.19192048858824703	-0.7714890222144699	0.3956780125641652	0.7882840017443629	0.4789473402328824	-0.5984405264050375	-0.7960041741301142	0.6002637728794686	0.4561458814548487	-0.38099965356954724	0.5679512009586392	0.4033345867941018	0.24905237492624166
-24	0.2347917997869608	0.5092852698819335	1.5609332283664565	0.36898133065524946	0.5167477713889713	0.2840564839820756	-0.16884200232315796	-0.06024265274096833	0.3799908449592707	0.4563023734493114	0.04494618985629984	0.12249811707801675	-0.19285558115428367	-0.3899717023063554	0.7825619558603721	0.0034950270694915206	0.34183904442311797	-0.2266694152592806	-1.4357151948920133	0.8644731618989886	0.30045869870621267	0.20005024919069955	-0.2909639172360441	0.363685577189616	1.0317769024548282	0.5203773366187602	-0.19637978027353686	-0.37240540887269397	0.9165869928106571	0.6549484713230986	-0.13088010218478016	0.6893485171079815	0.5863291606404802	0.43655812630105595
-20	-0.37920182847604855	0.04299688328377729	1.179640528561611	-0.265971868558756	0.24982167717325413	0.07308353465225091	-0.2616251998494849	0.1296986636225088	0.9978864763814883	0.14431790971081998	0.032783828592975704	0.2238645398925219	0.06839536113160145	-0.5181083070071794	0.5827767834254807	-0.025377355451885214	0.5375947938697544	0.11604599625375732	-1.531046982714373	0.7271229010343694	0.19681526670832755	0.44908156877622746	0.1296356168096568	0.2315175676461033	0.9829500292756445	0.3581080129641961	0.12757113543726747	0.03403602531899741	1.0700072023079519	0.6947242600067015	0.08357179143786625	0.7656846027116077	0.6738057119523686	0.5332091437228986
-16	-0.8486539104016053	-0.4463664580042739	0.5292341099728638	-1.137757656085873	-0.18280835403540915	-0.15422350129290457	-0.30532237810296015	0.2997781030715632	0.7086279970397742	-0.3576416066200062	-0.024415610296475522	0.22481596413118576	0.3067121199970344	-0.5885762557428391	0.05779097959709565	-0.1662324513768351	0.5259311185909749	0.3556664875110708	-0.8788371063932101	0.21090333110490278	-0.09723446493633411	0.46354699017792295	0.364607631239641	0.08310461768387684	0.6125615819724126	-0.0011893728485104485	0.24872864720012264	0.2883784167638273	0.9748318766777326	0.531410275548119	0.16697742002767943	0.7667674402905083	0.6197022183984761	0.474152921433189
-12	-1.0131663058450162	-0.774248717260603	-0.13183549013231158	-1.9070432137978497	-0.6124725922379877	-0.3102140716826814	-0.30900245826906864	0.33809322033398825	-0.5369086252008325	-0.8978015161735157	-0.0914476362542167	0.11935342073109032	0.43303471694334406	-0.6351948960479594	-0.6679767949405654	-0.36330473331278523	0.3135356895160157	0.4525113988418783	0.21455237215232284	-0.5500182495535676	-0.4884147035665235	0.25227302249158134	0.4004538645170579	0.0008256061098182886	0.03635423248768407	-0.4674719262241505	0.14599764310215554	0.36220812706097627	0.6505756361748373	0.21003499574084603	0.09831678097459427	0.6794406754505623	0.44128993042157083	0.2835947566024888
-8	-0.8368408658833958	-0.8090342858869197	-0.5448644743514307	-2.194571966352549	-0.8246983864943443	-0.32506093300765393	-0.2861667864250203	0.17528890029043215	-2.136618608802334	-1.2681205240657596	-0.1256821599409762	-0.05590987563918514	0.4127986122676439	-0.6416567547810345	-1.3411234583373164	-0.5328985439197582	-0.02232232311692608	0.43229707966378855	1.187867042403451	-1.2807300058454472	-0.8389013984480787	-0.08902921505146415	0.3147307328384227	0.03223990268316086	-0.5248306976419098	-0.8967285133609781	-0.10219702098793375	0.31731614390367247	0.22463133874446012	-0.15507344862409456	-0.06978989374898743	0.5160350786531913	0.20698869176103415	0.051573797930205854
-4	-0.4190421987921025	-0.5475086555962807	-0.5845146760488089	-1.7799256995085	-0.6798799616814478	-0.1900598849027972	-0.2510523193696633	-0.16835169451647353	-3.115659467460254	-1.309310790570956	-0.10465097400946333	-0.24264542697202732	0.2759542756266009	-0.5320376740374407	-1.6945806698930428	-0.607184348957577	-0.37146431113871137	0.35521373063050005	1.5327722987576855	-1.6925747351828364	-1.0293298933743975	-0.42962166558515513	0.2128394091716089	0.1696385587939252	-0.8483054020444836	-1.151291248275825	-0.3704026034063303	0.24266567765003863	-0.12314321069621151	-0.4342408765319736	-0.24768450793674474	0.31115227859139966	0.0008070504970961591	-0.12184170602792385
0	0.049339067066316376	-0.12964767184903217	-0.3212096683021827	-0.742680845769717	-0.20853653497497596	0.028685599493081804	-0.21627695803873864	-0.584978817416503	-2.6858618191618437	-1.0059134934777687	-0.041507508500922226	-0.38864314457998866	0.09308088547332542	-0.23217196703944012	-1.5890114267284883	-0.5685663208911682	-0.6385224445434339	0.27434262564058814	1.0712810727728754	-1.633346672702673	-1.0133796904727732	-0.6642232520499567	0.16146761138203683	0.35024216682698145	-0.8221024850116405	-1.1601543397222591	-0.5535270557733465	0.19006602418119356	-0.24626526174358118	-0.5404101000493224	-0.3564053764881634	0.11206917436438377	-0.11497817159472161	-0.1779287601985468
4	0.36426272896351897	0.22337160948147394	0.026453839548197848	0.5484421239357513	0.38364058636126513	0.21943245772750333	-0.18809172463612173	-0.927309749169388	-0.7614602427331069	-0.5086136447463	0.024423520950404332	-0.463019340061381	-0.06600110216166372	0.23555993974340309	-1.0942326756507192	-0.4525499928492729	-0.7734175304913087	0.2071309382454315	0.035919330923468745	-1.1722264260260085	-0.8330232479998153	-0.7501299362317143	0.1566342856505646	0.48075148341871127	-0.5033138977694768	-0.9472380852625675	-0.6104145034637344	0.1486833836854702	-0.10325386349119733	-0.4614430654319531	-0.35980763940567523	-0.03081850513485536	-0.11965769499131987	-0.11902531951417196
8	0.3910595168730822	0.32222434796995475	0.2254650736123121	1.6017361838908803	0.8121525624751161	0.28229728269829385	-0.162195965238192	-1.07592034068261	1.9052793931541094	-0.06505877508188572	0.053987495464871894	-0.45626583580215635	-0.16586975711429255	0.709451792833135	-0.45930653694537343	-0.3211004725932299	-0.7756640295472212	0.1345193680704817	-1.0764179202559387	-0.5659545049683495	-0.5888242706691234	-0.7076100689188701	0.14030799234251845	0.4824765610434452	-0.08565611370633508	-0.6141436680546914	-0.5654184803992378	0.06890283507593788	0.2239467495986208	-0.2549226277590922	-0.26928767493923933	-0.07789327184561287	-0.03264870858890134	0.006043145883472086
12	0.1117074114244135	0.1116245535178043	0.16864991145469307	2.0297369905724283	0.8622858502551884	0.18290601624562705	-0.1260584887659767	-0.991114315868496	4.063062180751276	0.10751192244565291	0.03351361668589216	-0.3731586327668189	-0.21604064052396205	0.9414969062876521	0.015642119532074027	-0.22498680594384188	-0.6786418540032993	0.024152506081875476	-1.7827115013889787	-0.12208293347530141	-0.38412967227273476	-0.5913041219087425	0.0486534385644864	0.33628639493915125	0.20711114950341603	-0.2880968444226193	-0.474979310028591	-0.08511207976310185	0.5767387137156886	-0.012253914928790556	-0.12521274356223278	-0.01343003377652915	0.10423441949992161	0.13750308717343745
16	-0.37663665318764894	-0.2986264519304431	-0.06591743959235208	1.7228897766483515	0.5039279448184025	-0.030215715913183134	-0.06936702114711547	-0.7258657198699409	4.614840495855972	-0.06367673708812925	-0.01939946780671296	-0.2284187519743769	-0.25428855354957247	0.7356697898410681	0.13498757745517148	-0.17978408887294733	-0.5281261192339315	-0.13927617633941675	-1.8566440296981055	-0.035415243268005075	-0.2756057076648345	-0.4551052737666648	-0.14009678328429012	0.10253061328273817	0.2426826351714344	-0.06374151988625594	-0.38633203408930267	-0.29481655284834163	0.8059657791769851	0.18547883582969985	0.02786980189797162	0.14513964914394123	0.24688109693184568	0.23427531064012486
20	-0.9067923999780253	-0.6955624801240615	-0.2749708883972569	0.8809185601881564	-0.09406996494623106	-0.2554149323213716	0.002323494286929399	-0.39889424938580265	3.2170147814591172	-0.47167891144874313	-0.0738324446602211	-0.049584496641139994	-0.3185270420615497	0.09000395215675693	-0.0968597156344162	-0.16882954495243138	-0.36858785059375815	-0.338070212941163	-1.3989179099049613	-0.28854629324541337	-0.255677848408812	-0.3316837540835385	-0.38918405672995965	-0.09700273697919365	0.04995311411524213	0.03215865782724683	-0.31524029294532097	-0.4888225781496917	0.8501992204181505	0.2987966827954919	0.15826812346553895	0.3483211389330431	0.36388787535347294	0.2850340597585686
24	-1.3080110516902654	-0.8821374751707357	-0.2665343277877589	-0.10397820148442088	-0.6583247168132317	-0.3968142559046497	0.05951821416490696	-0.1421721276031623	0.47786217807284137	-0.893990752824067	-0.11383785278666084	0.11786834865851913	-0.42313960087755226	-0.7604423146122027	-0.4936692702227211	-0.16778813260154507	-0.24036382078043064	-0.5276317583114125	-0.7229329329358172	-0.6745579225675349	-0.27316918900185766	-0.23411276877423276	-0.6241148098447022	-0.1403018530641221	-0.20681485481498563	0.03682554503918462	-0.2535461777007693	-0.5850144013893441	0.7568849306070546	0.3338131896174078	0.24905693468155546	0.5226628767169021	0.43808823713322187	0.2980849139317036
28	-1.4660831652819553	-0.7862899283584367	0.01298662085532591	-0.8404470660924916	-0.958195445502542	-0.41578832163738444	0.057208668296142365	-0.048014685390363625	-2.3569304883577944	-1.11658405975719	-0.15294633767136562	0.2159398937733848	-0.55200737575399	-1.4439710342190086	-0.8021044114842499	-0.16807305770401326	-0.17864759221272314	-0.6596472842728136	-0.14992433748539954	-0.9223431325513733	-0.27213036945301255	-0.16876940386600484	-0.7742522935392805	0.022796796577236902	-0.3288051179690565	0.019330235149335993	-0.19240039538444445	-0.5439107404327876	0.6403808577581938	0.32668951071274016	0.2933638386472212	0.5923713430707513	0.46342995645820195	0.2867204241666187
32	-1.357896562962632	-0.498242257767633	0.43847137578887074	-1.1093845339422375	-0.9210424399963687	-0.34447172197155534	-0.03883802508442899	-0.14080043101524825	-4.065644253956426	-1.0471162769583364	-0.22219936493563597	0.19687777707937792	-0.670849858020775	-1.6497113663030187	-0.844927487624301	-0.18087351276507901	-0.20566886611510493	-0.7075330597180147	0.16206091601463313	-0.8501990416042167	-0.2235355669576759	-0.14483480118900716	-0.8080111721619332	0.3323379150582968	-0.1985042686219023	0.04072356958836405	-0.14044590258901932	-0.3970544924248104	0.6058540328941937	0.3219233743169213	0.2912430159845002	0.5165635334324358	0.44560167080909174	0.26237898998773374
36	-1.0517995330958043	-0.21341271644593351	0.7792636136407638	-0.9340584850570427	-0.6526142342302982	-0.2568735473823099	-0.2223305845607777	-0.3815950145623831	-4.083104600134267	-0.7549973111164285	-0.34054917011111274	0.053335927292154764	-0.7488546352553199	-1.3162848916199374	-0.6118196829607664	-0.22196026090372317	-0.31672051468993584	-0.6776012165127931	0.2475190156409437	-0.4612517643250295	-0.13541510666990478	-0.17164096192893766	-0.73981374315397	0.6370529516348515	0.1548806872033776	0.1252001818833781	-0.12165461449902686	-0.2284676277829693	0.6858592612116396	0.35397329837121116	0.2513655417771672	0.31914028444777304	0.40464442866205635	0.23847266971461056
40	-0.6770130974842793	-0.11642859846760457	0.8378835895364638	-0.526720224481164	-0.3573323181190476	-0.21809112970602565	-0.4331045437845221	-0.696709690719157	-2.7392251422387845	-0.41803207887964433	-0.4890843617488843	-0.16386824804894945	-0.7758901099642835	-0.6847009045479993	-0.24607613620618635	-0.29074433372524594	-0.4701943385650707	-0.6013825520590781	0.22882331849976842	0.07303266953864414	-0.04023605574939639	-0.24614953932604192	-0.6101146921012711	0.7693991641646316	0.5807566628098534	0.2546392374762231	-0.1538961227823023	-0.12083177983056065	0.8332629778804966	0.44018339999643186	0.1962676043323528	0.09753610169103902	0.37882918023785367	0.24039837657315194
44	-0.37696170711711086	-0.27746558119338766	0.5660131559386604	-0.16037268896143853	-0.21732176785436857	-0.2507638328896788	-0.5797974452639049	-1.013554212872235	-0.9960160230285142	-0.2195491934240012	-0.6182122810967873	-0.36285364536226394	-0.7659384588930651	-0.16702657895833384	0.04845658304974179	-0.3696549525464778	-0.5994366988306535	-0.5159589039173608	0.18682515574016484	0.5167883621519609	0.02096973540554974	-0.34701692970400566	-0.45600643638874877	0.6414233429926833	0.9001302696390107	0.3788465847940842	-0.2279505425896871	-0.10065212075332029	0.9728338693852613	0.5804992899543631	0.1612849976520673	-0.0014119384541849821	0.4222185303041637	0.30861267369554407
48	-0.2684621804135067	-0.6258380397254528	0.0824817118946437	-0.041849143697460726	-0.30744886320692055	-0.34381845506646636	-0.5973696693597065	-1.2882041898628314	0.1401953693664997	-0.2619223588052623	-0.6922866088554769	-0.465062617081445	-0.7499849777359866	-0.10704132142459756	0.11731238633578034	-0.4515121567770641	-0.6510152204289459	-0.44778880363895796	0.0950941068513373	0.6938764435415569	0.0031309032268005584	-0.4463157642540204	-0.2963101856379971	0.3030415467717436	1.0078220341986581	0.4310122121419318	-0.30623137873581224	-0.12133787541749012	1.0753565999537478	0.7599669675713191	0.18366220547082204	0.16293764073242084	0.5923718199079083	0.4903221714038097
52	-0.417129634757701	-1.0155323718180462	-0.4187568117536385	-0.24088941453673304	-0.5939353689457088	-0.49685788029157496	-0.511018036505824	-1.5169327220764852	0.18735593510054963	-0.5448996410917595	-0.7470774631711837	-0.47153189659277583	-0.7671568374338427	-0.5668585286133755	-0.08291609564350885	-0.5794555530223364	-0.634743033237058	-0.41247752204704957	-0.1378211077548336	0.5603726492085166	-0.15043756327794228	-0.5381616936447818	-0.14235198461831797	-0.07521831225239473	0.9220406985845466	0.3410046390030139	-0.34854090125777515	-0.09588587259879279	1.2012866705128802	0.952415285090042	0.28497478293948914	0.6609123928549773	0.9313343739837507	0.8209136703745968
56	-0.8347504117871112	-1.3393092121642236	-0.8080466965301296	-0.6952599269479456	-1.0032153104248884	-0.7641451339502356	-0.46502634765519074	-1.7292178825588882	-0.5993635639316988	-1.0091727946551476	-0.9159057713272392	-0.49761128299963375	-0.8578646757401363	-1.2748776642083064	-0.4988263236803124	-0.8645168521034986	-0.649888573436246	-0.4270912398045718	-0.5555475936214861	0.19126151453843526	-0.5108601438022127	-0.6614289267052966	-0.02091578761422877	-0.2887766651968886	0.7550491075526076	0.050497677049696404	-0.34484046610552727	0.043282858918107	1.4812183342729786	1.1311680049947224	0.4621878254665413	1.4521678649478253	1.4512213431911818	1.30896055367914
60	-1.4999401531496606	-1.624735947321581	-1.1224747867854694	-1.2796831098672552	-1.5091595611616622	-1.262483474405004	-0.6892792565109274	-1.9763835618664956	-1.4744356833425323	-1.6085398156562345	-1.3951613867821215	-0.7457119207628272	-1.0643072101424724	-1.7869330599491822	-1.0505632135569944	-1.4559057914215423	-0.8623012878581463	-0.5257165418703251	-1.0760669681083874	-0.29879158659837646	-1.1467754811897533	-0.8961296058917871	0.011340416939237005	-0.21692931597299706	0.626395462361985	-0.4670348155627938	-0.33042067205929215	0.29451957270649803	2.037800306897285	1.287277695266782	0.6975059491667012	2.3936729370717913	2.1327464526689215	1.9354144285928574
64	-2.3874275624079937	-2.0485017247932404	-1.5643448790154968	-1.8924839448831923	-2.1736457292990594	-2.126388782854651	-1.4059978688027968	-2.3215982855356225	-1.7288969711522277	-2.3553037583966914	-2.353673928994068	-1.416748996972369	-1.4313552343469909	-1.766433711360496	-1.7028191046638077	-2.4676062998459427	-1.4321211540304208	-0.7613440136760883	-1.5103312692656985	-0.8399529435885512	-2.08590793082978	-1.3272407021391517	-0.12003853141757012	0.10179452572394293	0.5777500257210394	-1.1840310066846813	-0.369160412810025	0.5796774611142749	2.896109812100257	1.4487426244398107	0.9832646821946194	3.2989978706991514	2.939020626277196	2.667407029093081
68	-3.486130228777713	-2.8512606548801163	-2.391285890263853	-2.51181721053144	-3.1062614839329563	-3.425493231707906	-2.713326447312107	-2.8302574086257715	-1.167805787952758	-3.3027589237749826	-3.825906743880553	-2.597839348909836	-1.996228928294357	-1.2199933498098274	-2.4835417207957	-3.89376591653027	-2.420622581092495	-1.1834341257734076	-1.6746982293762245	-1.4398248159296112	-3.2709472096829364	-1.9874161431679866	-0.46402042987017855	0.4842053043538236	0.5458552227543859	-2.003175968834679	-0.5072756396837602	0.7906402925556745	3.9417147536894843	1.6890877442629904	1.3481240238485113	4.022200574256541	3.836231460422479	3.4777555377893354
72	-4.794207560832801	-4.196354378595897	-3.7595596218556806	-3.19587206033635	-4.369542110855174	-5.0907816758371975	-4.504233348918431	-3.5561599641660906	-0.2501915090919905	-4.478209484238041	-5.650100693742679	-4.186079014699721	-2.7683749129018826	-0.5359786139307502	-3.4393188866565203	-5.564108834523753	-3.726946582921297	-1.802658314921992	-1.5210182628376545	-2.1462941115550054	-4.540793407419876	-2.8118710446890383	-0.9971183513262071	0.7015801054407471	0.41105526581933244	-2.764859907799063	-0.7269240003352561	0.8581731893807147	4.957109915615604	2.1107399410362504	1.8615223122327862	4.522219646480442	4.805440890577389	4.353937614892374
76	-6.290373786303391	-6.048893436418686	-5.606656537205637	-4.029089440663709	-5.89245413246185	-6.896268827193087	-6.468883974909093	-4.513895500230706	0.18690602434175968	-5.81437157116607	-7.494093876037728	-5.895548328773619	-3.703988781160412	-0.2873781614200545	-4.561014163899586	-7.174468499189675	-5.096915709024835	-2.5622007782142924	-1.1870026558471005	-2.971824400074379	-5.659790978447218	-3.6376418975541185	-1.6057978827941999	0.611594735031952	0.08977276064141808	-3.2858652985582357	-0.9331632828994213	0.7967153171451339	5.7206988190222	2.800803177437929	2.603531354052936	4.869273173436247	5.83412502723192	5.287724958421018
80	-7.892283896547287	-8.140579203079826	-7.637479285984552	-5.037020193734162	-7.446797828946446	-8.51189611193238	-8.186969736409967	-5.642588124334157	-0.5561913833880796	-7.125460606704766	-8.964225746410474	-7.351762753045029	-4.6893300891737635	-0.906444606876639	-5.729653820830645	-8.385803201484132	-6.208215697826739	-3.335401765031679	-0.9302699542400392	-3.8331544302483627	-6.3895516234248175	-4.254337300049847	-2.1165189689605026	0.2426463210416967	-0.387934773180944	-3.4186997327321382	-0.9879710649342017	0.6975452286275089	6.113195880714346	3.7754771614120504	3.609700909084013	5.18585394503686	6.888254625095401	6.249332889037625
84	-9.43078515532774	-10.044125531586822	-9.421622252518842	-6.112531646554646	-8.70798299498223	-9.608660673677475	-9.274919486470775	-6.780518037842996	-2.5991842681111526	-8.150127390311578	-9.74866483134402	-8.232040384489533	-5.5515246251133865	-2.4122800766122148	-6.722499353602272	-8.946795440973524	-6.794990999232236	-3.9604451556349924	-0.9752117370779272	-4.549097049671861	-6.57180879841022	-4.4860553628193065	-2.368519777040082	-0.219666301649528	-0.8655135013662716	-3.1048052232554806	-0.7776576260959904	0.6700471026669668	6.1729273640230105	4.944650637540371	4.820887553441222	5.560771451261916	7.886708716507652	7.165554982213888
88	-10.667139026412789	-11.325506181732994	-10.550725910251627	-7.003223878345171	-9.371556258382553	-9.96795174943051	-9.522009825507576	-7.67780492751482	-5.365052686497268	-8.641600587007739	-9.725226377728879	-8.383631685071158	-6.099945529795651	-4.3545827755657935	-7.281918984147881	-8.778916336783121	-6.749711496477904	-4.297553528425843	-1.378542419767806	-4.901898848555292	-6.180474265706837	-4.262540806498861	-2.2890777530096966	-0.5374243245861272	-1.1225273580820285	-2.3934478699336874	-0.27505609323674823	0.7704506497004595	6.069867118769297	6.122591956893015	6.071528896261439	5.987568363331329	8.698688485118002	7.9196839132627765
92	-11.355329484880354	-11.70316311742501	-10.782941791012993	-7.384387951326916	-9.26936814828899	-9.54755780670528	-8.95390412931007	-8.061967829376933	-7.850797633376883	-8.461938836667885	-8.98508451100625	-7.863563994581224	-6.189093097319598	-6.014335140302324	-7.2174596604275685	-7.985050658092859	-6.152338489258098	-4.284259785325862	-1.9959800192984034	-4.733475196331595	-5.3183178767397745	-3.6436958220993807	-1.9337198685461714	-0.5603623376049965	-0.9835858916245029	-1.4170767033085168	0.43778163084127136	0.9571645831737543	6.009295448389999	7.085324746362984	7.128823739173081	6.360429270898247	9.171892142980894	8.376322725128674
96	-11.334646196358355	-11.147812815177232	-10.118503545009874	-7.006107789470702	-8.434932687444077	-8.482649781744989	-7.8032412331978795	-7.745595435613929	-9.128540969689466	-7.6391033933412915	-7.77051637595018	-6.888857824099005	-5.784064755141514	-6.757477743253951	-6.493556959923704	-6.785868627581684	-5.216842161358769	-3.965593566419113	-2.566592210011677	-4.02664374288546	-4.164914120649153	-2.788418285959188	-1.471894379714305	-0.3173994413945358	-0.41515937342730247	-0.33777660046174074	1.197853562191775	1.098178622334177	6.119794830130058	7.650860290284265	7.768742541726143	6.533225996688784	9.184927917178939	8.421509721474548
100	-10.612164470582348	-9.884349798042463	-8.78684899972696	-5.850496277343175	-7.091982346749007	-7.030416947734523	-6.4094104605023645	-6.735152704400403	-8.793532349319461	-6.362107260853727	-6.368002398625709	-5.732283577751496	-4.993208395749074	-6.346577151487419	-5.259929166865219	-5.425646768222945	-4.189213742169834	-3.479467144764384	-2.8635435032072594	-2.9292299673511093	-2.908667080211253	-1.8877044868492998	-1.1164208622402072	-0.0019468635970001803	0.44176936038061126	0.7044234258032889	1.825060362976394	1.032151458041651	6.3852066832502405	7.742865066052952	7.854234675604534	6.405931933442055	8.69975660034968	8.001161555116392
104	-9.380638098874758	-8.294995286979514	-7.153748017369431	-4.20519064795225	-5.57251547360165	-5.485115991095261	-5.093239294544372	-5.2722682819768885	-7.115626317178814	-4.916943537695774	-5.011247622235511	-4.617023456360714	-4.042926301285513	-5.039346682223162	-3.8070862197123723	-4.0966224566980385	-3.249659291645863	-3.0002491398402604	-2.8155462670766096	-1.708303685643613	-1.6977194504789903	-1.0957200499526891	-1.0309478018480958	0.13727252150686717	1.321028110029898	1.6162239272319878	2.189012998776252	0.6485111697036091	6.653927786239998	7.406526070014919	7.379329185928311	5.981240734257949	7.786750296960219	7.141969662754393
108	-7.955269793452472	-6.772376043387234	-5.595818505464202	-2.5937898093540204	-4.2075748337372465	-4.102018822803799	-4.064537991752188	-3.766272773770494	-4.846604811829661	-3.598265161966279	-3.8390114210477844	-3.6630813982986057	-3.1986329474753754	-3.4349901589452814	-2.470491641482945	-2.9168817923334576	-2.4711699423387765	-2.6685118607858485	-2.5323483880003557	-0.6600550396466927	-0.6325219853644003	-0.4967491316174568	-1.2649037806046428	-0.06842952949413268	1.9342327069085241	2.3381423891162894	2.2407350483588013	-0.060483742352605195	6.712457163075868	6.766236288153712	6.454404814636812	5.35224960883184	6.601557714961087	5.940589889786609
112	-6.654903871900375	-5.5861835338698755	-4.387231338868374	-1.5727931221353413	-3.232670775834873	-3.050882808611959	-3.3931789312523826	-2.634389870668141	-2.8156545091112486	-2.6291842394251805	-2.909887783333171	-2.8988864348654637	-2.6634373597610628	-2.1614150946406077	-1.5209162196860566	-1.953638191059054	-1.8445252133529701	-2.540774577401689	-2.2248561326121483	-0.01229350358869236	0.2125110471843703	-0.11506900907312996	-1.744911666279336	-0.6224523170968245	2.08024143647458	2.8156015801868217	2.0011138865492355	-0.9992386673494488	6.384116633509341	5.955265983804731	5.247919546229037	4.633981693012235	5.3283629282891205	4.534117687221887
116	-5.677048668833334	-4.808981406468108	-3.62694739379694	-1.4685000144122058	-2.7295226981867424	-2.396043056160656	-3.029923669794636	-2.109979147352258	-1.540791030808363	-2.1053125805152852	-2.2374553623929603	-2.304487222575284	-2.493097775840543	-1.5736867149675577	-1.0764678689481344	-1.251525875746451	-1.3334276642512166	-2.5765435630596722	-2.0786733574837877	0.1481484021976394	0.7741388062959147	0.056821707492656914	-2.318845504628266	-1.3730820382737186	1.7176614956404335	2.9902744217715718	1.5293723306189917	-2.012740845366926	5.608839497710379	5.065820681179759	3.925817479712287	3.8873734376035385	4.123273839077039	3.07404612718751
120	-5.035570608776885	-4.3326105962084265	-3.2355756677953122	-2.193567032044173	-2.6241211824921624	-2.103605026656071	-2.8597373890200917	-2.128704542507618	-1.0567128631615244	-1.9810593078187406	-1.8160331203386633	-1.8542679501447785	-2.575606101209012	-1.6293038088670553	-1.073536154897614	-0.8382514694030887	-0.9223427749235056	-2.669006102499078	-2.1677870695695884	-0.10541556003896986	1.011671182939245	0.03572304537813836	-2.827043287769018	-2.109813923277358	0.9705530380540447	2.8263502049613196	0.8970594383479356	-2.9463531896589514	4.470065105596495	4.14753674413663	2.621099703846837	3.090138904399077	3.085611335593369	1.7134705738675673
124	-4.594939220271452	-3.960684289469228	-3.0178959293464875	-3.2598135389041616	-2.732722990765943	-2.0657205529510607	-2.756306879713968	-2.366162532554456	-1.0205706332189002	-2.094696039633276	-1.617949124066011	-1.5294578036793838	-2.6912581852676043	-1.9887387702322132	-1.3012973037290054	-0.6978414637112947	-0.6217807515658357	-2.701912634703595	-2.446145528339457	-0.5702649936583333	0.9464583969062291	-0.14632283114206787	-3.160473815567934	-2.674853079718203	0.08003925511894615	2.3653161466007826	0.19048088740894406	-3.6844694521386487	3.1741580882994977	3.256932488801572	1.449883814965799	2.1868944112877045	2.275243753410835	0.6117705687335955
128	-4.183835972713196	-3.5308375269436465	-2.767781965897154	-3.9978203672563275	-2.83860801933772	-2.1386241858846726	-2.6192674570710675	-2.4165170131707314	-0.9978689526159685	-2.2270786706009216	-1.5761158426546011	-1.3032287326334309	-2.625739090965861	-2.253830188782892	-1.489083405549813	-0.7389749865948083	-0.4364185918279891	-2.603632681948798	-2.7956614423740063	-0.984307942289489	0.6968340856124893	-0.41769754781168705	-3.2821166432484863	-3.0208010597255055	-0.6753414852257739	1.7676575139239346	-0.4686495947926494	-4.157186497682824	1.9962887713575603	2.5155906613733534	0.5485253320196477	1.1872494190758476	1.754144664150312	-0.06473393721926057
132	-3.725386610162174	-3.012529842400197	-2.379897826861819	-3.8928520581188812	-2.7776074339357018	-2.191426271627825	-2.3949019848439566	-2.0309526869041976	-0.7447557430537546	-2.1812848989727653	-1.5828409154983398	-1.124624845526379	-2.2848286571036764	-2.1975185815642257	-1.4155799114726961	-0.7981736043805268	-0.3281721762477846	-2.3737676083714367	-3.0888774317002357	-1.1148735256657447	0.4688811886393394	-0.6520133002031899	-3.2098448195478984	-3.1872157970067647	-1.0619297000776744	1.2975919213912537	-0.9129589773016286	-4.32227324348184	1.2121666639241315	2.1237995570921453	0.09069646872033137	0.23879212080747772	1.6133332211769693	-0.163656934682593
136	-3.3019003784738055	-2.5313382084832527	-1.912866229949835	-2.859941475323287	-2.5018331941381904	-2.1517908518823137	-2.0830972142078483	-1.2784235445170418	-0.3182857922624304	-1.8579955054103305	-1.5212787351346653	-0.9233795381121112	-1.7468656257394295	-1.8532963944373926	-0.9964228247280791	-0.6943604332559111	-0.2064537251743645	-2.0690607972358404	-3.2238750376368652	-0.8359649756306328	0.4895963060415676	-0.6848192197675798	-2.977648965947125	-3.2215268530572225	-0.9501332020612883	1.239148613662222	-0.9532891487848877	-4.1443228616984555	1.0321464512515026	2.3034849108712714	0.2561229162902262	-0.38690149686404895	1.95555042726791	0.40676867859184324
140	-3.1158773820410026	-2.308855527770554	-1.5691068132838695	-1.302780148077984	-2.0957615322605907	-2.0319445081907563	-1.736325259593251	-0.5250221477604451	0.015541418416302825	-1.2971971002252585	-1.321430441381116	-0.6446360333379656	-1.22194909740926	-1.439106103124724	-0.3136973373122384	-0.3168470851527968	0.03497203430644516	-1.7613844827050313	-3.1300835530409024	-0.1678314204747039	0.9042376853047573	-0.3708870997601638	-2.604752057174854	-3.1121804635627877	-0.3405406764492537	1.7716186001871272	-0.4432177234426741	-3.5960121063994577	1.5454260071836847	3.1869006076459883	1.152031776380645	-0.40840193526153257	2.8309466767362137	1.6190574128281665
144	-3.3664600764156667	-2.544660323394076	-1.5942478139680754	0.07740171234139129	-1.7344629720765905	-1.9185696791847027	-1.4460271560399893	-0.2300280028734435	-0.0037674086538951757	-0.6642260534682541	-1.0065300439217686	-0.29022809789814963	-0.9364773011405659	-1.1821080416397927	0.42576098334583323	0.30324077529640237	0.45678713802404575	-1.4931820593327998	-2.7695922781637017	0.7352535706076524	1.692219968338029	0.34372627648355397	-2.0912184662472804	-2.790172808278367	0.6448461397102684	2.8677005695419786	0.6444534047068349	-2.68311499871895	2.686079733742593	4.711842048192854	2.728967898154574	0.3058884434129629	4.163025845507437	3.2923118985022866
148	-4.109503258820058	-3.2947990811131946	-2.1367325728828566	0.634227870293565	-1.5987161357570259	-1.92423665037706	-1.310837861566246	-0.6633201224746001	-0.4315040100647319	-0.17909529759966195	-0.6931656581544049	0.06704178435565337	-1.0014772389876263	-1.1623105973462096	0.9870262717122523	0.9884659026938777	1.0287897560848065	-1.2534916369261802	-2.1529297774318064	1.6474139648805965	2.6557247571651788	1.3775452340632313	-1.436497207829492	-2.1989226285730097	1.8033771469361681	4.277345169712216	2.17595457481325	-1.4711689911892198	4.237648953229187	6.593412859482383	4.748185145787864	1.628171320619182	5.719399437769377	5.116185652213488
152	-5.191997038130482	-4.41542481261311	-3.142567626648299	0.09895274763158084	-1.785751934311295	-2.12441062390884	-1.3966040576006227	-1.7138255791309531	-1.0662142011426017	-0.017535127655103212	-0.5380221591717149	0.3104288272172649	-1.3432632650793503	-1.2768326965520032	1.212560054578656	1.4886618815030257	1.6300539929243043	-0.9909210180059774	-1.3733316625254077	2.3569638669587842	3.4948131949880903	2.5261292393801935	-0.6671871526085746	-1.3866246903696535	2.9095694945308743	5.614450440536789	3.879902591446253	-0.09318811422900562	5.882310375621006	8.402806260828411	6.832562906180834	3.1893942275585156	7.162079793013678	6.736447317281656
156	-6.3037924607385065	-5.603608594098098	-4.344897736069982	-1.2938463655230248	-2.255249732999279	-2.5100850995586406	-1.7031605200682192	-2.9078569338815115	-1.5691726168115354	-0.22513352277658608	-0.6532696469025936	0.33902907285924383	-1.736206050304001	-1.3386599983749692	1.0919246646015537	1.6025456149648865	2.1011538452505163	-0.6537608487789475	-0.6333926304084362	2.7453601291007366	3.939892282075433	3.5347006231710756	0.1485171016281279	-0.5470582232968503	3.780177822105749	6.514365179780836	5.436775193792993	1.2772409883676836	7.296118241009004	9.729771589509395	8.591549851660472	4.532917964934877	8.170111635561415	7.876081923626767
160	-7.121518593927853	-6.520580752122322	-5.365931497377618	-2.9378220960830785	-2.8429961132750057	-2.985057108018265	-2.157850021636303	-3.6456203368650293	-1.678737516933165	-0.6921148878743125	-1.039988634344801	0.12494422463819758	-1.9232166956982386	-1.2295213906716969	0.7587113957322955	1.2807327476590997	2.319734567507491	-0.23331621230346553	-0.2027438426859436	2.823643677258192	3.873238315340032	4.1978282822481825	0.9122826433990698	0.04274837289388462	4.327021111054082	6.784869176900614	6.594515306989365	2.4801018175451075	8.260731676226177	10.350238773916987	9.763048147347742	5.328788267033164	8.577185609143028	8.435206391972194
164	-7.472137909143698	-6.944501859297873	-5.8911051601447	-4.171661366420692	-3.3407032405431965	-3.4159781846585653	-2.648781054484956	-3.5373651892043876	-1.3917013371616458	-1.2070859640163047	-1.5829796751110266	-0.27086043289463435	-1.7631893113442734	-1.004956362094382	0.41450279846443683	0.649760959892104	2.2539856376960743	0.21436759775398564	-0.2985420517536543	2.708921902492905	3.373392811841278	4.43490647149947	1.5271019897052291	0.16750940638211786	4.576835143931663	6.472791178573544	7.251649838258727	3.421028366988344	8.74317262349446	10.311465237332753	10.300127003413625	5.533122048713315	8.45001695406859	8.517991044473144
168	-7.417597275126127	-6.8714117830358745	-5.821123585309179	-4.599740970442435	-3.5972974209561492	-3.704933395568428	-3.080364934773485	-2.641267769820698	-0.9896584128188881	-1.559643622275352	-2.1094067043452807	-0.7326659541705515	-1.3166482415335707	-0.8724483825590899	0.2262145871173091	-0.05410492034007324	1.9675944993886858	0.5883100613999444	-0.9428371167220432	2.56001781770955	2.6638262204625955	4.307526100727325	1.9369764279098975	-0.17725527241776887	4.653598773651183	5.818294033619546	7.47057245275727	4.098369111204127	8.904719330239914	9.891666387379459	10.36068150765527	5.399040208536703	8.058902720131742	8.370606401290567
172	-7.2114195641598595	-6.512211306342671	-5.3202457293655225	-4.247883785967019	-3.5902421383811887	-3.8448402784549427	-3.423540821968573	-1.4595043622361261	-0.8891096688710891	-1.6412993628071062	-2.4806196626976087	-1.1557087869075553	-0.8180270174354127	-1.05742859573418	0.24863679644275566	-0.6064102634378333	1.576408739878288	0.79427754678462	-1.8847532224753423	2.504063361521476	1.995011563032538	3.972697724802666	2.152428144742643	-0.73163014465626	4.7266130328052185	5.124199377474017	7.417956333505347	4.588963020182781	9.025201774698907	9.453328108762035	10.206003163319233	5.3267764910677835	7.746275882236967	8.255068758149655
176	-7.15540550332716	-6.188375934235472	-4.735452640021671	-3.4941985518927186	-3.4289936932774374	-3.9238660236472676	-3.7297909165627976	-0.6861377341113272	-1.408198949119505	-1.4913276396292299	-2.664005749652206	-1.5020478925928864	-0.5511032328996748	-1.649335857041882	0.41114443436769127	-0.9033195353589554	1.1860116690255669	0.7970262745761421	-2.662913792562678	2.589419835228701	1.5258408746342553	3.600387325733504	2.246033901265955	-1.0636001798479318	4.94387863818319	4.613398063456049	7.269739609483807	4.999248015179626	9.374566054517532	9.269944167574645	10.0663470967773	5.640969262186144	7.76198146767705	8.326722124057614
180	-7.435642223658449	-6.177671416897996	-4.425362575802131	-2.833888285157742	-3.2924773609957656	-4.076106061180989	-4.098607529782626	-0.8399321415675771	-2.5632784301891105	-1.267561551708467	-2.7454593112293924	-1.815135474390612	-0.6984031182775952	-2.51376699766641	0.5693302140166809	-1.0011844609732288	0.843862829462011	0.6415058358208442	-2.808100931707224	2.78283571494362	1.264818903590697	3.298113814610075	2.3177127779618143	-0.7759691457230562	5.37582157685094	4.345904816145565	7.132563572995426	5.409046636276331	10.088126157086082	9.413795447423858	10.043386433993472	6.415978415502872	8.14914033739659	8.574356057453395
184	-8.0283107554873	-6.584343893593415	-4.586683738572325	-2.6213967733956474	-3.332302800348341	-4.401064384792922	-4.608639228629197	-1.9840451428865806	-4.017006863942505	-1.1549946040556596	-2.871678345105666	-2.1783819143609544	-1.2459858624471447	-3.333319417167063	0.592528222495404	-1.0653020116612621	0.5362299071124887	0.4313910294608454	-2.088005775901998	3.0063896103295176	1.099163052644802	3.083028070295326	2.4480900702657	0.27787870098528283	5.99335239804573	4.233301152031669	7.023222905546875	5.838725075285492	11.110090227687023	9.760226225052621	10.099792454969226	7.449994545246969	8.744582154130548	8.856494881203954
188	-8.723468758492936	-7.297496300392732	-5.168092237775796	-2.9231254980672055	-3.5953104405229332	-4.898661124259267	-5.253709302989321	-3.6882965471607245	-5.220309244327311	-1.266586062094536	-3.1584024349579294	-2.646790736191641	-1.995683903423907	-3.7595255279989552	0.4326294053598947	-1.2634692160178105	0.22334897461767764	0.27438542177542885	-0.6566951258291868	3.1842470088672874	0.8851776696744735	2.9076268599532593	2.6609752111008973	1.8888696384424273	6.684720499327537	4.12863348872171	6.906792146410903	6.252284034202293	12.23032185327668	10.09339902236818	10.130143140012226	8.397302606362326	9.289064383896	9.009127594136464
192	-9.245702720187118	-8.055045107531619	-5.911300644255088	-3.5404720217008157	-4.005436887165076	-5.45661018901269	-5.922033771821984	-5.255360113226852	-5.666388974188616	-1.5891803462913552	-3.6172218231427835	-3.194793454687218	-2.6749889783079475	-3.588206520557959	0.13929912412759735	-1.6662223297012742	-0.11426136613846251	0.22574068548905765	0.9820589398385021	3.2730035699224955	0.543329416333761	2.716337673958557	2.9130747244719757	3.5615141301834563	7.302321415584407	3.9313304325029335	6.759547693352483	6.5892891717486535	13.191870656085818	10.244152996902113	10.059952710501939	8.97542283653113	9.579755758894496	8.956903435027595
196	-9.39474866402468	-8.569691636383627	-6.486310942485944	-4.160262097345469	-4.4035253413601945	-5.892466053390776	-6.42911051080663	-6.076598152077498	-5.126309858730896	-1.9941503951269974	-4.1361613169192575	-3.7077207471696667	-3.072715989938061	-2.856833212315388	-0.17470961765048387	-2.2024691049281917	-0.44386738426676325	0.267385720531581	2.2034835759797073	3.268929234834516	0.10956911715023683	2.499405616171907	3.120156995525071	4.737589824159341	7.723150233796819	3.6502520945895416	6.613713247767311	6.805746538145511	13.8150281557332	10.183274243393708	9.911371206055295	9.125748611298079	9.581068968424873	8.767180420675055
200	-9.127854324183387	-8.648874261000605	-6.641870481888116	-4.522079933193441	-4.619600761194295	-6.0285973396681705	-6.59147308592771	-5.918134674389201	-3.754081955014652	-2.3032097758316827	-4.524006355307718	-4.024301995607437	-3.123306266528472	-1.8205993129540878	-0.3931690742579691	-2.690406315686625	-0.6826700550963396	0.3354181936855449	2.5657808715890424	3.195791951693974	-0.2802923910693683	2.3132195414314105	3.2074010291182775	5.059499727826577	7.895662287804627	3.3947250757339527	6.554619295737554	6.901426297883191	14.07078548693562	10.020983670683336	9.795400594775828	9.030781723110113	9.429463362728539	8.612760522078112
204	-8.54802320229527	-8.255513170379977	-6.298027499510386	-4.512700069478109	-4.537452686297939	-5.760824188946528	-6.304513915357046	-4.987668978496213	-2.0134534784980618	-2.3679597317991865	-4.591503131718116	-4.006005277056219	-2.8986506388913273	-0.828872380548137	-0.44052263983131446	-2.919280998488899	-0.729688463752959	0.3770966520325416	2.0230343290750685	3.0929126661413413	-0.4553778160042122	2.2583565654957076	3.1568806091713664	4.539641845685723	7.858900527185772	3.30991481899007	6.673246843655821	6.916372758569332	14.072662317985568	9.924701665616364	9.838624929383492	8.987089134414273	9.335637069020114	8.664453484594084
208	-7.819258193301484	-7.489588718578399	-5.544888005562271	-4.160319794641466	-4.123085965237181	-5.089273916746766	-5.5841441013493895	-3.763262023961201	-0.46366086485147884	-2.1227178520014927	-4.228366841131041	-3.595308294755727	-2.5243215497180094	-0.16380128223071336	-0.29007860944943037	-2.737737410308947	-0.5085508214508654	0.40006410974585566	0.9360920763223552	3.0129933281168	-0.2852329008530373	2.4293117461859133	3.025247566214523	3.5468673616504893	7.726159076257484	3.4995062262872767	7.0050191702412725	6.901379091004648	13.996032679507165	10.010883306023777	10.09327027633579	9.213647819145002	9.446440672866338	8.979142166355723
212	-7.073210221552261	-6.518376810782671	-4.567715156466895	-3.563900461735659	-3.416791668848406	-4.105362881785834	-4.555343139591393	-2.7088701656613705	0.4730940151191053	-1.5921977718208464	-3.442930689702211	-2.8349838185259477	-2.088429445715992	0.0658557860380682	0.054458886247468516	-2.1087739414379425	0.0008683485771957424	0.47711685179412927	-0.12813228336408863	3.023062221523996	0.27048665216819157	2.8650190757895935	2.920017473477884	2.615266793323844	7.638188819674167	3.978850831476584	7.4962534715217775	6.883687478805663	13.973883593564551	10.276280377192093	10.489377948980733	9.70970437459424	9.748422598068263	9.44986817835085
216	-6.366492732186649	-5.505482182907855	-3.5574800878352426	-2.821844570664834	-2.5062456067704826	-2.9514627382147767	-3.3999426279058382	-2.0507442899426076	0.6480323655933372	-0.8624385573547175	-2.353874439018586	-1.8457227898727737	-1.6058392484175694	-0.07387484591429114	0.5793426618254168	-1.114828822182276	0.7534264903119838	0.6974572521720426	-0.7025834900283627	3.1953220286757515	1.1536520690401284	3.5244178682989658	2.94150208684222	2.179551357488495	7.70345542870128	4.6763543964575005	8.018977144976198	6.845048887136858	14.025720560901936	10.603687259605216	10.857936831717204	10.246426556466686	10.067834828707138	9.846169446881534
220	-5.701405033975697	-4.570084560300025	-2.654381983731069	-2.0094768950272663	-1.5009714327109607	-1.777328725142193	-2.292369121485884	-1.7296435789307993	0.1880340720436083	-0.04077064608174686	-1.1461662025123975	-0.7804346660937093	-1.0512746545952374	-0.41972353948480984	1.2610983816732104	0.07712103406985261	1.6500219065015145	1.0974712344117687	-0.6439678652717205	3.578970661664041	2.233023876274388	4.296957481979595	3.1244964520723424	2.375380510054987	7.949504832224352	5.471909509195011	8.427206018152061	6.730391008550609	14.05601974753198	10.832328769037717	11.014057131616006	10.49553773137485	10.166807149013897	9.92752930995737
224	-5.078145491176718	-3.783029785141761	-1.934507603529534	-1.19945132429559	-0.5171638118084532	-0.7115349751627754	-1.3539530004649591	-1.529931779813441	-0.6130079015513639	0.7725007514523331	-0.014268051796890984	0.2204438293374987	-0.42958927046080153	-0.8102979639576122	2.046352381308066	1.2683275906011864	2.5632152492658085	1.616688247413616	-0.15547394713249044	4.162064541798926	3.3445410644013047	5.042395102167858	3.4133250627170213	3.0068268700024863	8.305719354640425	6.243880256147339	8.623875596207764	6.481817229118383	13.915248835716984	10.844952555932116	10.85125062110176	10.21233746811281	9.874545072420245	9.564489340476008
228	-4.528105247509283	-3.180147162991408	-1.423848863821509	-0.4795098590665299	0.33450788175051105	0.1517218496545139	-0.6383637769794424	-1.2731068102165004	-1.4332953655295315	1.4951716623703792	0.8871560074342186	1.057092187119917	0.17954936578241446	-1.1397868366074833	2.834783546920008	2.2785966338802752	3.3686308775729055	2.1134090370225533	0.38881251117769033	4.848310458340247	4.3297848592160495	5.639648900098414	3.687091102827831	3.6852509882389706	8.627463318977027	6.899513704046467	8.599863030655596	6.077535137091002	13.484840359020458	10.61966130436469	10.39087197541352	9.36716744918953	9.176094985682685	8.798075653751349
232	-4.100482453483947	-2.7711520125042464	-1.1149421902163525	0.05999753609052899	0.966790435257453	0.7578940968451988	-0.14513692223144964	-0.9372280216396166	-2.012039179490402	2.064856285604	1.4742934666604572	1.6775759416187148	0.6454000456727677	-1.3464057411532646	3.491385212666423	2.9845032616604104	3.973628749351707	2.4380738673643525	0.6982880217088245	5.475582108978219	5.067133413872978	6.024729236650593	3.824193944812612	4.054335107103876	8.75844476395883	7.3841275982391945	8.426938035669828	5.556039796153012	12.744041410695482	10.225687954834475	9.763925527716621	8.159264543913997	8.217053392645047	7.814552764236216
236	-3.8132014178323086	-2.533321374219213	-0.9673093532935575	0.3637433638925799	1.3368967737776754	1.0958788367259698	0.15630435904140458	-0.6322537048589436	-2.173212761160504	2.4397759375962615	1.7431050495007552	2.072661156189763	0.865903554160697	-1.3677328790465013	3.8905751606942096	3.340977421908471	4.338059891238614	2.5203530724788834	0.7443901281636254	5.8747157902214795	5.493246064622098	6.20263956411279	3.7686030769567496	3.9767398733825488	8.601809479930468	7.67525766342213	8.21028039766703	5.008566843738862	11.783592194370383	9.772094701890332	9.13736913281415	6.909256440838275	7.225107174751522	6.8516268557176625
240	-3.6104948429504167	-2.4005353390167454	-0.900689241996303	0.45171877627765633	1.4611676894490289	1.201615330523342	0.3087966732335012	-0.4682561147311581	-1.8177659465671985	2.6058115893377063	1.7593401626036864	2.267978662486795	0.848733422997535	-1.1138298483383626	3.975422610736338	3.385486594235671	4.481225956093219	2.4153611599021656	0.7530972342550759	5.9473633616017825	5.614003644120681	6.22975824690565	3.5607354551060766	3.583322277558816	8.169885614748999	7.774586181085168	8.027154902218733	4.541930664039319	10.76667210721618	9.345649695642784	8.627677895697676	5.9005999416148684	6.398625834522513	6.089628681066816
244	-3.3731448565196387	-2.271334403979177	-0.8031527379739127	0.4236852217944486	1.4092088902180295	1.1513873309629605	0.3589971652503881	-0.42828613411536726	-0.9271813011602213	2.583459132347632	1.6312928158581883	2.314532989380365	0.7287520747859019	-0.4990349101341772	3.7934160136769397	3.22079943797422	4.469189632576244	2.273122066480767	1.0204777691825746	5.719167218073919	5.498029694981114	6.175681575441838	3.3089466011427833	3.1703393379276696	7.585024814528852	7.702053050622545	7.883367995385716	4.2263460052596775	9.860007261177651	8.97203347801918	8.247360208669605	5.261293397971394	5.8246116491126285	5.5834207393822215
248	-2.984334222888254	-2.041737551302628	-0.5652119503056126	0.4118949462504858	1.2726097074803286	1.039939400908341	0.3555274298751609	-0.3476623585983264	0.40239852565259	2.423415177902461	1.4712967835472957	2.276224369024204	0.6992889625060105	0.483285098047782	3.47787403182285	2.9765798970411326	4.384631622688414	2.2459225597897956	1.6828478532264983	5.329436288729525	5.248294340234438	6.082801326652901	3.1188216130668946	3.0101435108479944	7.0229959310601435	7.488023739029128	7.709894637669397	4.058909882788126	9.166170097096902	8.614886262124015	7.910171011980642	4.9399552220554	5.46319531015085	5.265343175945788
252	-2.4113945900116676	-1.6522834259278727	-0.12901955810397495	0.5060492145159582	1.1225864858894965	0.9483528709309871	0.3443068257222005	-0.0246357097599787	1.913610215124043	2.188884252743862	1.3575527633724356	2.211596244950314	0.894294736511654	1.6887336926739183	3.179879418927753	2.759852640813414	4.288656700750552	2.38978313796357	2.5886595183818657	4.957986819147326	4.957815634607963	5.94210241724861	3.0253057403476773	3.1878385463338055	6.625342352352209	7.159772378010959	7.398586731350882	3.964347114090717	8.688208558081472	8.204180696754696	7.485467891867612	4.772671687474088	5.195104109045488	5.005090700864337
256	-1.7440013841466244	-1.1187000246413743	0.4801818120277087	0.7023302298933516	0.9849656795429248	0.9166058874830033	0.3607002785635778	0.6130263789911976	3.199385634927699	1.9337495516591945	1.3114399876862468	2.1559486334727684	1.294312235425413	2.8187119889619274	2.988961212241196	2.614227049903007	4.194141854187421	2.621894114550398	3.3628713999720903	4.727683055385525	4.668373572960804	5.699197754775948	2.9694409295451187	3.560008993697388	6.425839884746773	6.7256364652581695	6.85787532982298	3.8336534403331624	8.3374852923654	7.672205428780178	6.868129712884249	4.588650691844946	4.893924223941637	4.682901847460257
260	-1.154212114281024	-0.523924587834322	1.161238548207986	0.914652047232199	0.848960814716779	0.9374780035191734	0.4237076331408276	1.4105169737489676	3.8080480002580397	1.6893508391643646	1.301706072381843	2.11426925125378	1.7260714725784287	3.5122461230294038	2.8890964911951125	2.509273761136006	4.066824902757157	2.768219940825858	3.624829759982706	4.635776031234023	4.355419147939171	5.289652811046766	2.840818874816147	3.846706857506016	6.329338057750427	6.168330176992382	6.062559112501127	3.5843543915851406	7.9767746723959805	6.9803018393710605	6.029471859014108	4.292062748562997	4.482864845401825	4.238553036478858
264	-0.7961211780475129	0.029132207782030482	1.7860442354885355	1.0394090387804686	0.7076640111222556	0.978390810403641	0.5361700044446407	2.0410935827221004	3.431199541965716	1.4730662070276306	1.276366469021747	2.0703144021215913	1.9653021047564119	3.4989061267251933	2.7844357420239305	2.3707175194966914	3.856312980452344	2.6766028336658114	3.2178103842555705	4.561018455433998	3.95400666192261	4.6875381351377605	2.5607492859083867	3.7973499202221834	6.16128300064909	5.460219846291174	5.075778948366531	3.2097012915636416	7.481623153870727	6.131744369284458	5.029245840726447	3.8823122880191487	3.9535810847599886	3.6801495459148144
268	-0.7051186543781938	0.4769853639480867	2.262892002114506	1.0321029398609265	0.6027126297038828	1.0195208762177663	0.6947326642615936	2.192667001910337	2.0861129708072896	1.3121987548123217	1.207945105363928	2.0112812468293515	1.8822823715370616	2.7389917304504334	2.5812513763107257	2.1395475810392015	3.5434405714217148	2.32521056541847	2.3098146857118578	4.346654880993524	3.416822901682189	3.9434189696885995	2.1534638350476456	3.330808631116884	5.765875801787778	4.599960315534654	4.0360202687406925	2.7879693437758735	6.794711095821078	5.174324499417776	3.9914402860956777	3.4148449811549564	3.348920575269764	3.0624923628734186
272	-0.7629390339662506	0.8285968282760361	2.574989312346433	0.9459041333158622	0.6340575798238717	1.081592318665116	0.9020269490356196	1.774358625700534	0.18114080979389938	1.2596530882503458	1.1234091491946094	1.9516131828625674	1.5381493529585872	1.4673612080720024	2.270359987248849	1.8249442531286648	3.1739761749241024	1.8556814146874134	1.3000323739607758	3.9072935482557596	2.76969265238525	3.1871724048254775	1.754451508860841	2.5689833099354495	5.0970086922704505	3.6486492064862883	3.1143522183943406	2.4429647860836936	5.948865875483487	4.194709767241407	3.05943488302274	2.9416704103586406	2.730996840257606	2.4572985110230907
276	-0.7610374669887824	1.146686074222816	2.7682454516137573	0.9006209946782074	0.9172779894557938	1.2223952977789219	1.1687478989656992	1.007024643262866	-1.5962769944896855	1.3846242392867527	1.0986903878129264	1.9377081345273128	1.167804953487733	0.10564675900488928	1.958248014274344	1.5177967510049677	2.85434602970448	1.5078704319077147	0.585096894217505	3.298387757556771	2.12845467983735	2.5884969169113288	1.546672101884213	1.7561540559299067	4.25362490533729	2.739119999645666	2.459447139252529	2.2784392776184657	5.0526623598323654	3.3046426689637083	2.3518092572916225	2.4780440267940773	2.1573073809516377	1.9331097554037908
280	-0.5264126645148994	1.4918585978035486	2.904068701087731	1.0015693877682164	1.508671756750052	1.5018230638733614	1.502462383291608	0.3273999086697021	-2.5512831146676382	1.738147731207302	1.2180854051353844	2.0270461984954817	1.0509618494202457	-0.9130298472240875	1.8221621467361528	1.352134820385321	2.70628642352617	1.4889844618397357	0.34296893986894994	2.704846136893454	1.6601695972489043	2.2899892272353006	1.6570981699113831	1.1233323784123326	3.4394090088791933	2.0421073385178805	2.1513616984410144	2.3216540754829915	4.244794834863978	2.616038792681026	1.9331479023763507	2.009855026892767	1.6716049867387706	1.5465613564544998
284	-0.033129304563802225	1.8682283115902447	3.014992706316098	1.265972372673478	2.342603200720017	1.9360290716882294	1.8897610855074374	0.15394829174751024	-2.283395761446894	2.308037275209143	1.51990186784383	2.2509493770988818	1.3459670509688253	-1.318384405622205	2.0064771124725844	1.4319047891704324	2.801965706426693	1.8513284874904568	0.46052551153259735	2.3492228925520586	1.5035577974505245	2.343759053988583	2.071319813267124	0.7794457654347375	2.865729324734944	1.696853156574012	2.179457897405723	2.504884713524407	3.637343874330994	2.2063133660879193	1.8029540731686207	1.5296610555175547	1.3038182225687711	1.3356537785186675
288	0.5767674431543979	2.213699335231259	3.0987641733134574	1.6127853352835773	3.2317500032847075	2.4728825029881394	2.2889139594462673	0.653217135210679	-0.8633833505766668	2.999089948711595	1.9637848089228405	2.587328904295259	1.9898576686211118	-1.0879152985762148	2.527668469722987	1.7669856503697228	3.1188301961357205	2.455738776682546	0.6472274048676779	2.374811643326687	1.6935715632595432	2.6854579380898658	2.624068968823471	0.6947041136368183	2.652170651415485	1.7413172677898758	2.4519078669632144	2.700109713412981	3.2733604825345095	2.0862874932067514	1.901418561903176	1.0692523690884221	1.0686861249644857	1.3079420295117896
292	1.082096693167932	2.447780841369386	3.1578328529738937	1.925979967023049	3.9429054160705115	3.0091402454696676	2.6430506639507176	1.6462069708269422	1.2003927200527957	3.6599934008698787	2.4440588889404284	2.964600793982998	2.7274296214860945	-0.40847909347399947	3.2500238336523886	2.259870046632023	3.5446221738967587	3.043385974829617	0.6589362008624385	2.7730407644831203	2.1371557658596934	3.1620640674865266	3.0766129416036367	0.7719149570049595	2.780088656082147	2.085024113159282	2.8320445942902044	2.786428682921609	3.1191093842911437	2.189836734964968	2.1285426562928165	0.7013402563507766	0.9605267619677559	1.4269938432904974
296	1.3240891661592544	2.5443859036102228	3.2496671594589532	2.1401576941815823	4.310333717907737	3.441381684197699	2.9086413310047754	2.7093105247758595	3.184509746140794	4.145975579284615	2.84375499961037	3.2969279206006177	3.2506613649312968	0.4543236780616985	3.9447822471204605	2.7531442572701703	3.932141294088411	3.371602765153903	0.485071508851835	3.3914198789802126	2.656799071279898	3.5996506123259406	3.2359521307307633	0.9484242772952477	3.1188931386404444	2.5447270805960556	3.1846084514322928	2.7085406711858844	3.0932357233152086	2.3957431255889032	2.3706598222006945	0.5064526783554242	0.9488118862992434	1.6096842248330328
300	1.3128794398539383	2.579008334324201	3.500836363536726	2.2892503680605305	4.328058708707712	3.723665228025407	3.0864531915940514	3.413209668125028	4.461408603848331	4.390686024070833	3.1017887514003037	3.5345864206719746	3.369584551886904	1.294898745128522	4.407154548962116	3.1153452317737917	4.176745881025775	3.3383369361515878	0.3647665968268556	4.018874635086471	3.0829751413708992	3.8799223801882685	3.0513973159043606	1.2490116326268832	3.506885996547575	2.9321579859136633	3.417209855035094	2.496301167861264	3.117888919587804	2.580352061432625	2.5330955918253735	0.5279019461654972	0.9855555867107775	1.749809260718875
304	1.226359960320792	2.707361929733782	4.054359425798883	2.4833741125350146	4.16145371340081	3.8941621682077363	3.229656688165481	3.5560603052002775	4.742651927418045	4.443619716869318	3.251281014816817	3.6963307764190048	3.11195921112194	2.0281069227512263	4.563508975905005	3.3145103370906503	4.2714261900823844	3.0231718940701056	0.6150047763555874	4.4967861062004175	3.3432059203617066	3.9864191908324758	2.6333701544078982	1.7474003986110043	3.836310615390541	3.148486367859552	3.5033590705158306	2.2360727730562413	3.1609871307674435	2.6760106019168184	2.5705938274332145	0.740517197169833	1.025004861151125	1.7638477042488
308	1.2998875346743373	3.0817832868969797	4.974340903120928	2.825052969475703	4.063999165764779	4.052146424553249	3.419598093935925	3.257345668198112	4.151154507646784	4.4466805345800955	3.401864281648545	3.8606834314148206	2.6981930664604223	2.658684008561516	4.504095066142901	3.4332213315113926	4.307291973683238	2.629410260237598	1.3884828055611904	4.788251387904724	3.493820896864375	3.997375478188847	2.187390560349562	2.469091409171417	4.0926403895999375	3.2295033850195054	3.4785773666294237	2.013392204923387	3.245087376984554	2.6996772221115823	2.4991252359235916	1.0502599451251429	1.042559263458184	1.632518168142387
312	1.6691573816118936	3.745858182986465	6.162249549566327	3.3172788536241877	4.240075100684	4.2951259504595605	3.7174460794052444	2.8623657154294713	3.1089572828000516	4.556588161408318	3.6717767622750648	4.116956700421113	2.4110796390694693	3.196043960131448	4.421920765202911	3.6138646511389303	4.417860496811063	2.3684995114609095	2.5156938966178437	4.969372736782153	3.6755721476262004	4.033794869728977	1.906829113914357	3.304235450031631	4.3306398282385485	3.315760127279145	3.4173340711144924	1.8668973398757707	3.4195172700378134	2.7373077800304904	2.3868305622874306	1.3326221670837557	1.0449804041228474	1.4163560831550017
316	2.2624716701606107	4.569637287046759	7.340477924887485	3.8258869551385377	4.725323665132693	4.649457442942645	4.115794171432349	2.7195243766787827	2.109798187651177	4.849947917137383	4.105271805888847	4.501437175829788	2.436984056042031	3.5839280991667835	4.48941563426468	3.962527503499608	4.697197425427094	2.3546433389342476	3.550393095589342	5.151568399774302	4.016568650595223	4.191486348060092	1.884852285394709	4.006811131851547	4.608371722984121	3.5619032293035677	3.4023792657781042	1.7838925078175765	3.714143266837289	2.8898150847907105	2.3266360700993194	1.4903925619643543	1.0649919482999233	1.2341219155624255
320	2.8180019784351558	5.280663476963016	8.138383844809	4.134040822082081	5.355436788389222	5.038828360233504	4.524578083058961	2.970340482841798	1.5071428976154233	5.266787992531496	4.625615108255526	4.9599394673052375	2.772207014714107	3.7093098069953667	4.747603404456325	4.468650329751678	5.140925394430079	2.5674898559597277	4.009717454323458	5.389406667453847	4.539743412000163	4.492683876138753	2.092900032481438	4.301424015629206	4.927555548624792	4.035174836461333	3.4964368255076725	1.737118478203919	4.104310979017494	3.2087767043162203	2.397902244235796	1.502879377385404	1.1419104308861794	1.206116434866836
324	3.02106570434764	5.583075986117711	8.248129823841001	4.063251961939761	5.841993793996721	5.311653123796396	4.80398987510864	3.474910250473521	1.411188122047444	5.626123414140131	5.0552811494986045	5.361846433453606	3.241725913446288	3.4836518676542094	5.072107302257637	4.990616785800783	5.643477902469117	2.892748825399148	3.6691460516799004	5.632430539215759	5.131305681624776	4.8808684225829975	2.425761693552054	4.044568528454217	5.220142351322361	4.663276183752482	3.724715700282276	1.7302617983048487	4.512611377766908	3.6616229918539234	2.6344489984756088	1.4419442378831835	1.3022934165499769	1.394701119716328
328	2.6848442486688078	5.3060626849677375	7.572463016464865	3.587396612646796	5.918515190440487	5.316726194309711	4.832318293768807	3.9134838482279237	1.7117435888942052	5.712087616803951	5.199376093135045	5.5626544811949055	3.6124100593915043	2.937451116774933	5.239173399095357	5.321091638482039	6.053239330267577	3.2051505961558195	2.724068396366407	5.753124699372462	5.591719136425479	5.256892191012291	2.775925390864387	3.33920573345164	5.389830575686419	5.263358579698358	4.070947159979415	1.8165250970753972	4.846992957275458	4.146126736663384	3.01287411882755	1.4421619140453537	1.5501606425248193	1.7743278697039075
332	1.865554089604504	4.499346244896346	6.285969718321347	2.866667978678497	5.477428899287276	4.985022055437711	4.5704755667687635	3.9930078882493127	2.1867148820980944	5.385606275312563	4.947336661245748	5.479922757618382	3.7256789113394144	2.255258316068105	5.0535187593663355	5.295593725185819	6.251808627556765	3.434653988749597	1.710327144119339	5.6307420588428245	5.739657387547332	5.5303630689229175	3.0852668207474374	2.5233094628522785	5.378788457641789	5.634749398310246	4.483274925356844	2.069279903909482	5.051979052186385	4.544625747650679	3.4646081836965528	1.6376169878621798	1.8712044907056555	2.2478346767893624
336	0.8426346757595149	3.417072764352457	4.76565741289463	2.1748459284232267	4.623154628525411	4.37072657435316	4.0842785732147995	3.6305630115398864	2.6198687487260433	4.6622547985621905	4.336254108925058	5.1375746597278455	3.57117175154274	1.7047042803640042	4.4651331788816515	4.883378493377442	6.210770114476784	3.578668585325082	1.214064714227567	5.237489687093992	5.510323033725711	5.657193169615886	3.344203940531306	2.017464394244161	5.2135414945580205	5.663586125379775	4.8873200293171974	2.517842286428704	5.140966402425581	4.786416995361748	3.905308952008329	2.0915663189533116	2.2437872830007533	2.699873202183109
340	-0.0229503902958547	2.4005057751130114	3.4324314507608236	1.7630407765698681	3.619437208574202	3.6302487758534236	3.5112957865755043	3.0061242504516477	2.8751044200787055	3.7169339562986274	3.541638365386836	4.652405727084371	3.2689707196671747	1.4985768757178	3.610625496331435	4.210721482136284	5.994789108399769	3.6660911944335846	1.5355361661289422	4.673738944651359	4.9936895244404855	5.646492466975666	3.5528371244375414	2.1057641453029636	4.998715864912414	5.381650911095255	5.205019937725287	3.0952844541602555	5.186600195187564	4.880466925696805	4.26614807959156	2.750556700437714	2.6444401674262137	3.052583686750975
344	-0.47203266501459196	1.7235503153200846	2.5870726043233723	1.7411217645555062	2.7653622557439617	2.951976768670022	2.992830268933088	2.4559438166600556	2.913944952283499	2.8129699159173427	2.7999558378099416	4.173606862021249	2.980484716519799	1.67662012153751	2.757245772076099	3.5041990191678845	5.715597615116622	3.7085900213068763	2.5140459474032544	4.129958142343854	4.392682064410033	5.54055164845652	3.682541122675744	2.7792274881766064	4.8623566504739735	4.94806097688723	5.375731454628267	3.6389782336866086	5.2753562794056155	4.900555598284025	4.512771595051659	3.450372210374341	3.0448441428557205	3.2945370590954237
348	-0.4702733743238433	1.4794712029297334	2.315835708493287	2.039044851877053	2.2670454921705474	2.473678344203171	2.6070158415777076	2.274102205256979	2.7721686293229686	2.192781442828017	2.3032131136917817	3.807911386412559	2.809864275513807	2.079432243819152	2.1814274732827084	2.985441677185385	5.465643392114884	3.6809701826620103	3.6131045727106734	3.798008909173156	3.9257833858555617	5.3842840058762045	3.67600916888059	3.7319466973495907	4.887273299275812	4.566631305609036	5.374257074138825	3.956727971577605	5.453714833795391	4.935191618856978	4.6465177418697445	3.9791591066985843	3.406046858771164	3.468141308611339
352	-0.20301368781332166	1.56555997930082	2.5034274991726173	2.466457360716153	2.168562645205448	2.23173331650897	2.342129701423117	2.541639560004486	2.525180333437765	1.98347317671676	2.121047729859103	3.5743853955623366	2.7539002825825927	2.4385585723344425	2.045945162375989	2.7747030188124193	5.271655069392987	3.543080082531023	4.2211394203424035	3.7827560806136438	3.7284145261091193	5.204190717909266	3.489458790552146	4.520874965697704	5.072441565104693	4.387681949981738	5.220437513522543	3.9293055435157362	5.703872189426011	5.036267744700417	4.6935500980132066	4.173153389884943	3.6823508646501013	3.6306667236215335
356	0.04928684594704438	1.7664905741914683	2.931143753280726	2.8320569920562866	2.3672101437883835	2.1663062517785274	2.1265616363240634	3.07862424073186	2.2527637424812634	2.159376615794436	2.1884670202314878	3.414695254287659	2.720670216367052	2.5355532105325476	2.335282558267186	2.851754419756189	5.094094740404028	3.2813031590586457	4.009374608407575	4.05912541318309	3.8030674361531824	5.005866991755932	3.1429967800895984	4.810286986603972	5.344956861352693	4.445790279607978	4.972423540912634	3.585453024394867	5.9626755563873415	5.19639729141527	4.688267219150812	4.00290488186141	3.83896278365777	3.815033664608078
360	0.07255973648586785	1.8801376772141682	3.3920373830985264	3.0407440585612626	2.6891622475440142	2.1714062635912126	1.8903989744142131	3.538909664755908	2.012769217177768	2.570219987102127	2.3580534398625272	3.2452011026464986	2.5986592704012965	2.333107465575534	2.874777786626161	3.0864870470321986	4.864468562242323	2.935748331287289	3.1310045640096464	4.492678630930026	4.03638457232864	4.782891261422895	2.739635699030961	4.564235198895115	5.611169800896635	4.6602759243606435	4.701676356842787	3.1015295904054745	6.170523627914577	5.3645219667415285	4.658004748981856	3.605977764562163	3.8764998814939067	4.0123042959001785
364	-0.17088508562812693	1.817459459484537	3.7644805813159126	3.117822162385824	2.979568235504047	2.1611769144806865	1.623344894125325	3.597700825190971	1.8327865554312526	3.0179560108282697	2.4863731798339614	3.0205533428224443	2.332525247406838	1.9946516701882928	3.421980372372293	3.3182356273797065	4.53797386931054	2.590422862188449	2.1332802718661825	4.911826121326858	4.26927851552726	4.529788005836334	2.4294981895143	4.069906701302843	5.814094528777853	4.893400179906094	4.462135780512755	2.7189550331133256	6.317661269449829	5.487181172822225	4.616015422610818	3.239264480041858	3.844478120634202	4.184069622920126
368	-0.5430434928534953	1.625679250427415	4.017004956593877	3.1535756508362045	3.1594252506596927	2.112435812385118	1.3888759577971361	3.1247150819088265	1.7141462521190352	3.3409132873108542	2.504292004938257	2.765266649893983	1.9586330602786208	1.7799344017866152	3.7779519462568762	3.4350035103856773	4.125119198874626	2.3270046652216796	1.6394827324482284	5.186876760738624	4.376325596250645	4.2470989120065985	2.3290579260197184	3.7758729362523598	5.958070263125043	5.026663290684139	4.265964974123273	2.615532630038871	6.452924235264329	5.544083104441256	4.5603985671299	3.1625156322742045	3.8257543944088916	4.289468277591764
372	-0.8359981754176888	1.4285626375370248	4.158279408446666	3.2058610835197485	3.224955789053204	2.0595149941898727	1.2806913820357302	2.2477226200574676	1.637998457587779	3.462608328660098	2.433651679570342	2.5515358383608477	1.5827902515504086	1.8772219372084071	3.8606049917024943	3.410557023020641	3.683098545312276	2.1731340830295993	1.9889780232757375	5.274554716144699	4.312807072241092	3.937600125861738	2.4454655585535763	4.035260190312436	6.088595851784755	5.012964712837865	4.08017538947882	2.804498188567516	6.649339182278195	5.556169972696873	4.478787410872324	3.5108187109999265	3.89720939605954	4.309372891036383
376	-0.909656701175475	1.3334306444834478	4.187755097306574	3.239395610260033	3.2088651576088436	2.0524687715208954	1.3509473766551037	1.2821917501502282	1.5798485239195912	3.3946216020708837	2.3504354894423076	2.4423987803783356	1.320116635804294	2.274053567866965	3.7144291307129103	3.290126315393181	3.2806203282498227	2.0846803135690855	3.0410752219667985	5.214653001970985	4.115253914933469	3.6050093082962977	2.659075253448834	4.896945941005541	6.246787532293563	4.88444184023755	3.8520984552402067	3.125443689084721	6.9490308586150515	5.565303311602036	4.358774174175817	4.2199640167504	4.0859293834523305	4.254971016631498
380	-0.7787799815542774	1.3652092183930828	4.085752476867084	3.143846980740528	3.1399447838662247	2.109304422775104	1.5578309258230196	0.5699517116461849	1.5339100322142856	3.2055654444824087	2.3237686098557044	2.43910717348357	1.232523080575007	2.755470507340591	3.464170208767849	3.144242993999416	2.9601094648012225	1.9757747600262967	4.255466450437621	5.09071921016963	3.8666388890871626	3.259571782465563	2.781891338954183	6.060048088032369	6.431693537686096	4.7215032458308155	3.55040287075106	3.335125676317776	7.324505787476639	5.602997765699982	4.200129975205018	5.0490369669277	4.348222244728581	4.158255089751659
384	-0.5997462853548352	1.4605959616977866	3.8393056295736527	2.8180644441027227	3.025389186850152	2.192975753969494	1.7673553183756863	0.3144979468988401	1.5249133071546026	2.9781067296178443	2.3689796864780077	2.46715068194243	1.2943514552815762	3.0351188106201428	3.24342273846947	3.023928396219685	2.720335715101417	1.7768255427322694	5.007164942497284	4.982332693872235	3.652587404565945	2.9279377386556416	2.660802834468642	7.023785573392135	6.598035318882333	4.608244407463202	3.198194257290936	3.2469026960412504	7.685294608739807	5.6728191232507506	4.024881352753191	5.694483742641854	4.590396392676721	4.057264794596479
388	-0.5698784575379409	1.5186551770968555	3.478426209250655	2.261546129238875	2.86241363756375	2.229297393892439	1.8180180742139618	0.49641319984035087	1.593630190640472	2.7779402662712873	2.4427800116853566	2.4170811115274615	1.4024205172416992	2.929693214649134	3.1362936417550817	2.944142095761946	2.5317952568982367	1.4829769097079917	4.9393505925403245	4.934249865471904	3.532490244529806	2.6594612531274247	2.2649443092382304	7.343774776990978	6.687746507925854	4.5990753057712634	2.8765077518317543	2.8393425869780775	7.925215224283968	5.7557725761052785	3.8774986169192416	5.937493309289056	4.720561969282898	3.985362758111144
392	-0.8007696250725198	1.4745495282137657	3.0921308916224413	1.6131004054350644	2.6636648110849515	2.15717195919905	1.6177629191562028	0.9052404142412821	1.7748365357411364	2.6432456903479307	2.481471293860009	2.219098085522804	1.4271094763010697	2.4844019350269266	3.1555843273600637	2.899588100741988	2.3723149239726387	1.1631590098578004	4.158244122497048	4.951518999949788	3.5339965731087664	2.5186190541574556	1.7078614191804962	6.858963949052409	6.671442968690894	4.709400641949018	2.6914377144572144	2.27245735548391	7.981742838734755	5.83241842704702	3.811586608800131	5.7498426292208356	4.701867568542744	3.966335763453982
396	-1.2444535462431277	1.3438060249733048	2.7983329225460944	1.105181095194	2.468609565224269	1.9757118175215729	1.2122276990802274	1.2594693867356117	2.0753776974731877	2.586899035598224	2.451936954029791	1.9020565700192409	1.2760040727824278	1.9640338371280832	3.2559692777444336	2.891504757256537	2.255465263394243	0.9212468243227875	3.1546525875552875	5.010626780257098	3.6603341010185546	2.559709065650393	1.1869646280838297	5.7681622359555895	6.567167265523989	4.923161017385887	2.7176916530658564	1.7977198316962402	7.866537074255114	5.899845585232495	3.863706578990196	5.29831884953807	4.571632373711644	4.008738984477295
400	-1.7129862265253453	1.2129889696013767	2.68427180566183	0.953865287279832	2.3329663217770626	1.7602889493368254	0.7837050537349886	1.34957980768883	2.462581866722642	2.6056103640574526	2.3838307797327487	1.599669214024578	0.941454825408547	1.7003108220087026	3.3702199373986055	2.9436578676290135	2.2326371613400617	0.8351030924693567	2.496105664626894	5.0771942010485045	3.8984837433616204	2.795712702368384	0.8768106080806081	4.5168666725559685	6.424384577743611	5.2055063116254265	2.9504504129304676	1.6154681403381441	7.647705058816401	5.96810244007115	4.026498307552575	4.8447980758417915	4.412821758573052	4.097965706969305
404	-1.975590700883695	1.189068314411221	2.7611007620718593	1.2448601691287586	2.3017473162711664	1.6353899199204147	0.5759158715966419	1.1340032787302396	2.8754098342777636	2.686703198325369	2.3634302556448508	1.4962097368611664	0.5143513666518271	1.8981634330509207	3.444094172365289	3.0954413335849083	2.368602269868243	0.9143465138238517	2.4908876356178515	5.118965136001637	4.222194184133685	3.182857266973213	0.8416561463087078	3.5685176759268824	6.286041720732054	5.512800202756322	3.2976889527031883	1.7652763083711698	7.399245720301854	6.040553554542769	4.239903916144637	4.600892532176587	4.297230709670555	4.191870678808634
408	-1.8819014978579083	1.3386845554885547	2.9609303399669966	1.8779947710306137	2.3858177601659643	1.7153159336651542	0.7781465629958485	0.7420446853976355	3.2452979005893696	2.8119208741719444	2.4913401540798437	1.736153479007442	0.1525045927488893	2.5083496507257417	3.4557623775970603	3.3761496458644693	2.7036418846534525	1.100613233648526	3.0167353077063517	5.112518297639007	4.591139304967325	3.63231038130171	1.015908715544208	3.1863882461207926	6.156925185871274	5.798092350626116	3.6207675842422296	2.1108519977681452	7.151291352336571	6.094084724298973	4.409806717229346	4.617623794341377	4.237023342879205	4.227968205267789
412	-1.4416249954065725	1.6537022548885238	3.180515042858033	2.6080539160684952	2.560902112217205	2.045545334419845	1.4281855785551278	0.3950812210598583	3.5134606272682807	2.9643814488907783	2.8296637463653074	2.3451776445306556	0.017502967224037786	3.241872779290644	3.419615021654998	3.7807330989750745	3.2249841608640453	1.3105217185311555	3.6115569977176327	5.051515566469782	4.955331313019997	4.0477161305275695	1.2613142696960418	3.341870299484952	6.006474479769191	6.018566593233535	3.8057091140029584	2.4284801421841067	6.879662496363432	6.0805339659713695	4.4517717249053765	4.771043765420092	4.178813446938524	4.148772229210415
416	-0.8162978866948443	2.061830992261418	3.348354807982984	3.1592690864907755	2.789459936728653	2.5764343673507195	2.386380666429802	0.2913884811197073	3.6271603015875398	3.138155452434585	3.368104687770157	3.2073137679185466	0.20710670895739147	3.7205464746000536	3.375674239218941	4.2641749274358975	3.865012397544638	1.4922484121793953	3.771193971649305	4.954091059574642	5.268159376195026	4.369739521438172	1.463360067487622	3.7839238548111345	5.8038682791088485	6.147176727033582	3.826599588269673	2.5453734333623683	6.540496809658708	5.953735336530763	4.338954437745144	4.846597659272306	4.045286168375501	3.937339534355438
420	-0.2347238504920884	2.469496243917709	3.46910404283132	3.350036374217142	3.0476744098010893	3.1807427326005002	3.3927640829257935	0.5144726621036387	3.525190106074726	3.3427281295303937	4.02391528067311	4.109502305145744	0.7111752611324641	3.679019918689883	3.369218579368907	4.756074416550416	4.523603427910054	1.657087083447483	3.270382157651892	4.861030089503202	5.500162587584372	4.598611343217503	1.6034952361630506	4.208922852380083	5.556200967112078	6.181174739490469	3.7594268227074563	2.442475312742034	6.121031268878157	5.70375631799686	4.122987736782839	4.6686591984178465	3.7957341575156915	3.639692297329215
424	0.11938935488121856	2.808392040791572	3.6176476387239838	3.169534675225233	3.3372833644531976	3.7059802915466196	4.178231228769828	1.0081638072309371	3.1457791249006886	3.597839346385079	4.673923957468276	4.83166311951509	1.4126981461143713	3.104313842565193	3.4317305001400347	5.186683641690039	5.1029291024117525	1.866441245135101	2.3079154433155296	4.822665202362515	5.645344243101612	4.78145884260327	1.7615367129674033	4.426582802086892	5.31987427322022	6.140574916594927	3.7362327481352784	2.260998481764062	5.66839693545674	5.373954759381287	3.9123303791451423	4.197270382774493	3.462961426574856	3.355491629711792
428	0.19262058984285	3.0615808886478146	3.8888299366995924	2.7669789721247673	3.672363748815331	4.035178174321432	4.575491893660396	1.6189453560962717	2.459851735580243	3.916527738219628	5.200062738641123	5.236646639000418	2.1343617385382565	2.235390895921732	3.5659723191828205	5.508002267282596	5.536565766661163	2.1817529146423604	1.4006370270652329	4.873018729304476	5.713947758553405	4.97042511638765	2.0471222348980413	4.4331173784864095	5.170342432319675	6.052803024268923	3.8626437089672447	2.2087399903798883	5.2713823185391835	5.043715464255588	3.813640108016748	3.53878854811803	3.138821117105756	3.192332259701366
432	0.07270707171680002	3.2533020891067586	4.328277576962774	2.3642878472717137	4.046882142339978	4.124050606805791	4.5728793028771975	2.17178964066544	1.5252075156804712	4.281722057976312	5.524651990293538	5.31382797806947	2.7080948284440898	1.4286506139924913	3.7385697270417317	5.698513493455654	5.798696980141192	2.608222716422073	1.0806405516997455	5.002279745823827	5.715260014409467	5.175919996545096	2.5047314103784317	4.357587803329203	5.145309912088687	5.930432304668211	4.143851746587341	2.4224691329829744	5.003547178987131	4.783627974830459	3.866379012836598	2.8773624824356756	2.9179208204985585	3.205468169702381
436	-0.0753285808449508	3.4151327523792054	4.888293253954632	2.146745914761262	4.4109368212914335	4.002570142177197	4.2918739210488255	2.5381400521092683	0.5265285955486948	4.637326228831427	5.6254734850951404	5.160056578006045	3.0347545070321953	0.9654062365953289	3.8916234871838724	5.756906494864622	5.895159706490664	3.0679457110194406	1.5647538860869128	5.151562200891261	5.64593409066482	5.346238599630707	3.0532212180298828	4.330939281973144	5.203585611557034	5.759111389878587	4.4650430566589785	2.8689718174025387	4.86680983268319	4.610901820939159	4.009877671608209	2.3703529774901653	2.8342685627904487	3.3584148799027753
440	-0.1037409675482332	3.556887140830514	5.440554605099369	2.1855287496700586	4.678416240324365	3.7491471672768673	3.910984506269512	2.666087382261086	-0.25158122118374243	4.904639708533723	5.532711491921138	4.916244017586457	3.1057627122667353	0.9135508514227538	3.9695119757567543	5.697002873342281	5.849339947237452	3.422067871990602	2.6119608813143684	5.239012704973448	5.497457490392715	5.392066941952746	3.50278710434601	4.377655495081515	5.2356304990188525	5.510596738253828	4.645740974140993	3.348683587202735	4.781437384931205	4.479479778424287	4.109727849121005	2.0773146100049185	2.8382153439389315	3.5347578436299156
444	0.039589069683734796	3.6563188937380424	5.833022102887781	2.420712226478011	4.764675605188368	3.4533722313476014	3.5777802377015924	2.568285935593338	-0.5273411260642216	5.01785038634848	5.313148008283589	4.694333064624999	2.978726141084786	1.1181002827071584	3.947322358655795	5.548488602934772	5.6893977975253	3.5300743490738693	3.64449833903461	5.205479131907477	5.278165327097498	5.240811334729649	3.642020693166842	4.392255771991675	5.124859320099304	5.175327287958945	4.538366783127907	3.5988595394824787	4.635129916886289	4.314370144441735	4.031957139325902	1.9600230405912735	2.8311431336448973	3.600892057864188
448	0.28697174715067963	3.67268966701214	5.956502899389987	2.7084355285927657	4.634325015765274	3.187204114496418	3.3548524295028344	2.287081235833341	-0.1553892340313173	4.9621643894797955	5.050664888981696	4.533970821377531	2.7248287132132423	1.3151800599271701	3.848704328356686	5.361686693006011	5.44381044920736	3.3148047840350974	4.059542168858307	5.056432234395601	5.034736143752136	4.889126765305067	3.347661725175286	4.212759007308142	4.826066958640547	4.794322478587638	4.116352070906038	3.4381492051104012	4.362153042270314	4.070322980140903	3.724371423854923	1.9407411764736957	2.7354624202329036	3.4851779849751856
452	0.4919371294475991	3.575193157706293	5.789273724244573	2.8992533610577746	4.325724113987044	2.9919791146078443	3.218583337287066	1.8691028309361815	0.7794369439473331	4.785184371310905	4.824995982385928	4.404545296039016	2.384685748755248	1.3058116403036064	3.7355971242049986	5.20390080091781	5.142216192614076	2.8001966405742262	3.5640911965984587	4.868049609291387	4.851283538014138	4.419118870068384	2.655272000284608	3.742810239878926	4.407933700876653	4.46412752931754	3.4992036731111607	2.86814688912093	3.998496045507795	3.7743470573499622	3.255173436529402	1.9661288211773593	2.5504853661039784	3.2214214720455256
456	0.5059926497082091	3.365926734055563	5.397565828047261	2.906455509477091	3.9337646861894147	2.8789067195686173	3.100766889372854	1.3635098899748268	1.9579974363483408	4.570541847133587	4.690161216338413	4.244171131862623	1.959111804784248	1.0749468776265962	3.6718046572487495	5.138699995418364	4.816301333665203	2.1034483856499966	2.331508630588116	4.746787059243542	4.8165974495396995	3.964706887725673	1.7508507922790506	3.0334317607586794	4.024311532350576	4.301570881473562	2.8964736388510475	2.07392334414434	3.66996764210141	3.519408693964689	2.78200935615054	2.027896399146411	2.352583402416011	2.928331606147323
460	0.25246298249400095	3.0846662443481967	4.89786766723002	2.7328712871217697	3.5589044004231996	2.8350076603837975	2.942177765093688	0.8345639684587244	2.9385297224240654	4.386832703005123	4.656276214287733	4.008583058726957	1.439233061017775	0.7943218330355764	3.68033455873173	5.1936058866981964	4.497384059995294	1.3889174426297952	0.9084950066517357	4.763256537809139	4.973627554734057	3.6461682227584213	0.8908506609359379	2.2785389365842783	3.827773084513048	4.382938850781067	2.5013356145648618	1.3287665810415492	3.516382208529215	3.4095239553200023	2.467400306194119	2.1337413733970005	2.2383472862951277	2.7342145373930364
464	-0.23998957811799204	2.790599577533881	4.404535282458719	2.44613074638759	3.2504780210444304	2.82622455837045	2.72421883848944	0.36591556575896755	3.347699872147846	4.240072239661058	4.680038440332476	3.699865093426683	0.8492714145199194	0.7150595766133798	3.718326797634222	5.3323931559400775	4.210800637104346	0.8047320226378941	-0.07083031517265685	4.8982171888661	5.279758440039032	3.509721031864514	0.28996226118312257	1.7247612432802841	3.875160445919896	4.690822589475171	2.392868751206512	0.8556629993769816	3.5967442898540303	3.488728037609045	2.388899320293072	2.2592809143245507	2.2491445484596393	2.6928369930944287
468	-0.853363750210576	2.537244075091267	3.9937064546843164	2.1315667575425055	2.9886093064193306	2.8049364019147984	2.470494502505887	0.045512318496237464	3.0441172046098752	4.070934285376175	4.678413379301423	3.366757622801634	0.27177321842242014	1.0032154296341778	3.697186222278661	5.458510861920489	3.975148906208221	0.43633833417400164	-0.2096943551968147	5.042858587884461	5.610570416590287	3.5114009291686226	0.03851807852795338	1.5449612101648997	4.087370385340782	5.1066517700964456	2.5056207116762352	0.7268325668104014	3.8380174539940195	3.702489843557385	2.4999775823417276	2.3262424410262166	2.3302156866369126	2.7472488810796105
472	-1.4300236665860706	2.3543927610082442	3.6967468168384867	1.8549922657862603	2.7183811595948772	2.726088040144877	2.227377170661203	-0.06984996032960818	2.176140779723058	3.803880205087288	4.567235935124111	3.081972114411151	-0.16793642895737182	1.6195042092442749	3.5414395242923673	5.458252893018552	3.8077592753594764	0.2943424873073175	0.4669814694058545	5.060223089793745	5.814837441068458	3.5555357843275783	0.0884812024982022	1.7517474845527876	4.294119824058292	5.462038980045127	2.6839904717392002	0.8553367235523048	4.068272103528649	3.922442187896468	2.667966120659663	2.235646957475041	2.359236234430464	2.770443670907524
476	-1.8326289607508643	2.245778078131225	3.5156013876846286	1.6491743284549485	2.4149060188358096	2.5701177055319504	2.0413088746984855	0.012502696333551753	1.1128833265817193	3.4209380063470927	4.310009468640978	2.912217848100848	-0.35194846898865856	2.322367662288441	3.253456584345626	5.266117082651598	3.7316400910576406	0.33696627531806517	1.5615431030902585	4.875378596394466	5.795385346085832	3.5642018228188825	0.3081355981199664	2.1980178300676037	4.340191830167558	5.625438199145522	2.788178675287796	1.075141427186652	4.119730939000535	4.02427767691243	2.766535036731601	1.943914170125658	2.2321627083688473	2.6598935060102447
480	-1.9845844457111466	2.203471893469361	3.44653486335339	1.5242643317839266	2.1348767226678156	2.36310934423819	1.9469811867194768	0.22105164770106114	0.2773345701845021	3.011593572642429	3.9514689345730605	2.895985834439437	-0.22603405954990144	2.7877194811056056	2.940312854972664	4.915087210643576	3.774767389303857	0.508968173172529	2.5380618508155206	4.537759769427047	5.568822846657847	3.532493105552748	0.5682978615717776	2.658622496568263	4.186615933338502	5.574000344508545	2.785239212633474	1.2545078961170348	3.9365315337929028	3.9691436190529723	2.7623772551411463	1.5204384288547435	1.946575636717449	2.42114137991931
484	-1.8800059509495473	2.225313657864289	3.493428221465586	1.4901045523215268	2.010336155584179	2.178131336434951	1.9673836181560027	0.4623689937838787	-0.02855836965383966	2.7546491553376597	3.6118225960140813	3.0359895152688234	0.17108656422812027	2.7819824148511696	2.7744758059071093	4.536575782766218	3.956830968403517	0.7706795315358191	2.999657861765581	4.209275235039105	5.264586912214788	3.5322568327414547	0.8056141713783428	2.9413695261125743	3.9393093486510016	5.405324445428795	2.767092697786712	1.3691527808907558	3.6162001995339126	3.8334238432420675	2.7383339335923527	1.1356732816633401	1.6226956803360706	2.181071752763587
488	-1.5686767061682563	2.3223566950338297	3.6631162074110666	1.5714312752149515	2.1786951963731025	2.108839983384187	2.114964479828685	0.684775469958425	0.27452239324877686	2.8304235863749856	3.4363651188874886	3.30230807424304	0.7277150731787178	2.297371620099963	2.9000775740836477	4.3014216314434215	4.2679457556734475	1.1058111162876851	2.8633818554110366	4.076173772057284	5.05789421711896	3.6609454062538274	1.034608003865222	2.967892162459185	3.7831621074528283	5.279174791358865	2.8845455573687118	1.495679732361162	3.354693404310975	3.76387237552216	2.835694067471298	0.9751335953888239	1.4410264455652493	2.1150596088415066
492	-1.129837867745273	2.511827224111737	3.9526481528623196	1.79934227012293	2.683597557921833	2.222762340655765	2.38760613792329	0.9230513549388064	1.0494537327019464	3.303878537419617	3.5209598452364075	3.6417999175631515	1.3150974478897202	1.5685719212030056	3.3307828819104057	4.328169334928136	4.6528792263812715	1.5073240957350829	2.347821468147638	4.230214108277256	5.070234285904943	3.9658973116881215	1.3085046973570489	2.7839140821741735	3.8586194417807493	5.32035254088869	3.236547223502698	1.7345606044844861	3.3253014003721213	3.881475438808615	3.149150602019252	1.1243383856043117	1.529824372243827	2.3297026098559814
496	-0.650795756127437	2.7955245901099475	4.336559761542694	2.1829593126495683	3.4065740022482265	2.5136785443737866	2.75411676665187	1.2808871236886783	2.0322508760641282	4.047770489963467	3.8493406675427018	3.985084046792878	1.8394602490713245	0.9629000997074302	3.902584066074657	4.607053268245018	5.011106001599883	1.9492158840557539	1.8085228159066362	4.590847003790085	5.292747484195691	4.389339435939467	1.654894824618179	2.5073115762349545	4.15765427493384	5.538394913995413	3.7816250228772414	2.1137521213570145	3.5657160192109334	4.192565907383539	3.6402556804302098	1.5000547132766298	1.8728398037355842	2.775267355587728
500	-0.21018864161352788	3.1433508316786702	4.769012915968433	2.6860856942070552	4.086952199154094	2.8860251830668804	3.146519891424087	1.853538627713148	2.9547645971084178	4.767374503496984	4.283858288439669	4.257480610588785	2.261783117305904	0.7992097119180415	4.325718868778317	4.990019308843062	5.225038992087586	2.368105167132071	1.5281779727499978	4.926362978895137	5.582848534793823	4.7762508271745245	2.0324559160416378	2.2563793602242104	4.510991085107424	5.816240772821507	4.333785046126116	2.5427570278819136	3.9480998416402824	4.568262088685974	4.131705273687099	1.8799860429982425	2.302467817215392	3.252694360150163
504	0.1304456141277869	3.4894223125096357	5.192564951184467	3.21834277294136	4.431400764721213	3.186208716931182	3.470674506007897	2.630577319179354	3.620914688505164	5.127068983484839	4.621793258442178	4.39563177906323	2.5782611304991834	1.1811763018350163	4.319191444936155	5.259646879268276	5.206698881355082	2.6698908738438902	1.5786428411681186	4.970331179467721	5.740107998660696	4.945848452478753	2.3360810220865815	2.0966434425824607	4.678792464841237	5.977113231826964	4.65100287216848	2.8478763031583143	4.253551472415111	4.810947406066416	4.3941888698261495	2.029165262821186	2.591895573747841	3.5211503416806287
508	0.3300440601122297	3.744337549292794	5.545180306739511	3.6530132201471455	4.258526791311242	3.2678294099318967	3.634973278404972	3.4397659214912073	3.923259009946408	4.9165463323439935	4.689949977477863	4.364598740048563	2.7780201364950847	1.9383571098979888	3.75999831204012	5.240909563183991	4.937749373367121	2.758517735192395	1.8190687848894096	4.571567047021135	5.618298039556616	4.785232055026604	2.444036716012628	2.029915804506303	4.492525089365472	5.888897880944951	4.565249431528052	2.8659629749418736	4.305221546747548	4.769313323377342	4.275878418617286	1.846596593962975	2.5914115840334864	3.4423096093052195
512	0.3725318601262657	3.826976051205124	5.768393978813891	3.875379552593537	3.6054096130895985	3.0637376231089224	3.590701809400536	3.9896390337351133	3.835165967795164	4.172153939203873	4.433234203589874	4.173394669486385	2.821875088242882	2.705980055652798	2.77092575327325	4.8985333319011914	4.485099304319523	2.5801284248059924	2.006900782286578	3.7968170546992366	5.213380800436112	4.315899838041389	2.284741634322524	2.0196709581881747	3.9656710524571257	5.546846375766067	4.082020272439251	2.5434534485497107	4.0797762767784125	4.434986580141847	3.798821439688683	1.441311713394424	2.325809472887661	3.0727052611020285
516	0.2680988304998733	3.6994306947766566	5.8147005888044	3.8293018244383874	2.728752606178189	2.6240324907809605	3.359245768648847	3.9990513223771207	3.395219794284339	3.178671590409074	3.94599317508066	3.876520623910236	2.6591932706451913	3.1010262887862616	1.688152308970247	4.362212170077782	3.978220452755031	2.156948084153839	1.947842116206439	2.9199852869697867	4.6741118313081325	3.692466011261526	1.8836075019963623	2.027232164986711	3.3023354923795676	5.083945261517299	3.388944378879651	1.9791665027240322	3.7253653909086877	3.95927118255446	3.161348096495292	1.0849339934613664	1.9890680262891212	2.6425998144187752
520	0.04954517992742929	3.3882942114160826	5.6582813120081585	3.5377967268314716	1.990739578942982	2.0972428268888086	3.0280313415370848	3.354434720153303	2.699093811849994	2.341999763297834	3.4274132165205637	3.557860842305107	2.2730765285322736	2.9088408873549794	0.91631561286368	3.863448133251102	3.5580782800486985	1.5898109634314868	1.60085272384825	2.297689432065103	4.227992523962796	3.132158748348163	1.3588097061182856	2.0351672121163356	2.795982830617824	4.702258098174326	2.764624827080662	1.3785746062759034	3.4744012268084243	3.5760197549179513	2.638977282537052	1.0576739284514562	1.833380932947452	2.427297824453327
524	-0.23399379790356145	2.984575264071117	5.312629209456774	3.0989794652898426	1.6902990298510576	1.6647746520926243	2.7146007946141872	2.209161276008097	1.9021390628474018	1.9991921135972395	3.08546661551622	3.3018667614542374	1.725281234199992	2.186774009905562	0.7445028405466111	3.6190524009885037	3.3221595203446532	1.0283386681342852	1.0847169133456427	2.1967549268572912	4.065222729909639	2.814127676534537	0.871025858110472	2.0466873594108583	2.6764314107078704	4.5666065100768725	2.438733571571061	0.9475879049218711	3.5045826346606908	3.4743707092303766	2.43851923326899	1.4736456833826739	2.01526998964765	2.5825307304029543
528	-0.5225535021940154	2.622754328781624	4.850480544241751	2.655663245171926	1.9305125426189054	1.4648915492266141	2.5197908814707812	0.9560915207565721	1.2086101739886528	2.268386835093186	3.0424420756773367	3.1677958885322357	1.1610522240888885	1.2434407441216613	1.2210552661584648	3.727276315815362	3.2950513279692473	0.6187468155497835	0.6096340402470158	2.669994824344116	4.248061169389422	2.8044986654046733	0.5536133036941187	2.077289099217019	2.997655384124763	4.725544917573541	2.4829528269068057	0.7886185626146425	3.838308801496946	3.6995148565348672	2.5922288829205833	2.1989524308953223	2.4973137315641516	3.0477187556566903
