time	FP1	FPZ	FP2	F7	F3	FZ	F4	F8	FT7	FC3	FCZ	FC4	FT8	T7	C3	CZ	C4	T8	TP7	CP3	CPZ	CP4	TP8	P7	P3	PZ	P4	P8	PO3	POZ	PO4	O1	OZ	O2
-200	-2.4186286865205027	-2.0868399090531353	-1.7659887030837265	-1.8525384617763423	-2.2424135151514384	-1.4934201202834316	-1.0744103166156829	-1.2652744022849203	-2.0264434763290344	-2.312483304861004	-2.0992784447120383	-1.162735101625228	-0.7187235337231173	-2.129711384164622	-2.099161381189995	-2.916770927694455	-1.3878320420511756	-0.42330464613851865	-2.5569915706926545	-2.038527006724552	-3.0250182075420065	-1.3669316734134533	0.09435857063550485	-1.3505970205539986	-1.675695772708667	-2.25343489077974	-0.6542202217750716	0.7789536098840697	-1.2587765423464918	-0.6865678412269405	0.8224352577425813	-0.5159115778295286	0.1723271156966984	0.6165898426700974
-196	-2.545678609142848	-2.193074459260993	-1.9387168835329447	-1.9356162499195573	-2.4004800259065338	-1.8279775334936261	-1.2887492147332815	-1.3773585523162661	-2.0364773222051906	-2.4417424140317263	-2.442621224912076	-1.1497547597466844	-0.8054522255588968	-2.1163384860965784	-2.212344640868224	-3.240029803678842	-1.5157303771851116	-0.23444802999908668	-2.55199789356598	-2.1165733283964006	-3.049715272833046	-1.4447833263159569	0.12947215107177298	-1.4833239279489978	-1.7121905045196029	-2.130617851600077	-0.6839113218206532	0.677199540812666	-1.2785346475746227	-0.5980659708182147	0.912347433647777	-0.5825505837991292	0.2099917078676872	0.6703306419614474
-192	-2.495305293458871	-2.120947117218976	-1.9110705804258652	-1.8915400457309122	-2.4502897200709373	-2.10159658855079	-1.5120477638216065	-1.3702799047206127	-1.8639594269422093	-2.3964090286786526	-2.6480829648871094	-1.229783531898757	-0.8691325165739618	-1.8976212692034127	-2.1081011242094165	-3.306514016386352	-1.5603986939134604	-0.10615187111518244	-2.2970423640430546	-1.9890809008923602	-2.875730030428689	-1.4371976816131238	0.2759322815127343	-1.456533666748021	-1.5524352749729948	-1.8687257719542842	-0.653012631674971	0.5878828749119176	-1.189126488544375	-0.4307238746735589	1.0100082133542103	-0.5855554327486044	0.2757292084884973	0.6963152271810295
-188	-2.2688467445311122	-1.8896628570530956	-1.6941945510051628	-1.7007675127958186	-2.3338303507055453	-2.213799471034229	-1.661015983202578	-1.242312547408201	-1.560355540150752	-2.1391932910315514	-2.6536345414874725	-1.3479536737741733	-0.8871651269448463	-1.5419623812845316	-1.7872176125226213	-3.0866179388317945	-1.5002373419077604	-0.08911049343499078	-1.856761570057306	-1.6610141950632393	-2.5133831437550254	-1.3286368813348455	0.47740587471591545	-1.2687758175287658	-1.1918570965239312	-1.4786232672552995	-0.5502268658097548	0.5028939234434496	-0.9498046016554712	-0.16058690805422043	1.13632642935914	-0.48566231008935706	0.38532873890865393	0.7156665903142398
-184	-1.8835811567434382	-1.5418411454373644	-1.3402214016455631	-1.3680542672903186	-2.0193364569225394	-2.1023316330283044	-1.6700831609522075	-1.0257738802760756	-1.1822134226514895	-1.6800105529330638	-2.436198943663032	-1.4327927791660542	-0.8476703741606498	-1.1188484402064902	-1.2960453000725267	-2.6187956267042165	-1.3454982008342058	-0.16377627808229323	-1.32523715161473	-1.1871074408123512	-2.0117235132924685	-1.14048814485614	0.646551249779053	-0.960582194287257	-0.6911546570494053	-1.0139127944142985	-0.40435731308889816	0.39485597510782083	-0.5819003567309161	0.17033332543283422	1.2501621214774332	-0.29449632689509436	0.5124645816262258	0.7142182570544993
-180	-1.3727903331429243	-1.1282247276431445	-0.922161397989912	-0.931066093478294	-1.5294477900990868	-1.7798521473770328	-1.528943892433428	-0.7770908455302522	-0.7748518566595624	-1.0915722819425313	-2.0348880239609124	-1.440475102602469	-0.7556759099954831	-0.6890100819358013	-0.7298005800894986	-2.0127618262018343	-1.1395925254660062	-0.27123960784141565	-0.8037537316056657	-0.6720905286986424	-1.462040539864916	-0.9328517294219669	0.6930467468883782	-0.6113855227293187	-0.17526635483360278	-0.5725851044503577	-0.2827939085973086	0.23128627182263636	-0.18086692645184796	0.4538876998885896	1.2524509398310295	-0.08132299760313559	0.591029284892377	0.6414512379663677
-176	-0.7783515433687136	-0.6855635625696554	-0.5013447987296484	-0.4527263927950403	-0.9410344934546522	-1.3295067515185013	-1.2823761669206977	-0.5518045411483313	-0.37169062997435215	-0.49408292645641794	-1.5439938267826374	-1.3706047500338183	-0.6285403951034567	-0.3059459320927036	-0.21401098316519485	-1.4174115622020194	-0.9385461783554964	-0.35640945940632024	-0.38583591482976726	-0.24734651979939923	-0.9777282451739906	-0.7822477797785542	0.5597819075756392	-0.3216216854081524	0.20072542080268815	-0.2712168984718136	-0.265771567150494	-0.0069116973143656	0.10816421332468612	0.5534083829258982	1.0288522217523735	0.04784937190849645	0.5394406901091431	0.43377041707194924
-172	-0.1407271322035208	-0.2226203376394605	-0.10225785497835403	0.00030771098604036003	-0.35472121745196444	-0.8622387625859348	-0.9964427326793839	-0.37825304174290936	-0.0035113640972235347	-0.01047673539407386	-1.0743715735966766	-1.248981472676703	-0.4843852507759462	-0.017507348165417717	0.13607405091739422	-0.9613149141836309	-0.7808555344894057	-0.3921048631305138	-0.14462183379376237	-0.026162553512561092	-0.651480792308111	-0.7434733491246497	0.2532391243739841	-0.18144197716202787	0.31040799539396846	-0.1964728380249575	-0.40494820373338714	-0.3089725069351446	0.14739683233240283	0.3670410504610973	0.514458953035375	-0.005975909050367478	0.2988909475409662	0.054234057527943386
-168	0.5046604262961979	0.272661595848232	0.28746822403808275	0.38089024924433823	0.14809139035505567	-0.46183907869084095	-0.7162172180212847	-0.24454058645019844	0.2950251094998842	0.2858282618458732	-0.7031456810364649	-1.0940682860408437	-0.33163988506509456	0.1410337682977936	0.2617029243060758	-0.6942471248264792	-0.6657863838552448	-0.37370377684655826	-0.11888167977120652	-0.05552272484589495	-0.5087633716135977	-0.8146819451744185	-0.1460874971039276	-0.2353964740055193	0.11400740564887696	-0.3554295292463645	-0.6860212070310855	-0.6267555936248086	-0.12685516444603315	-0.11126930983583988	-0.2505160861842954	-0.2850726835682856	-0.12977990475313253	-0.4699636089857277
-164	1.120875474960894	0.8050715306936777	0.690498588726019	0.6726155860131431	0.5332919345742826	-0.15180313548862112	-0.44515654332303295	-0.10782202305989455	0.49098417038933617	0.4007911970033125	-0.4420677114292812	-0.8946017004314724	-0.1671674843382271	0.1602327521570204	0.1882633711114803	-0.5646852836657068	-0.5549708590800955	-0.2980422370061522	-0.2983542077161189	-0.28958481477103537	-0.4872092890359518	-0.9275997257654882	-0.5048880564340205	-0.4593222129669098	-0.31490027825005823	-0.6552459581044215	-1.0184943650280363	-0.882278201736695	-0.6616323573574014	-0.7671912293137912	-1.107304212635539	-0.7441467027949773	-0.6700354797612649	-1.0356582377035126
-160	1.6579463440043956	1.3402181829947533	1.10259091575718	0.8828115440967987	0.8108439425023763	0.09779953186853936	-0.1587710674568839	0.07607244680986959	0.5687742218916199	0.40824147955820234	-0.24405012963190242	-0.6153624638279814	0.015567743180130442	0.06630554033466599	0.014880528635959902	-0.4507659066263603	-0.39863136310068453	-0.1545598205002006	-0.6166203602481454	-0.6037421211258441	-0.4612512576855502	-0.9737077330801069	-0.6895160657640221	-0.763017652492511	-0.8124480226985218	-0.9312458610864828	-1.2641851870090448	-0.9909188126341263	-1.2941473689783805	-1.3967348301909297	-1.8228247119658032	-1.2560571400401253	-1.1859512299159172	-1.4900863133002715
-156	2.048008198335746	1.7925140812439904	1.4698101245010613	1.0225776408127099	1.0038521264480609	0.3300315729391808	0.15887756605566744	0.318646966606535	0.5439826832388499	0.40093460577828005	-0.04601101938194316	-0.2286746645160739	0.21352249330017145	-0.08240666219648038	-0.1346518691954829	-0.23419044852734014	-0.17140220062373146	0.06354346110274796	-0.9622268056417473	-0.8490983822365732	-0.3078235380030327	-0.8581173398287012	-0.6257917269165792	-1.0229793761174817	-1.192578074305314	-1.018343446067846	-1.297097202840867	-0.8943532682726757	-1.8115385725060777	-1.7853436424956144	-2.1790468637763896	-1.656398053755619	-1.5284721812758664	-1.6892081456451324
-152	2.2177228871620183	2.047784800127692	1.698436613563117	1.0891201468626628	1.1150453062515537	0.5566108808769497	0.48253574845555774	0.5793480262434331	0.46209743502296763	0.43438273558618085	0.17994356109964127	0.24938392576196766	0.40542474286716323	-0.21604596023849482	-0.17335148111922197	0.12369878558876023	0.10322573009893438	0.33296033655979235	-1.2110904424607842	-0.9206411219241093	0.019745703736758446	-0.5548636899290599	-0.3384038797417732	-1.1326981754315328	-1.327938076481263	-0.8328849652242856	-1.0677428218586518	-0.5903789982195193	-2.0384604879411508	-1.8008772089313105	-2.0682587571377677	-1.8091862156013112	-1.5936489064988841	-1.5622161587373629
-148	2.119644874943211	2.0170757719612062	1.6993477301608533	1.0643912526913935	1.1170079679897624	0.7406315784828682	0.7431718688321369	0.7750930170517147	0.3785874237992551	0.4969915437071463	0.4002464403537632	0.7447406034740198	0.5552496300030062	-0.2814088754701597	-0.09236565954014889	0.5483775125009779	0.35605025201548823	0.5822737202248465	-1.2708682981829675	-0.8049675801934518	0.4519802916559481	-0.13253889944469122	0.051317278166191714	-1.0487022373425157	-1.2044084041704648	-0.4219911087825973	-0.6386491640179064	-0.1449142988837756	-1.9126559447635982	-1.4563655816501788	-1.5489742716782051	-1.6654798942478262	-1.3687982524645268	-1.1515186995997138
-144	1.7677868560027707	1.693333263890333	1.443642851045704	0.9321590042421363	0.9746844743915752	0.8184441903431424	0.8608199336252836	0.8193526247318705	0.3299458316578879	0.5241358862995174	0.5367019162932734	1.1462959022191013	0.6275955422768628	-0.2642084651475282	0.04077032943207229	0.8835408069237844	0.5045146333354454	0.7088549119218612	-1.1186054916749992	-0.5823099598487784	0.8246700742881474	0.2673058205054613	0.3745944788535105	-0.8099133947904924	-0.9217754579159658	0.04894611972133641	-0.1689961995388026	0.3226873270470787	-1.5122179946866552	-0.9104174948594673	-0.832674978061272	-1.2879776922132569	-0.9454824900597856	-0.6060169323879536
-140	1.2544828621662925	1.1755032509689072	0.9940807794268328	0.7027001959225383	0.6880951506408091	0.7482605557623435	0.7936788181293628	0.670276520944128	0.313760726851797	0.4504585850786743	0.5206431137291426	1.3532024587798424	0.6066927298487107	-0.19236019205164495	0.1286881860821828	0.9767259930746228	0.49762213104495545	0.6322047098410619	-0.8122511485573257	-0.37867885732410966	0.9586828922862844	0.4932796346608081	0.4924453484499933	-0.5190860615976063	-0.6379077418434173	0.37182068730892365	0.15101613066215505	0.6804479343400786	-1.0174555752815133	-0.3985327174138303	-0.19975548932186826	-0.8259245732435678	-0.4877964245878294	-0.12430451778976082
-136	0.7320693116778563	0.6412935836813349	0.49281313890965134	0.42677542459502676	0.32391455687758314	0.5534842000338611	0.5725350365488727	0.36212339905864194	0.29246354029248434	0.26659911803646613	0.35073938877244243	1.3226109709725569	0.5085664974724017	-0.11945944249271687	0.10800597789436815	0.7721489052351123	0.34768146188692867	0.354713260231907	-0.4676712441557762	-0.29491692706989	0.7579376678404197	0.4583943176617116	0.3641172936306342	-0.2947610311218735	-0.48665109153903957	0.39784786004709016	0.18695695651059166	0.8352074602020949	-0.6258031710083473	-0.12689603833108468	0.11902762919415118	-0.45050412302716775	-0.1670119907215619	0.1281160858019118
-132	0.3587338319304353	0.27440917422631184	0.10569467368858712	0.18482708884304885	0.007576517275963477	0.32971379077636315	0.29610136076555377	0.000910903906943832	0.219166978640344	0.04225644086063414	0.11591247439921697	1.0909485789411764	0.3775246431832707	-0.09752205734664927	-0.008714369476191596	0.356283634001517	0.12979249623430952	-0.012529063006895122	-0.210810258452321	-0.3524880698364478	0.2710053317857175	0.1861948366232565	0.06847202015516966	-0.21650394742663143	-0.5130982982078778	0.11276213051221232	-0.07458316515927176	0.7709730248059522	-0.4621248531594951	-0.1799830342755441	0.04051846255562918	-0.2802878611163768	-0.09031178034392223	0.08995417482791455
-128	0.23109370411701446	0.18039900018922014	-0.052868474141393666	0.053245346858776355	-0.12771695820034232	0.20607337303585183	0.08614858218138718	-0.2787711613292515	0.07176728528499918	-0.10148859743482504	-0.0359032451200006	0.757070301051838	0.26698332957571824	-0.15194597801946472	-0.13775186205894063	-0.07304764520560615	-0.05207454027498996	-0.28422629761461193	-0.12488380042970909	-0.48488277074463026	-0.3200016311672475	-0.1962922508529052	-0.23211660922574473	-0.2896617047626015	-0.6581451876236215	-0.35339555055086197	-0.5142460452447749	0.5554014430328658	-0.5261790739126144	-0.4838841843309069	-0.3376353076516574	-0.3298449507968602	-0.25348547037021885	-0.1691972758074447
-124	0.33809682641498806	0.3358863881690735	0.02459949062514335	0.06522857381326091	-0.011181083479606342	0.2783225171691599	0.025785643542275513	-0.37625169659033897	-0.12652876941206717	-0.05867256954400086	0.027676582266549128	0.4364370692678228	0.21345223432531985	-0.27388781239977783	-0.17404398278163527	-0.30300232691558043	-0.1169209924368509	-0.28925561831877206	-0.21859347765092435	-0.5792958721793863	-0.7833915333042615	-0.5191579447990239	-0.373037128698751	-0.4473371792466351	-0.7989249805306683	-0.7906360606259062	-0.931993482144013	0.3075750462395915	-0.7029602509870368	-0.8458545782667968	-0.7879105190411432	-0.5072283732005727	-0.5424696193350468	-0.4827168869705728
-120	0.5630346522421094	0.6004031881432463	0.23388233721811288	0.1892719711055006	0.31745317498166514	0.5519627318751659	0.11711965471738571	-0.27495795418937335	-0.31516203204692844	0.19490356694127303	0.34684890421080805	0.21249389594787949	0.2178972208958997	-0.42803504954988486	-0.0566808170139248	-0.21588374619814815	-0.04739465552523364	0.03174043438765562	-0.42820435654294187	-0.5435921536072675	-0.951452968102573	-0.6523948891380785	-0.271896629839116	-0.5866638407200491	-0.8208665231006985	-1.0139523718983294	-1.1388416261530216	0.14116623962047245	-0.8289639332822809	-1.050239441127392	-1.0633109781122119	-0.6617134792787359	-0.7846866230226714	-0.6656422002198972
-116	0.7369678001870646	0.7871940712127519	0.410396515286938	0.34021815571718833	0.7142470460978532	0.9294856763260648	0.2823927991413053	-0.053212262555719245	-0.4293707300312843	0.5762057885880975	0.8356413820149642	0.11025765510378255	0.24548576710233783	-0.5700492844494358	0.18964400839608808	0.14743927083937577	0.1033116427435806	0.5770333394740695	-0.6508080346842298	-0.3601608267274001	-0.8027729967830075	-0.567125557421295	0.02991013407606212	-0.6200463756165402	-0.6807848197914985	-0.9533001756441433	-1.0435258123754214	0.11044821115264837	-0.7782270888707368	-0.9620915030984488	-1.0133746836826247	-0.6580192430095291	-0.8270512202362678	-0.6001661404715731
-112	0.7210926991376679	0.7579643707212116	0.41268086329218745	0.4207961846694796	0.9949465964946541	1.2519408432823296	0.40868726269535194	0.15320242902699652	-0.4380100060371517	0.9284556484623018	1.3128862347834254	0.10208450977062367	0.2447149896403709	-0.6631468517726756	0.46241423370914897	0.6056873187031778	0.24091800986499184	1.115098473594559	-0.7921861390140214	-0.09734202896814034	-0.470356612210062	-0.3452360621319028	0.38588088653413677	-0.5169629441560673	-0.4285951841977474	-0.6845617277028001	-0.6940310579897139	0.1851671780441174	-0.5259017931058194	-0.5907249435769223	-0.6531337483128489	-0.4427047658710322	-0.6069408043796396	-0.2900359921285236
-108	0.4760052251718748	0.4914009260645535	0.1950202430331263	0.37189820314925837	1.026172516139327	1.375646706922639	0.4111533452620627	0.2197390044148092	-0.36078637747273845	1.0985845299640726	1.5867806632987567	0.13821420038613486	0.1766398991655002	-0.685729382691002	0.6350446923435047	0.9295396185294503	0.28125128078977146	1.389009472201096	-0.8048754314128617	0.12751944330921652	-0.16990952150839	-0.13178016212093852	0.614946363803855	-0.31503054420088594	-0.17779169931823186	-0.385659812907223	-0.2527309947785568	0.26851770213997483	-0.15792794485750347	-0.08220631608473493	-0.1508151736028022	-0.06959516537499787	-0.181017919917844	0.1432224955519035
-104	0.08140529671620142	0.08922771341922622	-0.16877797203366968	0.20381787367860085	0.7942172864889042	1.2430802552309699	0.2782573692925849	0.09682019775502988	-0.25513836677031204	1.0161844466302428	1.548997517489609	0.17856416061140942	0.037898749017397745	-0.6308433993624737	0.6253435595936446	0.9580833291660026	0.19388453613444337	1.241716977799109	-0.6995169502717008	0.21124044007374007	-0.08755773283786741	-0.05746349677836527	0.5876870736543248	-0.09695063506921091	-0.043155945728539424	-0.2429913276259468	0.08088619986616315	0.24881300267342804	0.17531888142667848	0.3528970471055416	0.2570185952850046	0.32688292778454797	0.30102017445857926	0.5185450302383461
-100	-0.30335271281900794	-0.2798782281961922	-0.5219832049542443	-0.008424689040669422	0.41367235675320035	0.911408958518158	0.07579038273034339	-0.16358011919683266	-0.17807699694972895	0.730176625792437	1.2285432784534023	0.20827339537011816	-0.13494615222715717	-0.5015230762217215	0.43949270137451846	0.6771497709344041	0.014990191868844002	0.6943654400460596	-0.5270365463301883	0.11829754680330189	-0.2873820059196328	-0.17299154357149335	0.28299015688973606	0.05314604179554098	-0.0812108961677573	-0.35873454718617076	0.1617536689727529	0.05921222999643473	0.3353332570669544	0.5381636605980544	0.37961205744267945	0.5963053688252842	0.6643277389919842	0.6789633614564061
-96	-0.5172409998232425	-0.4665530014179684	-0.7037790995948937	-0.16387413400760614	0.0701732037679896	0.5242246376153639	-0.09130709595277176	-0.4352468241193081	-0.1464030887960553	0.3829255988466671	0.7770375589779576	0.23131221474420935	-0.28290104794602183	-0.3103660039218302	0.16749691920906895	0.22020362261966034	-0.17618305936677264	-0.06421656890391642	-0.3457335522982645	-0.10233481202514537	-0.6855211240626826	-0.4291275430812147	-0.20943073875479992	0.09158974862816363	-0.26299238138556863	-0.7050632220586927	-0.03891443823883812	-0.28584542798352514	0.2635447674296299	0.4092574705281561	0.1597231175443163	0.6436576230964478	0.7869112471740067	0.5613426551951423
-92	-0.47412881135443824	-0.412295668276299	-0.6305208786304084	-0.187460317734449	-0.0730965061130374	0.2416053110221616	-0.13638985122577812	-0.5843384251146532	-0.12291219054422596	0.13609835471124004	0.3934049894413945	0.2523460679835692	-0.3544735303512257	-0.08230251798115952	-0.06512672437675811	-0.20527358301311371	-0.30198654456188284	-0.7699182610146699	-0.1904316390713227	-0.34260561975763887	-1.1002894612189233	-0.709470866319415	-0.7357268314859742	0.035002998919327795	-0.4898104357273826	-1.1443531484321972	-0.4286905516291472	-0.6961013657161153	0.008506537393610281	0.03610225385253229	-0.3064585916411224	0.4728121745569964	0.6508975012558117	0.21973296944454093
-88	-0.19862331399837937	-0.1680570836592538	-0.3353956631298767	-0.06644765270861291	0.045306891088537735	0.16557662147202726	-0.034891746850135415	-0.5376404510275371	-0.03764266138705714	0.08930312819583788	0.22797526361604528	0.2640834742077498	-0.3317658594815093	0.14583343230621393	-0.1609618063677499	-0.42338698995506796	-0.32615464843419856	-1.2077672451043673	-0.058672308773680626	-0.4868948149309108	-1.3473844494180054	-0.8939633346875396	-1.1478760213481074	-0.04994186001327889	-0.64035284357522	-1.5000541172301836	-0.8436952212013258	-1.0485279533616325	-0.29882651492012663	-0.41761508478584847	-0.8222441056472692	0.18171879603282706	0.342972188322082	-0.20592825062735134
-84	0.19283239494752458	0.14374692701763572	0.051683820653602844	0.14618179165172418	0.3601954868282495	0.2973087720517204	0.16665528672580415	-0.3189872495226986	0.16624431270111545	0.23513378143549618	0.3155308953901897	0.24968434807203835	-0.23921585022611616	0.3321669987398349	-0.09338425821330502	-0.3706761589228363	-0.2676018767753132	-1.305210229439341	0.07909926007088912	-0.46103319409319	-1.3276610340930464	-0.9174047089302663	-1.3612165416682391	-0.08108665028603669	-0.6233534797189083	-1.638631101285828	-1.1257235975453943	-1.245377537444103	-0.506659446867628	-0.7733840326810295	-1.186467882975526	-0.0864177046024492	0.006673777459103434	-0.5571669922113001
-80	0.5515731559178975	0.3970940103041967	0.37153986002577344	0.36150255708022894	0.7200299483240059	0.5460155592484269	0.3800910403668852	-0.0327850914663837	0.4894080149691975	0.4730679976917265	0.5701447710901248	0.19943591901971183	-0.12979842689644971	0.4459972072308226	0.09283483750031382	-0.11224837572844855	-0.1812083120539371	-1.1462402314810216	0.25543305213333756	-0.2551144355054951	-1.062494990527297	-0.7914674858137789	-1.3723441327732622	-0.0005137403482639064	-0.41022264853856716	-1.5205838641876281	-1.187217590195618	-1.255280014683506	-0.5087970482378108	-0.9137794352348904	-1.282591101269215	-0.209602340526675	-0.22591665330115154	-0.7258666735442549
-76	0.7623436431710925	0.5203564153884969	0.5135357962994246	0.49862810843461225	0.9658654903821638	0.7799096683838531	0.5241498933910042	0.1949366028155564	0.8617735483346375	0.6693333370475836	0.838889417914509	0.12739647892735537	-0.056967601036247234	0.48466500517549316	0.3165286771412106	0.2076266700747768	-0.11948267340295943	-0.9059434510246328	0.48168441531638023	0.08470966645549739	-0.6649946553606922	-0.5828466996736257	-1.2388143508151654	0.19965930232660484	-0.036873627360945474	-1.200191375563253	-1.0353521082487191	-1.1182025642773348	-0.284833221908505	-0.8206542113565446	-1.1186277838120888	-0.1381892707435205	-0.28868791388104215	-0.6921855789828376
-72	0.7814505080520515	0.5134881125837246	0.46270808460714974	0.5187578784243015	1.0051228974714639	0.8896591044852414	0.5628890380952908	0.2843303375218047	1.1680446833684146	0.7272200566051079	0.9820074414255463	0.07243587058375672	-0.04805376741078612	0.4811656760942097	0.5064532147972257	0.44700023419057044	-0.10004413847698512	-0.7463985066642614	0.7376754861326962	0.4849350440179663	-0.26983538201869756	-0.3659378876983796	-1.0384228203305048	0.4763058411970405	0.4196308542624181	-0.7818962911892012	-0.7497774343634026	-0.9153080559509407	0.1014839780748666	-0.5628496394251937	-0.8038257340163725	0.09227496362277152	-0.1975901270884513	-0.5174372779179922
-68	0.6355901344464672	0.42441740524902094	0.29509442970158295	0.433742253877364	0.8432229736019626	0.8321370461435322	0.5152212368354829	0.24178053377619765	1.3024617400663976	0.6285209043846643	0.9355102157815269	0.07859320918744311	-0.09330058819341282	0.49656966203249125	0.6294981225332896	0.5324439988998487	-0.09832103525610437	-0.7310693841596289	0.9815538500799508	0.873650310217951	0.03487038603561796	-0.18076625420707648	-0.8314112403859348	0.7578380684792515	0.8727530815024124	-0.3634798815610155	-0.4323124576621018	-0.723694918712702	0.5391170964934744	-0.24784071680914546	-0.48152649281044657	0.38846298954160985	-0.02597158768176348	-0.30189326329304483
-64	0.38937181136052806	0.30436348838255706	0.12466430632587788	0.28859981821628655	0.5622032270542366	0.6362373216778043	0.43360146770675995	0.14897939525183865	1.2209005325010185	0.4277030218770018	0.7276272159325406	0.1652388568520991	-0.1554754521497672	0.5922684654541288	0.6889546496163002	0.47925868509408054	-0.0681348962851712	-0.8056501129790515	1.170707818890255	1.1970211237249435	0.2393977188980279	-0.019408214788311666	-0.6454735381995901	0.977424023067825	1.251769301115099	0.004167790979800167	-0.15649172624178298	-0.582002697905737	0.9215403175929205	0.034646529616858275	-0.25540888244994214	0.6503517611296261	0.14348569476140594	-0.13147439029401276
-60	0.10636043521730557	0.17337574020958432	0.035198438823762564	0.13218203153616076	0.26593711905093964	0.373956709156024	0.36760944035224036	0.10910866381992887	0.9626634692682694	0.20877304620484757	0.4477327156683659	0.3071852020614223	-0.19328041325884768	0.7952335456797588	0.7009069305843535	0.3639961471904341	0.024525247452327596	-0.8477998950534197	1.2820407119807486	1.4220448696472916	0.3977998187035225	0.15504741629555463	-0.4835887837121459	1.100423333250751	1.5138581952974433	0.3241008511943583	0.058127797993290396	-0.48475980636276905	1.1878789633323759	0.24812184211551883	-0.14727431498537635	0.8178464153621993	0.2612751417716028	-0.04140673194802267
-56	-0.17146047906501344	0.019367562558032337	0.036872018035540605	-0.0049211131284564455	0.02662058167889087	0.11801909625535607	0.3354074946518347	0.1824391628666025	0.6311674698152994	0.03430156028551107	0.19197282146622768	0.43920937069629395	-0.18422639323451906	1.0752339335951098	0.6698878986611737	0.273881822132993	0.17598666206273358	-0.7524622063712422	1.32229900026259	1.5322267970500782	0.5830968007624717	0.3732818951719032	-0.343448429432635	1.1342281074497649	1.6446882444818998	0.6306912883093909	0.2383627289475999	-0.40433794157939507	1.3364534344309553	0.40985879198545444	-0.10332025561472889	0.8900989271579286	0.32603090919195726	-0.012005643888798961
-52	-0.42180496347743374	-0.1756338174677153	0.06919720751457913	-0.11536371678789721	-0.1398608531997036	-0.09045140422395608	0.3191234759379888	0.3492559185746955	0.34295558842855395	-0.08284612724129979	0.017699653238074244	0.4870846259217188	-0.13418218459583864	1.3446593250657548	0.5836185202168735	0.2647835903635139	0.34479707392424036	-0.5037582503951554	1.3203855719608415	1.525781508408209	0.8418812730514561	0.6329910739175982	-0.2328335189901319	1.117134210627078	1.6536283451291889	0.9556532478046452	0.42719879638579744	-0.321414857291304	1.4089574778270018	0.5621744380108828	-0.03879511346558935	0.9111976004483181	0.3678537299882355	0.006454310363626823
-48	-0.6280524118779126	-0.4044741977970076	0.046624351175133416	-0.20504382200924587	-0.2617185705252898	-0.24937282439690628	0.2846795313323397	0.5223997818155278	0.17355072454504186	-0.1719815577694855	-0.07057912629904635	0.40920305148761354	-0.06908927840432458	1.4889527521687953	0.4294774819498075	0.34811505587425257	0.47745618103597887	-0.18973661911267403	1.3088767495487974	1.4190722668105584	1.1731551855985538	0.8979204274395424	-0.16805514650830347	1.0945582362196604	1.5686219891044906	1.3042014804337092	0.651557384276454	-0.24146756468843344	1.4582664929765563	0.7357791047593102	0.10761197629223639	0.9346110201127156	0.4155238558291838	0.057721465680301856
-44	-0.7671982030572124	-0.6215240939660809	-0.08147772381000126	-0.2777090661666804	-0.37643328214018873	-0.37929814958176244	0.2111527020368522	0.6011077746473573	0.1300089057977814	-0.2717233889395137	-0.10348985318042848	0.22403703573406636	-0.015366932338421426	1.418534156078885	0.2180496895768502	0.5045037256854791	0.5427810536032118	0.04742756473964717	1.3070131507299552	1.2489182917534007	1.5366368254965856	1.1206604214030873	-0.15879015584432501	1.095393058872277	1.4302172624718121	1.6518276888150707	0.9058465934771174	-0.18753620934821763	1.5174105129077984	0.9270269847352876	0.3395422986517866	0.987843570599349	0.4703012394952054	0.15373897513674875
-40	-0.8131675699684336	-0.7598461489566645	-0.2934747032862235	-0.32653510488083937	-0.4989376651564717	-0.49777847402780656	0.11123765976954406	0.534641443333235	0.16014893312551665	-0.39575645227649153	-0.11509755224732471	0.006977116671470434	0.018338292790843206	1.1173047991199945	-0.005323776030510269	0.7066118699353369	0.5538855777107652	0.09704003458556769	1.314697977561444	1.067670342610788	1.8792319250344482	1.2737277714042026	-0.1912645990787946	1.1207805843666512	1.2838700977335762	1.960074300585651	1.1589356631582584	-0.17442598894903627	1.5855001171136351	1.1013065548748027	0.6055859908073156	1.0575343343737447	0.503509460608491	0.27239894798169234
-36	-0.7530590872825159	-0.7686170916225082	-0.5027824627580011	-0.3377809814031207	-0.6109989270042815	-0.6015084966731705	0.028777128012838778	0.3573976746118788	0.19071567010412155	-0.518943725706242	-0.11922197013795068	-0.14505797587964395	0.046827122450857045	0.661680100677746	-0.1727622594047825	0.9324263906779237	0.5627301321127208	-0.04763291391625083	1.320221659188123	0.9277932620465853	2.160071844369341	1.3675475086017177	-0.21959984247077122	1.1492803067754702	1.1690512866068399	2.198416704349434	1.3767281735947132	-0.18425556970806295	1.6353845555023985	1.2181435792685382	0.8333280065477824	1.1020328970742017	0.47913947580483074	0.3766509583023589
-32	-0.6021563991602432	-0.6454284770882537	-0.6052397474266895	-0.30154582781952627	-0.673589525906314	-0.6655655486469095	0.013817399705333536	0.17320375100751914	0.1715856041152423	-0.5901200756432687	-0.10617984059467268	-0.16280539292715931	0.09770145242580908	0.19985450753775139	-0.22448250594683172	1.1625933617803101	0.6289588197087235	-0.27109089425307653	1.3149796691119413	0.8615809061232097	2.3597757756736084	1.4426274263198742	-0.1768884058301026	1.153522607752003	1.1072944374738205	2.357379430541109	1.5434659680498393	-0.1638386543428932	1.6352379280766214	1.259914752640249	0.9716889237666615	1.0813794108745158	0.38500887058327443	0.4407179642517503
-28	-0.40506067769779436	-0.44279321916365555	-0.5386648164500607	-0.22055810634240577	-0.6497861130521357	-0.6575154645531593	0.09067735053056793	0.09722099428664889	0.09970929448464358	-0.5604137168086631	-0.056523345268116094	-0.040415808456423945	0.19185431253155222	-0.10327418867501442	-0.13822655344873336	1.370528694507277	0.7816418389612975	-0.3873725523705196	1.3047074046572855	0.8679907300015273	2.473649733973751	1.5411471089553521	-0.00530575959534982	1.1181877823254678	1.0954624386786203	2.4463436541781904	1.6683590370017876	-0.049258239442914714	1.5703375299860844	1.2455457417512343	1.0173311207835367	0.9856952999977783	0.2514478855937165	0.4668844330444052
-24	-0.2192139620014696	-0.24277821121909046	-0.3182744673799517	-0.11113969953610303	-0.5235072361126585	-0.5564764127986759	0.2382661247198241	0.1891084010594887	0.012935003233080743	-0.4090520729227787	0.0410735308086986	0.1614485676980792	0.32710549152757734	-0.1361597027917202	0.059364266543711706	1.518690701465052	0.9961005424145922	-0.2373616242376412	1.3063600030341556	0.9135955549062226	2.497902387034467	1.6751837688113391	0.31185072581711426	1.0475921604410217	1.1071153851213673	2.4782440599814386	1.7732106402450583	0.1948577309695565	1.451154585989202	1.2191337316250472	1.0114269231055721	0.8436562993683857	0.1427620645733373	0.4827041911812677
-20	-0.08977252967342016	-0.11508231581004247	-0.028885943742182115	0.0042303898264949005	-0.303997217841337	-0.36504262593611353	0.3957683136007719	0.4152485419756613	-0.04023459916089337	-0.15136651656558256	0.18176108552818843	0.3473317316345921	0.4755087482844717	0.10622524443271569	0.3071356407994167	1.5693134029821394	1.1999678581459094	0.21747459416318682	1.331211682773352	0.9488738155250087	2.4213368831536797	1.8116308404959571	0.7298946958233613	0.9580085849416429	1.1021811934300285	2.4522437987403203	1.8696367693427314	0.5463525639091361	1.3035782542695113	1.2204203574839203	1.0112274859646573	0.7056260687178856	0.12420065669650192	0.5219233022863963
-16	-0.030243996454412506	-0.08190806934419306	0.22159711960634595	0.10702075782220197	-0.01855268510962355	-0.10838837149195922	0.49326664084827987	0.6621593220205302	-0.03397423765426312	0.17089369849927524	0.34910264523104256	0.4368780542310801	0.5964080080233283	0.5128460513518251	0.5387151227701241	1.5034662447163807	1.3060587611602212	0.8539021589654727	1.3659764493786946	0.9303243732805818	2.2278320733089805	1.8836164426930562	1.1456108064337827	0.8603742696974233	1.0404071781593571	2.3456203878309294	1.9415193747139186	0.9258603430260443	1.1476168603532784	1.2548481194285537	1.0547093126371028	0.6113800391020131	0.22310666683611624	0.6018895491662576
-12	-0.021269336289111672	-0.11048842193602844	0.3604399850805008	0.18748496425500139	0.29581272527395763	0.1757082338665295	0.4914841937530945	0.7963866571346722	0.018884664353732816	0.505538521920812	0.5242830501670962	0.4057065834292721	0.6573587043377959	0.899659690969697	0.7064496856973125	1.3330240215978169	1.2548928229120224	1.427772518367877	1.3665122951338724	0.8349092581650365	1.9058216762109068	1.8224693490745496	1.432390805442704	0.744992909934717	0.8920187331566521	2.120331997286447	1.9449847887524103	1.2300188510357364	0.977977809821035	1.2821619478279158	1.1380376787063209	0.5613645300997196	0.40645459191699235	0.7110972386526501
-8	-0.027517754515075207	-0.13727228308828865	0.38534590504630595	0.24226033626426696	0.5960844144076597	0.4492152023894765	0.4087297310046472	0.7386170010991912	0.07652385513535571	0.8021569231761645	0.6913059336374633	0.29555159732585595	0.6513711197620012	1.0860701771972063	0.7882509807712407	1.0951046916015814	1.044878003343382	1.682034488245947	1.272396084433993	0.6606167538176377	1.457949515476441	1.5935562808811372	1.492209073113943	0.5792928323425104	0.6424500329963473	1.7421216920737335	1.828395004424579	1.3810353244245979	0.759977636802707	1.2323172061324725	1.2174632518547897	0.5097893463615263	0.5898987039931318	0.8143628815117414
-4	-0.018976811271677774	-0.10512040528936792	0.3584773531446143	0.26924005082818403	0.834849593915767	0.6830725652614915	0.317967175634588	0.5087788688212003	0.09601394062834998	1.017061230952675	0.8350185730832785	0.18896797251675243	0.6002781972034679	0.9723318790682303	0.7780872563744468	0.8311715701098981	0.7339836936539189	1.4721590243364395	1.0386260721686758	0.41598489775535735	0.9051074362791239	1.216265198497829	1.3040851321674014	0.32287910499115935	0.29164650962628846	1.2026823728714169	1.5618860682154303	1.3633271421344069	0.44520732648025335	1.0413001749451274	1.232874271141137	0.3854827275080424	0.6754360777967936	0.8720806815063988
0	0.01705989237292828	0.007974060232176278	0.36413958576772393	0.26563009552647676	0.9663930510917388	0.860220012877134	0.31317496220674573	0.21759508495229607	0.061491951191145144	1.1151735754467864	0.9356999373653679	0.16338221687551682	0.5426284061083275	0.5827957377024714	0.6724749190518283	0.5642049894393194	0.41310250654826397	0.8471661188671231	0.6681059582054676	0.10835213186802728	0.2833339862822548	0.7581070642404436	0.9440382695205242	-0.04677623871079883	-0.1484197821446166	0.5327376709839157	1.1597279280946124	1.2269778220669738	-0.00016825024752773726	0.6868888718428903	1.138307330118604	0.12997089293567188	0.5976665600945832	0.8610179402547276
4	0.07906436155146124	0.18389460398021454	0.45717072371452927	0.23228318930631017	0.9616489386121089	0.973488745615755	0.4594934869132395	0.010082656492168595	-0.005044073319366045	1.076233741904048	0.9682080721252118	0.24834787782909762	0.5126253949574238	0.05294295759543306	0.4673901486517252	0.289769052727571	0.16368891257443427	0.039947543192379836	0.22374162021414418	-0.259721189081587	-0.36382436660462514	0.3058808140184509	0.5595327005564624	-0.5124726282532501	-0.6552735550548828	-0.20258840867392297	0.6806901676158341	1.0556894514133146	-0.5702359065917564	0.20285390266224346	0.9223468280393401	-0.26808556846644427	0.35343217760498397	0.7832870463622341
8	0.16305549401600541	0.381711660851914	0.6319656356114713	0.18023903622420806	0.8263139703869024	1.0211523745504392	0.7509879450910898	-0.009996801589521855	-0.05682210237342755	0.9059384442344843	0.9094929076120458	0.4061484028575542	0.5211209045604559	-0.434293179607632	0.16941319363259844	-0.012937290561318223	0.02003156947502463	-0.631100295380807	-0.19104175221370323	-0.6828546506807429	-0.9934273933124547	-0.07205931824133889	0.3099659375471079	-1.012297746963542	-1.195882675012608	-0.9250521040449305	0.2035777712688906	0.9186009145432434	-1.2110528915346706	-0.33660551820647294	0.6090384706379238	-0.760483739840217	-0.00010263426494483363	0.6592292769000592
12	0.27045234969521	0.5619998560067765	0.8270024636369646	0.13262423839463292	0.6094911679138499	1.0022007201640835	1.098517415134225	0.16461376804275657	-0.052231415974352415	0.6439856274558187	0.7502535562646664	0.5448189364029373	0.548437713192049	-0.7338391523907035	-0.1893044854391435	-0.3584361663351785	-0.04764547932039582	-0.9075164772009287	-0.4765523064025645	-1.1404076785858963	-1.5693579872563188	-0.3544249823681787	0.2915369562894679	-1.4570535384584395	-1.7270735458638626	-1.5710098703774535	-0.20984339661069928	0.8334460833487843	-1.8344422532496432	-0.852677760355588	0.24228422282560041	-1.2558172909501546	-0.37652259970015917	0.5099644648074342
16	0.4033150364706648	0.7006624323321021	0.9591266488655168	0.11678574204761642	0.3903637220540534	0.9125326848832712	1.3561868633362113	0.4381747234725726	0.01738681826076044	0.3575386395964167	0.5008862005939044	0.5561501369739992	0.5525210485813673	-0.8012030700482321	-0.5486669526552764	-0.738347051663685	-0.12176905541670667	-0.7142131310550616	-0.5814049825294385	-1.5904858072179298	-2.066795582321516	-0.5726801142538898	0.4858053910387791	-1.7621258452748758	-2.199599737335949	-2.1114735550022936	-0.5441150055499172	0.762003837092086	-2.3466432035326927	-1.2963281837159166	-0.13470600511396344	-1.6553657013107157	-0.7017689925595635	0.3422007254067019
20	0.5468717799684636	0.7824152092253056	0.9637269949423115	0.14629538320321808	0.2402825796498069	0.7411451321009563	1.3761105502671098	0.6562868936181508	0.11852055758116598	0.11320293666153579	0.18313974095836244	0.3582094600693477	0.4871235477546589	-0.7012969237741342	-0.8432545640636139	-1.125308272381648	-0.3031399540400193	-0.19613400052142607	-0.5246372805701021	-1.9796086499778598	-2.4759576258136273	-0.7922677973771575	0.760230300891272	-1.8791735124827158	-2.5676054889703	-2.554121011007519	-0.8346157052902589	0.6390702708321814	-2.6770598820807954	-1.6605066019096135	-0.49289223427306855	-1.88920449733593	-0.942407307629653	0.14630190991180453
24	0.6549187286054308	0.7861048559368764	0.820377168968328	0.20451570995670806	0.17951761140799055	0.47029983878605675	1.0697693797758987	0.6796464902884521	0.18989534628131016	-0.059527221916825905	-0.18748262477269984	-0.07274588924161199	0.32219323434546054	-0.5644727335029744	-1.0384310457714632	-1.4940090141723257	-0.6665903909065901	0.3514899602598815	-0.3824777295469556	-2.262885564812886	-2.802359335499796	-1.0775510045502583	0.9233491397433525	-1.8126208736431768	-2.7986602712543744	-2.9247786924905217	-1.142651316618867	0.4156163622376416	-2.7929861475046622	-1.9630663345365318	-0.8177215436317101	-1.9345631550583244	-1.1062999935828985	-0.09062268562086631
28	0.6540544016537251	0.6777486784035952	0.5526587353104508	0.24217140613448662	0.15526244005103895	0.08325154313287723	0.44943758731857203	0.44981256013790727	0.17446979836283558	-0.19098836135328048	-0.6141580923786907	-0.6918051225361969	0.05806623384597345	-0.5117517696811565	-1.1561779946700426	-1.8411769820458108	-1.222694513094939	0.6253029688306551	-0.24513453183272443	-2.4217319427382535	-3.0600607317913013	-1.4551290236927905	0.8155952075393613	-1.6133481223381256	-2.879124157312209	-3.2376100935256495	-1.5118954143499452	0.09125307924358045	-2.6953608921664256	-2.211731428284323	-1.0975178452438654	-1.8095195247740536	-1.2172621457838253	-0.3630777588260536
32	0.4687907087887988	0.41830602182634036	0.2043175841179749	0.19276778351275117	0.05781786129182148	-0.42276590955807647	-0.37000289465947567	0.014918046965783562	0.049652308100271686	-0.36307531503562396	-1.1136432858006866	-1.3992620671230256	-0.27256333759156787	-0.589751540125553	-1.2711940971704874	-2.186813587389593	-1.9015620898874328	0.46036061528324257	-0.16711248415239946	-2.4687471327440633	-3.2590703881949783	-1.8924679708384327	0.38917019865008434	-1.35386228219584	-2.8129033971339417	-3.4720575721817735	-1.9297380398666493	-0.28133192587394895	-2.4026288925545507	-2.3759999215219287	-1.3099859919852668	-1.5496487578367806	-1.2817517486636072	-0.6309996231360356
36	0.05792702719845199	-0.013912995310763586	-0.1885935659415411	0.0016434604726216582	-0.22512030544664052	-1.021640536589917	-1.2103447883565266	-0.4955179976827294	-0.1612478192549825	-0.6653876287827042	-1.6904439883467852	-2.070024961967293	-0.61487167918414	-0.7531191687642979	-1.4706666432443212	-2.5505888397670473	-2.567312710955903	-0.09329095459272531	-0.14205394649403227	-2.435410255005355	-3.3918971929743686	-2.3026411475219613	-0.262170701557092	-1.098144647686741	-2.6148981982014834	-3.571747770828395	-2.3168621004737275	-0.6203651412559942	-1.9363096903551233	-2.3880057274608553	-1.4181323015648237	-1.184567210067727	-1.2710833517407742	-0.82189202101147
40	-0.5545485005682834	-0.5961988553253396	-0.6084198340313619	-0.3433666816625319	-0.738711891693434	-1.6476631122951286	-1.891720290176258	-0.9309674477914399	-0.40032711524026304	-1.1336953611361074	-2.302489274887457	-2.5861833030255688	-0.9088634229601622	-0.8996422864134666	-1.795309896704766	-2.916050903587386	-3.059365503216396	-0.8020096400992963	-0.11532691837042192	-2.3487307966060356	-3.4273478898300547	-2.5740282470565012	-0.9408972835627256	-0.8806791879353428	-2.303777212048512	-3.4692726047663194	-2.5535848076244734	-0.8515629150825238	-1.319727298265604	-2.177359575496348	-1.3806384767006854	-0.7307513337759104	-1.1338758440000316	-0.8546081759810547
44	-1.2735182014737014	-1.2503436772249605	-1.045442578537269	-0.7963792065540941	-1.4148676359694285	-2.1998553220521004	-2.2910964431138527	-1.18479239641512	-0.60207348909957	-1.706748123628192	-2.8448605465588725	-2.865446083463686	-1.1067944737147069	-0.9359147525045961	-2.197961086445921	-3.2110884108533524	-3.2488732255925497	-1.3713369334883907	-0.024355564204951365	-2.2133459988979225	-3.32025789376254	-2.6147262984063855	-1.4357032739630884	-0.7023151499182615	-1.9002391051953385	-3.1271293084347134	-2.533452742855966	-0.9370405650322713	-0.5908161386831984	-1.7234038071035966	-1.1736260622910906	-0.20427633770389447	-0.8341252186696405	-0.677632389741932
48	-1.9574356029681064	-1.8577644778077644	-1.476123925296888	-1.2619912592496914	-2.078656191346136	-2.5650191242307363	-2.37504314776641	-1.2334979741424918	-0.7194927912666462	-2.2299475613560076	-3.1708857933095906	-2.878716461542975	-1.1859115332225971	-0.8324215391123269	-2.547371381050195	-3.3254108344996527	-3.0887858789660916	-1.592181440148219	0.1579448874777381	-2.010314221074957	-3.0358121318464195	-2.39309787146045	-1.6190921027313383	-0.5405957089126844	-1.4303940498477696	-2.5724320346734464	-2.2183732930441655	-0.8836438037496962	0.18291763915132891	-1.0934821339656025	-0.812776921127562	0.35761660247158605	-0.39287865062703425	-0.30375257057747407
52	-2.4613633093679304	-2.29396509545036	-1.844762201419999	-1.6243150193212401	-2.509733193736775	-2.653001301742978	-2.195996517359084	-1.1341247529959853	-0.7341615539134796	-2.5110595162889684	-3.148689738907012	-2.6534130506280467	-1.1525368661391964	-0.6338903887956988	-2.6809971264861376	-3.1625385204577405	-2.635878317853714	-1.4365662300079676	0.40508437054403273	-1.7130039887094435	-2.576982968499847	-1.9562954853257213	-1.5023989639497273	-0.36599349883181465	-0.9294489002603312	-1.9042670678698002	-1.667218204103667	-0.7326107006649842	0.9027455426312175	-0.4406139243445575	-0.3643448641638121	0.88380688205739	0.09279610938246878	0.1768831904236979
56	-2.677437775527717	-2.4655501780249622	-2.0649926610309017	-1.7836780503062162	-2.533029073041972	-2.43104433399587	-1.857441659052476	-0.9850497220918459	-0.6474561674937482	-2.4048378406843494	-2.7287964751966327	-2.262813323983601	-1.0369240019367671	-0.42233058703605847	-2.4828567442196707	-2.7000350883979105	-2.032136435146448	-1.0585206720329976	0.6550888402611903	-1.3109650578778755	-1.9999517151883393	-1.4177068436114912	-1.2223349778785615	-0.15616123338849905	-0.441021828730048	-1.2668296066724734	-1.0231950257217346	-0.5421022759102234	1.4582743607896467	0.04428538296366585	0.0614679677722642	1.2784091201930425	0.46920049072059505	0.6137675031424636
60	-2.560127013418503	-2.335842126670925	-2.0464403577635326	-1.6878040986363483	-2.096847290467078	-1.9422216366368892	-1.4684559069751835	-0.872634766282832	-0.4643867302137209	-1.8848550272083615	-1.9853689620436996	-1.8039785578004335	-0.8817153550775021	-0.2582900219594984	-1.9448803614150276	-2.020195479060874	-1.449970599328373	-0.6997627002214892	0.8509958364935624	-0.8258144834649456	-1.4039241040070072	-0.9160457230328184	-0.9697464083983359	0.09662031357928028	-0.008274051339895989	-0.7966178039465276	-0.46243911864827986	-0.37322580720131115	1.7649363234782294	0.208210616778167	0.3382515004677897	1.4539136849888887	0.5825921878410774	0.8429550507243737
64	-2.134789938305242	-1.9350413035175056	-1.7386561588259524	-1.3492749895362182	-1.3030998673917518	-1.2996964421836699	-1.1105482550238939	-0.8316929319364321	-0.18640349758292712	-1.0669858428719157	-1.1043173046840957	-1.3710572684958107	-0.7288322430329224	-0.1399317529244849	-1.1797310084121515	-1.2876859870824626	-1.024405357635488	-0.5564324245709428	0.9745612715911356	-0.3096104852488873	-0.8959956742553149	-0.5626682624916002	-0.8941168166474488	0.38303670190424793	0.33924928221881057	-0.567492781636829	-0.1252771761830723	-0.28142127323624166	1.8013744308767714	0.005364175406711228	0.3673256626391812	1.3738005126600272	0.35074162394661584	0.750852523338502
68	-1.4929405413127799	-1.354482647337096	-1.1726033657986163	-0.8457789995774123	-0.3766092350511215	-0.6579449160176818	-0.8270816186050264	-0.8377601483174456	0.17752850010872942	-0.17256471471133442	-0.3189002267415462	-1.0319435570411994	-0.6081089362049985	-0.010754631805089176	-0.37873530292256946	-0.6813773495637147	-0.801448760393376	-0.680910764405591	1.0531072589988746	0.1727766241241371	-0.5471491203799033	-0.39892926711451976	-1.031982061641627	0.6767854673464567	0.5954242333637942	-0.5595249519526613	-0.05998008683081505	-0.30694168728580723	1.6261653859089755	-0.4726617920386078	0.12451945213827821	1.0817036601412753	-0.18366315914513603	0.3313706210830016
72	-0.7842740992772225	-0.7347186785267885	-0.48007324216752445	-0.30681124252104564	0.410136311210828	-0.17321506098883674	-0.6367216094153817	-0.8339135625765774	0.5872454032376543	0.5500184283675015	0.1763786073046258	-0.8179308155389882	-0.5323206172854752	0.1883947099459113	0.2613824897365723	-0.3175709835617663	-0.7292817216580387	-0.9669931506538223	1.133006569862822	0.5653823599845951	-0.3628039648909691	-0.38319569729378483	-1.2959529128733582	0.9364600753982694	0.7763206939170538	-0.6661602837909768	-0.202796533191792	-0.4593658137644529	1.3622068132340373	-1.0193939183247154	-0.3066970996265889	0.7001377326454691	-0.8433744886085991	-0.28606089877384416
76	-0.2067221397902716	-0.25338905985753807	0.11877522587590644	0.10855739536295429	0.8206725099824445	0.030028082354549082	-0.559428690451592	-0.7783728222268447	0.952266869524926	0.905551550486224	0.28865462468701913	-0.7310032230040953	-0.501463411972452	0.4553031611868195	0.6032038315802366	-0.2100915158451116	-0.7000424248187139	-1.2225382297167324	1.2354367940228508	0.8332964160861313	-0.2866364114200199	-0.4154416014196014	-1.5238372049005446	1.110945818003542	0.9066921449657662	-0.7371445875630221	-0.40284031527854974	-0.7001757008040952	1.1529221505620517	-1.379442926738799	-0.7329143267247035	0.395217298463537	-1.3601323331825121	-0.8535397031215086
80	0.015187276488941389	-0.10567861023686072	0.36434543040793604	0.2414626026017684	0.7148329001498713	-0.12155678837603623	-0.6349911673726315	-0.6847126466629904	1.138129350649754	0.800276039010381	0.03712975969476955	-0.7634295801915136	-0.5118387328576642	0.6930705887462282	0.5963522776806041	-0.2890551977012208	-0.6203943475318604	-1.2833420005821996	1.3266661133649675	0.9610363816792987	-0.23603384137165453	-0.3870457103017189	-1.5604954918563312	1.1520428628445452	1.0024496291600369	-0.6357738359612011	-0.47951692221691794	-0.9344866252193834	1.1115314932416265	-1.3286598887276706	-0.8881794191824283	0.32212290086480316	-1.4567513429101913	-1.0674452754726844
84	-0.32634657538989076	-0.4691942024305871	0.03202019623778318	-0.030354013589874065	0.07052303832845432	-0.6457547529129304	-0.921249446927151	-0.6322196110022181	1.0068197224946456	0.2467733764378473	-0.48814186330575304	-0.9180680490202968	-0.565049944881522	0.7404237370870612	0.2654059820626871	-0.464711039085125	-0.4732615041705013	-1.1029660673904493	1.327600714192686	0.9436312890070253	-0.1501788493179479	-0.23261997044960203	-1.3299235071937185	1.0347917053799558	1.0612730953124863	-0.28535610365347697	-0.2889369122839627	-1.0271047327812606	1.2877008882436187	-0.7377942781894335	-0.5086338507208279	0.5751489386342533	-0.9373267865357601	-0.6619110090710228
88	-1.3577877248815469	-1.4514737092565237	-0.990717527749228	-0.7544854860330346	-1.0280473206313587	-1.508133884436957	-1.4692804776289243	-0.7387595754091338	0.4809667753950964	-0.6628172976925445	-1.1879904240178245	-1.2172282903456784	-0.6715130192968717	0.4579413521648847	-0.32238227047588847	-0.6934552771226373	-0.3359081736666839	-0.7725896815821134	1.1628694504942128	0.7821108679098508	-0.02343659469528576	0.0405794567335319	-0.8643322565190953	0.779178736626818	1.0695098611532017	0.3118575207466015	0.2255769664314342	-0.8473856427732767	1.6661500888719887	0.3979584564651917	0.5738081917580606	1.1633120745851973	0.2466235303612603	0.49622771018627815
92	-3.0589842719093756	-3.034358732191886	-2.6500739984361594	-1.875945324929831	-2.4202701984334727	-2.6257100038992838	-2.287144178338065	-1.1053189011323727	-0.40117263692658955	-1.7916519596641358	-1.995344156949545	-1.6908549027668294	-0.8452951290723474	-0.17777186587273291	-1.083046433575385	-1.0015621160015722	-0.3411167553395534	-0.46509322406645986	0.8210315087570202	0.4902964818019763	0.09480630582476596	0.35881811289793486	-0.28040361333623837	0.45989033463715207	1.0215100024181887	1.0842380496307262	1.0146187518252359	-0.3284996441653538	2.1925258581118654	1.963075513651804	2.3485453069519626	2.0174729773129867	1.9744726369598211	2.342971557423799
96	-5.227621542129894	-5.039968477875889	-4.715819823756541	-3.2324347414421584	-3.9004299542179126	-3.868427743681645	-3.3097708141686564	-1.7566103890891551	-1.471852418044489	-2.980561010464919	-2.8701441215530212	-2.345968002118382	-1.092096087559495	-1.0264885399651282	-1.9197032403161791	-1.4480611049331695	-0.5983602389487278	-0.3370679906441176	0.3888702382760095	0.10922441603979043	0.13388626243643714	0.619444011077961	0.2768388681574791	0.19376590799047866	0.9386653876447462	1.9174368333089618	1.9386585901905016	0.4860408889896921	2.807374231879957	3.747993698194086	4.587488162856182	3.019818775182087	3.9828600782926338	4.6078567388545615
100	-7.499732952256401	-7.1429529009721255	-6.823262197433563	-4.58206509386963	-5.2440690861862675	-5.063241945834707	-4.39069603765113	-2.6055631571789095	-2.475902551121994	-4.055941571485806	-3.755877246910754	-3.1327459733070073	-1.3956538403560126	-1.8202359630404543	-2.7116808822833027	-2.0496361203897413	-1.11565768437043	-0.44529774672614936	0.03222873053758398	-0.2849605374294238	0.04876067104545689	0.7408009748828922	0.696455298095898	0.10315068040077105	0.871924934569994	2.6823766163813367	2.8101818490603683	1.4378817045148393	3.4645826729086533	5.484599099617074	6.875045282172208	4.036668767274211	5.927794441515691	6.868834955039451
104	-9.432557082203148	-8.939152695021141	-8.561114289603525	-5.6613192415354	-6.235284789555271	-6.011013969503824	-5.324691759017383	-3.4635047825152565	-3.156162253994347	-4.838184821311369	-4.535281169884965	-3.926658143620077	-1.7106747584067914	-2.2726349773248926	-3.3123667156513603	-2.7196133068085633	-1.7671158269135836	-0.7240204196769985	-0.07366878520724227	-0.5936412796291295	-0.14905582330740894	0.6988980156419158	0.9360977387635946	0.26617550782711696	0.8799499847130017	3.254963628180322	3.4458386811041706	2.3015794695919025	4.123189915737407	6.885884744425115	8.708908059066808	4.939334856914144	7.462382774585809	8.659249283862595
108	-10.625957462185708	-10.054224942572064	-9.58019540275325	-6.256388171612586	-6.701406461962411	-6.522953016978392	-5.898445114502389	-4.09800623812765	-3.34544753183676	-5.1679544318374235	-5.02838562649522	-4.5453925017991335	-1.9693777511465735	-2.2074119988976455	-3.5768401532465686	-3.269879571288415	-2.330597156362512	-1.0281308863431229	0.16694903331567681	-0.7321450095765298	-0.39698493380453315	0.5317779169961655	1.0158240769488405	0.6746863705767016	0.9899899934569364	3.527137985861068	3.7118933107119885	2.865366690077046	4.719869601730935	7.690460185661579	9.643619513005717	5.609168515348709	8.309604623795655	9.59448716602283
112	-10.840071650793071	-10.255269978380394	-9.689882253977782	-6.26374958364234	-6.552994711543658	-6.471429331653155	-5.954512581096672	-4.317265499659034	-3.02554678153054	-4.951925265207551	-5.049571978217853	-4.802181708609299	-2.1011879391072417	-1.645814057009575	-3.417000285104593	-3.486578932542449	-2.5822718078267037	-1.2137048213833217	0.7082160097361269	-0.6750279647950468	-0.6205605848857193	0.3116470269441087	0.9858386491681012	1.2211540906592528	1.1635360688396976	3.417709341957051	3.5528681188527464	3.0105769558237063	5.146438108802147	7.715019683432825	9.431771254568414	5.937632068901743	8.318653085686874	9.480321860219762
116	-10.064335797649077	-9.522565817632637	-8.910224892054625	-5.716908440461213	-5.81613062343824	-5.837788567109145	-5.445497022231666	-4.045419682779461	-2.325241082996518	-4.209758271079146	-4.501519191820791	-4.57842301166447	-2.058397049475288	-0.8032282570586525	-2.857142441211702	-3.244228831683377	-2.4029285847077246	-1.2104750841096767	1.364075418843028	-0.484764664141306	-0.7827069739607445	0.10197229657653671	0.8874309040552287	1.7251708463981466	1.2906193700630326	2.889427893019227	2.999241582927521	2.751905672754865	5.2577357159430225	6.908048612319596	8.111680010342731	5.836673721836081	7.497813682699479	8.369053819507377
120	-8.514379479846031	-8.055091837573004	-7.462462406391027	-4.77047060715738	-4.638830173224603	-4.735090720619508	-4.458294857213126	-3.3570704375386162	-1.462787386062066	-3.093339196978277	-3.454138747077478	-3.8854083916795448	-1.8369519664162193	0.004484543565514202	-2.0534849115024607	-2.5935101443614403	-1.8427356435027522	-1.0490233871677548	1.877166862516774	-0.3012801997207554	-0.9116744376053173	-0.07629945854950411	0.7321559768311409	1.993026847575818	1.2249122827121424	1.9706785629108674	2.1556620543414122	2.2193133774991893	4.91926907251046	5.387175546396247	6.006727680299559	5.267153726630914	6.0201535072920285	6.547086222331281
124	-6.562296373965242	-6.208461268962593	-5.702124581245609	-3.6494874862082933	-3.2604474939043917	-3.3896913442860903	-3.1967713752144507	-2.452596896655078	-0.6610147936344428	-1.856663341602964	-2.156105512897421	-2.881946318025909	-1.4824857674362824	0.49905386441116795	-1.2537178961571764	-1.7661746695749563	-1.1085906000758337	-0.8317963459948563	2.025990242611307	-0.287245719899698	-1.0874267789088692	-0.2500421696548828	0.5088772164848313	1.88894390582963	0.8505328872187607	0.7712892274456873	1.1750208109753133	1.5938676555446576	4.0796041385647355	3.438753596206898	3.633418074017419	4.277439583469302	4.198678959736268	4.458121288487978
128	-4.628314960238456	-4.389205921535508	-4.016685475698687	-2.5839724475471417	-1.9485547493375743	-2.0819125122912836	-1.9239840458931396	-1.581021900953677	-0.07302654516140893	-0.7791741470691819	-0.96014791484652	-1.8318933202269037	-1.0771776410563279	0.5531465397220611	-0.7062741500188922	-1.0851066085122003	-0.475914626112045	-0.6703028065924076	1.7191564993369153	-0.5519531951320259	-1.3921748364585462	-0.4680099475488572	0.21117816812126822	1.3881646359681827	0.14927750788193012	-0.5235013352528406	0.22482243123512757	1.0307910416327324	2.829880230434585	1.4636267386676738	1.5464723071154303	3.0272638721328944	2.425876611306891	2.5831806594479443
132	-3.073046914925018	-2.9448199197806204	-2.7226154735490304	-1.7518517926808812	-0.923287568145455	-1.0626103851192907	-0.881846306481743	-0.9459573602635122	0.24919092592267225	-0.07020813208973979	-0.18734587681676917	-1.0126031611626	-0.7112287264986926	0.2263138139494484	-0.5579949007251399	-0.8181692937221324	-0.16558994311010095	-0.6258471592360805	1.0337110731729062	-1.0892335148967394	-1.8502863598838348	-0.7579776029523183	-0.13495276834271056	0.5896847829235731	-0.7662621121133782	-1.686497445616881	-0.5453314171374223	0.608751474274055	1.4138224089212863	-0.12191169678187465	0.17711397960768555	1.7735477641150568	1.0852214070577477	1.3149573769748515
136	-2.119081253423638	-2.082669968115177	-1.9918904254213996	-1.2451778618846094	-0.2965116493368293	-0.47519129394719944	-0.21537935679417106	-0.6332397444949733	0.3420627108520729	0.20381998964348505	0.00777339421112725	-0.6090076550366528	-0.4505703139850237	-0.28309857773830877	-0.7896949628919235	-1.0488429043038305	-0.24478304324337138	-0.6815351230580368	0.181767627137936	-1.762282009443793	-2.391918653171191	-1.0920286151017795	-0.4605441081817203	-0.31683090249178114	-1.6748796659144627	-2.503206485150348	-1.0293837759731383	0.32534804858081207	0.17036989288231158	-1.00072502837246	-0.27960693765618194	0.808757899149794	0.4524750698109794	0.8609741308409282
140	-1.8159265472340738	-1.835526819363238	-1.8249533130346478	-1.0631930801251437	-0.048350598541018135	-0.31330928127340796	0.07017641496821878	-0.5894650205988411	0.2905383996780669	0.13625812496115708	-0.29514259025443984	-0.6388684495054815	-0.3142696015052821	-0.7405659537691363	-1.2234868972405823	-1.630558844264277	-0.5989229663986315	-0.7579025607047356	-0.5788070544888174	-2.3474471509793937	-2.8630366253093693	-1.3811290229259483	-0.6701874120004138	-1.1172256441519326	-2.3200163782672774	-2.8290316987137047	-1.1791653603346612	0.13188673522552782	-0.5766678437932297	-1.0436632606859264	0.10739476206606209	0.3669508686337798	0.6157819017122069	1.202331778351733
144	-2.0492615648029187	-2.0757293648764747	-2.072604889405237	-1.1276419134280022	-0.04885458188835371	-0.4306784261320324	0.10106182817931073	-0.6607580168253987	0.1852737213463844	-0.06655040366536566	-0.8160683492083938	-0.9443799233435142	-0.2708258622007519	-0.9771258210307666	-1.6001501042974118	-2.2485284748527965	-0.9871997808327555	-0.7595974783792894	-1.0471688482548955	-2.619141810480198	-3.0796997469394713	-1.5042540989090327	-0.6835972053434799	-1.6456335741456507	-2.5039644178113982	-2.626038783119035	-1.0050539945022776	-0.018076082645912532	-0.637223063290611	-0.3365220419016758	1.066517469574453	0.53572279079602	1.4471478425682267	2.1187651103885474
148	-2.5855836803006422	-2.567212098315776	-2.495466702836515	-1.311116453675223	-0.11265230150391035	-0.5984595402866728	0.0785608066125089	-0.6699646098388059	0.09799469237620245	-0.17166782872250233	-1.1932539909753603	-1.255854126620533	-0.25370934541543	-0.9416140890189847	-1.6875879721949385	-2.556446307403626	-1.1521550387857293	-0.6253793819850642	-1.1469979257234935	-2.436410897779318	-2.89964651329372	-1.3577935661367202	-0.47874688981300884	-1.834510917800251	-2.160072321206498	-1.9631558607127584	-0.5631314501849802	-0.13568219508246895	-0.0272688660082182	0.8671560265582001	2.245374912314982	1.2176007001652946	2.644934647558022	3.2724504388203766
152	-3.14245938461366	-3.0405764503005774	-2.843735449286933	-1.471901651480949	-0.06512419117936155	-0.5898879155524548	0.19555121610860607	-0.49529355639339434	0.07729181627786412	-0.006953970511581954	-1.132380482675682	-1.3033921685689924	-0.18993145179479168	-0.6898316723573109	-1.3691458667519791	-2.3212246836231136	-0.93060672048217	-0.3580144038698127	-0.9348531937838266	-1.7914353563855687	-2.2768573703501205	-0.9005890465886885	-0.11485442490189972	-1.7241785482744312	-1.3698332275137937	-0.9803363656088424	0.06646972877886585	-0.1953500653341582	1.0417762968463913	2.248552078292068	3.343721381328423	2.1654787008925553	3.839521875224352	4.324005116036061
156	-3.468921175781611	-3.269761792510636	-2.930253975145765	-1.4895360432210945	0.2052958900513646	-0.2583912306460715	0.5626610503296006	-0.11366426170977138	0.15566882451809155	0.48769649740111576	-0.5169761167825293	-0.9251495576388923	-0.02766121544410677	-0.32962599313483065	-0.6718741042340093	-1.5066717825043079	-0.3127151123734646	-0.019685918415554525	-0.5519942627321724	-0.7987982014515511	-1.2732136217396683	-0.17033514337449526	0.28254049945068577	-1.4306756221889778	-0.31817689457670073	0.16721640485030298	0.8038774112432623	-0.15861207206734698	2.2545502128899613	3.5389795213994084	4.207232941495678	3.082015029755281	4.7252955317404295	5.041365133908739
160	-3.4187536153308793	-3.1355485836972705	-2.6814794472704424	-1.2959548202219862	0.7230997663361223	0.4181208599978131	1.1736037701540007	0.4057705094106323	0.35441505819484864	1.2609243361109057	0.5651257023848403	-0.12569960920069015	0.24701540109734674	0.04251583654875143	0.271230577737755	-0.2631210678133138	0.573213516218638	0.30073666496642093	-0.1472523059703486	0.3652678122835064	-0.02480153733190576	0.7360589485658241	0.5736232385457896	-1.0872428389755568	0.7899663428389008	1.3600938285820845	1.5891329009942339	-0.003345961674050714	3.32399224395758	4.601284969156798	4.851020800740631	3.741422643752058	5.166884886094274	5.365330682559799
164	-2.9928955956235965	-2.65632843300594	-2.151091808610153	-0.8947357512772337	1.4315077030279413	1.3398749794510032	1.9225673626996949	0.9492880082005072	0.6796747428900043	2.19057058734959	1.8804646682945805	0.9372078156650888	0.6091382488130259	0.37899356984772914	1.2955206599905382	1.1588129967996201	1.5352507790904781	0.5293027149188271	0.18841351521129043	1.5387887915861231	1.314787742156249	1.7059941248736872	0.6689764840402143	-0.7877759913582247	1.8101246311262857	2.5383653576659504	2.3902606903763046	0.259799122154434	4.102162827625212	5.445037351212319	5.4099907738471895	4.076081265648826	5.232391821048513	5.406969056783286
168	-2.3320832193623002	-1.9736744115590044	-1.4910465441251788	-0.3596564224222618	2.222283357731559	2.3316836298247345	2.6633324555865228	1.4187406265678655	1.1152151794887346	3.140528432546392	3.159200660358746	2.030416960358309	1.0088746522227339	0.6808577162718747	2.2759010734317586	2.5212137635472667	2.411525958648421	0.640384791664739	0.4484814394118216	2.6295237474809636	2.6262862616035174	2.6565301351233503	0.5754941687359207	-0.5545466528243	2.700236790515321	3.6932299043870387	3.199171058207049	0.5927630647952262	4.619911182183502	6.177344306608295	6.045127376552706	4.187775601304325	5.139691339867765	5.3792090280142615
172	-1.6578426319227482	-1.29608606964945	-0.8912632442860315	0.19029410135385075	2.9749627038231696	3.211135140894738	3.2777733720039586	1.7698346331735038	1.6202335316759051	4.005772103686446	4.19977043998864	2.9454865381261057	1.391588803592594	0.9720763539567233	3.1601710239732395	3.6817204859285484	3.1332924286889283	0.6656663997056149	0.6917713267026946	3.6255090145128515	3.8476567171227587	3.556709042152375	0.39864408869231194	-0.34245386633242386	3.5074629695075443	4.834934222412105	4.016948212972195	0.9497282481057067	5.039732920320331	6.9176549736845026	6.8493671244306435	4.278959740325815	5.140054212944241	5.4917692999468715
176	-1.1808681458223054	-0.8161702731507023	-0.5060354458430498	0.6331396682966481	3.592255106439461	3.851930608560943	3.721437206409328	2.015578980125386	2.136943811743407	4.730276095845287	4.925576197586088	3.5747761636124973	1.715361710032226	1.271786209710191	3.95530652001259	4.6143054845658185	3.7311253453466597	0.6768741590576586	0.9929645036422976	4.562193859026001	4.963467585429875	4.4175968058632415	0.2989207498632786	-0.07554355989695166	4.312754620153822	5.956801876287425	4.836090075680671	1.2970788446103225	5.549818024928486	7.7192740245475715	7.794246653905403	4.539709556562017	5.394251809806116	5.854154572011673
180	-1.0175740693150277	-0.6377729757419204	-0.398438929505513	0.8869028665084967	4.022340764380699	4.2197317970549415	4.025746335355987	2.197817558461664	2.6067244940747814	5.300916181532244	5.381402478936458	3.933571090303673	1.9605896423430778	1.5802584846653212	4.687782275762144	5.375314698953049	4.2900752912926245	0.7536869626089947	1.3935637438875956	5.473453507909374	5.977700695204387	5.260749326775258	0.42006659401694846	0.30604153794268196	5.168301569287719	7.018495541972385	5.63115118512353	1.623397823049752	6.258571132117328	8.538183190723434	8.742005326134125	5.050996767642967	5.902807220814617	6.432121260615924
184	-1.1542487115328237	-0.7467514257650856	-0.5280230031987304	0.9343505478157048	4.262778271403047	4.368781078752603	4.2598271262383784	2.346992725168773	2.9836230202685896	5.728645310243592	5.683789238884675	4.124580372887217	2.1290986484178775	1.8840422582742564	5.365857110781127	6.0450296249355215	4.883423792907356	0.9472376680300552	1.8786241960778527	6.355724795507292	6.889849168548406	6.085904582870652	0.8204064348488389	0.8130385855174653	6.061060413316678	7.956146220147037	6.3624749023017735	1.9353915404093214	7.1429447947404565	9.260098433956925	9.514228796779662	5.752650723238404	6.521367056594213	7.075952512042164
188	-1.4752330742783242	-1.0368450853872837	-0.7848733643742812	0.8182657936417801	4.347196568003876	4.404367435779455	4.478380191940247	2.457769387715627	3.2372655786797173	6.030001148258377	5.955806240303611	4.270943154042344	2.2356171551527284	2.169286245591194	5.96546457691863	6.67912815315025	5.523657784821195	1.256842014000546	2.386760944062509	7.163328152690702	7.687260608338114	6.857792836994819	1.4425725900468191	1.4027564490188051	6.918484193500524	8.711147286356077	6.990974885456175	2.2455668392706745	8.072251299504778	9.766178106446286	9.980786298348301	6.487887366126984	7.048090440121542	7.603079776641471
192	-1.8399139596262093	-1.3786191905500829	-1.0541375848858607	0.6101340040061295	4.321306694564603	4.428822983050474	4.684794890973544	2.49221944179735	3.347649804246361	6.216654761831311	6.275475963007264	4.4552602655459825	2.2968351782983385	2.4286675391868076	6.443779929104554	7.28997562475254	6.15409563418164	1.6324598747999437	2.8456144261040883	7.833750705014161	8.35349653042312	7.518608074279058	2.137280458776249	2.004034514135856	7.649236182927526	9.259737945066233	7.496154289393122	2.5610902244756413	8.889505363908695	10.00097367622702	10.125255559152984	7.0967688381309655	7.334705811102009	7.892711619477115
196	-2.1658987944278714	-1.6943513112205262	-1.2792118755468507	0.3691128483036143	4.217353810152987	4.493655670264718	4.828827845779573	2.405742400771177	3.2983462727241117	6.291561110824319	6.651977522267871	4.691579330043329	2.3215973318613083	2.6574616365095487	6.763892156689904	7.8534865181052025	6.679049475019346	1.9964400479456184	3.2096159377125386	8.32160280034007	8.87884233140388	8.01537130239497	2.7279179027348617	2.5552136833527825	8.191042879405053	9.622913336300183	7.885157565235934	2.8777031825843515	9.499474501467793	10.003787015453314	10.05276391352302	7.503541927466511	7.360398750795442	7.942893485042557
200	-2.472664349988812	-1.9994579503122665	-1.4925698004232129	0.112894728494761	4.037000645935483	4.5761284712649895	4.836420523830472	2.175574535599121	3.0764012259059292	6.24742840143257	7.028347951310303	4.934842574058054	2.304686302088331	2.84229945418863	6.910058480936348	8.32352731510572	7.00939891952831	2.2725095691526014	3.47669338302212	8.616873719394388	9.257823920718039	8.321410158128643	3.081173173754599	3.031712762807697	8.535575845148962	9.846433614666513	8.183153131805344	3.177792064272989	9.911292051087234	9.884846662360056	9.934189771366336	7.748102168548274	7.230116349085799	7.8605618278407565
204	-2.8613932060477714	-2.386986249619191	-1.7970339014458967	-0.18458960903770208	3.750679960318041	4.589536655282651	4.65180681961518	1.8140480472540754	2.6845822266510364	6.066789611758024	7.302521687190347	5.113302694762271	2.2262248936713145	2.9554200097807133	6.883659822250556	8.640228249669896	7.0969986736406385	2.411321395508068	3.6772391703270695	8.735852219460206	9.472195601390181	8.437917688046891	3.1530411163832084	3.4482717426977594	8.717290856286855	9.96102807391088	8.408803918589147	3.4322636040815597	10.214241002043552	9.760135625992792	9.916079496143505	7.94735668083207	7.102958661265972	7.793428401343992
208	-3.443326702961099	-2.9628596231042152	-2.3053471983879317	-0.5687073454803507	3.3141572391758922	4.42114065961406	4.26679324026498	1.3619657720511742	2.1573529189001315	5.724616513104106	7.356083374524599	5.160166250552155	2.0574467130213887	2.9606330319996075	6.685054762174594	8.729364373102076	6.940667134881285	2.3994984566188506	3.84287189467085	8.69131562899648	9.470171904495876	8.374843576267661	2.990036718448808	3.833755245066182	8.774311997195136	9.944483731911635	8.54752252328042	3.6043765453889596	10.503445598786525	9.679749464391548	10.041150067727147	8.21131799532066	7.093450051518251	7.841890792121295
212	-4.259507645343189	-3.770829906479936	-3.072594396463026	-1.0679644319273673	2.695200913300252	3.9806730646720565	3.7198889161605515	0.8649463631726657	1.5650284250800552	5.1967329847737975	7.084725362056636	5.0277299754043465	1.7715041592694474	2.82996367693706	6.298850997280524	8.504005410658356	6.566058142296808	2.2483689728237803	3.9764554400183987	8.464948632802864	9.161564803834604	8.125560739982978	2.687846653827853	4.1950898064555355	8.708154656358749	9.710866903583003	8.539656617538562	3.655837049790895	10.80348870410809	9.591282820327796	10.22163674634861	8.565724351237394	7.203371506624026	8.000563601321515
216	-5.24056337940801	-4.750834453032152	-4.055846680891563	-1.6683323341209957	1.8982137393709841	3.2410049356649053	3.070978633756534	0.3517238190830673	0.9986603234826534	4.474424350885782	6.428846343021653	4.685940730661812	1.3573752607407426	2.5609419281198145	5.697426304737696	7.883627394799124	5.999994739642729	1.9757798860257345	4.042860974595003	8.004965761954931	8.444718339580014	7.657942752577174	2.337100261509667	4.49505518732051	8.470803239416501	9.141727424429122	8.298163393050617	3.5592713266155105	11.039655657552354	9.363299346171953	10.283242199684281	8.929138161049844	7.324437599763188	8.163833597552363
220	-6.229387267597504	-5.753880486266305	-5.121156202738048	-2.311383003121228	0.9760835742148556	2.2556912842066605	2.371456855508619	-0.1692778910892999	0.5389980660181585	3.5813879876314485	5.3997387749717065	4.118306626412578	0.8319273570037419	2.185972446644646	4.866184699170364	6.832241994774173	5.2597079144243715	1.593987103252486	3.988011111681118	7.2564029510396955	7.260494213846749	6.93370626606341	1.9850104997109255	4.659980762160461	7.990834692807259	8.149532297539643	7.751912574269855	3.31378411410054	11.075783701589557	8.85887906698895	10.057611440061073	9.157485938793632	7.307898979809827	8.190809229198125
224	-7.0517101109803235	-6.60445879222427	-6.094072326532892	-2.9148917124587213	0.024509133709182285	1.1485751838295575	1.6506503778744395	-0.6961577517099304	0.22500185611660967	2.5854470664551616	4.093294133342184	3.3273944770727693	0.24454435644397096	1.764212246255326	3.8380341432945144	5.40045641489299	4.364687908596921	1.1115446062634438	3.7751595878654887	6.2110991321151126	5.649338231128638	5.948386654140703	1.6315187174613166	4.616007793216306	7.2262558754627335	6.744132024903855	6.894986135240759	2.955034248520701	10.797989818013574	8.02228353382283	9.47592828265517	9.12940785964089	7.058701497376246	7.99073455700429
228	-7.594013194938288	-7.176171761514476	-6.826943857122754	-3.4037015352144633	-0.8408027866116131	0.07946909944020607	0.9248284078136534	-1.2126399248024533	0.04093731184398896	1.594923849847411	2.680664055731974	2.350087636736277	-0.3307895354025534	1.35955106868813	2.712549202746198	3.7446787262786274	3.3596529875809242	0.550269900363174	3.415539494474126	4.946772086051861	3.777351608276214	4.766832816486633	1.256959911987614	4.333431232955622	6.212248786500638	5.065034853545024	5.814609036070256	2.5507531101676335	10.193510029805854	6.930841428424159	8.613529183575196	8.820869423530226	6.598492605715896	7.579337100920165
232	-7.84569738314562	-7.439701538375983	-7.249014836129149	-3.734397640336567	-1.5158095321531735	-0.8008165339278397	0.22114692572549405	-1.6757286744725	-0.06839133781808927	0.7364786844732727	1.371808048599506	1.2719547716451902	-0.8148562291553018	1.0178129647306844	1.6427890020855718	2.103631252699706	2.3305320680905814	-0.03742084270208556	2.9733252450260346	3.6283078102058584	1.9092856597379277	3.5296211153561416	0.8603463747237388	3.8530282876963553	5.074010836188378	3.3570058261038427	4.678562152494407	2.180480474688908	9.376874900031721	5.781434521383505	7.662358741488144	8.324954965553776	6.0610866393603136	7.074898701925195
236	-7.8849739829304895	-7.460082512140444	-7.379333000625567	-3.902406205815096	-1.9361665199987343	-1.3908626998117735	-0.4046916355405992	-2.025004381789211	-0.1628520782650618	0.12080967395798538	0.35942050723883645	0.22407551053217173	-1.1478321523296635	0.7527502756187143	0.7909700254497395	0.7327710967636698	1.3962452376399808	-0.5696172103805499	2.539453023221066	2.46396779391946	0.3322062483983204	2.418654197308402	0.47977685807212717	3.2768831170318413	3.9935026067996993	1.8942192745068016	3.6824445631514515	1.9058595847648883	8.546482064603847	4.815700518847384	6.8464402979609815	7.806013087591516	5.623941407309702	6.637330992153483
240	-7.822211722651937	-7.348928909820982	-7.300799351379265	-3.9326248069656082	-2.093703979928139	-1.663408632847111	-0.8751621820288618	-2.2090334836500216	-0.272669702079901	-0.1929748202458558	-0.24006313024945916	-0.6470806582326114	-1.3095171418506475	0.5466117249039651	0.27002033523096863	-0.18095833017438023	0.674184320655026	-0.9565606093097702	2.187668556412093	1.6323684412750892	-0.7414910774583593	1.5933515985314952	0.18315508915435336	2.7260873248891415	3.1431505600727307	0.8834068156826677	2.9783074780609406	1.746631021858186	7.893943289853644	4.218908299284804	6.323142989406692	7.414729576463934	5.414664731660096	6.384979231926352
244	-7.738573531639958	-7.203462105683856	-7.114550095715466	-3.863268604061492	-2.0363306947794135	-1.6671577649940172	-1.1210947008438243	-2.214260572565047	-0.3848370005904985	-0.2190141672326869	-0.424288927437532	-1.226455327752192	-1.3245453801092135	0.3635176709057077	0.10016346697552418	-0.5850547537337552	0.237088143226941	-1.1365464897070952	1.9380594443027321	1.2154588668653434	-1.2464036910059653	1.1299341888509868	0.03386428198609133	2.2881088199066744	2.620561831533742	0.39224702020794416	2.6197414332051245	1.6777394967635657	7.518376808257914	4.04456328324549	6.121669276994222	7.214897614383012	5.4471568923751805	6.338071807118024
248	-7.65663717244131	-7.068921071325053	-6.902080041625437	-3.7335541154058354	-1.8522552205050846	-1.5072470865342276	-1.1217544050505328	-2.080709213725596	-0.45951685193393244	-0.041983082784513466	-0.3039720646813053	-1.4736173115718323	-1.2501175372032538	0.16877481298750455	0.203961342058213	-0.5755677804720325	0.08329369106720762	-1.1077163191484756	1.751948113786595	1.1727515429451538	-1.2762038675512104	0.9954009627006298	0.05222400264667719	1.984084481952033	2.4198656021057587	0.33842116508871445	2.550510876891878	1.6493970114072671	7.395321350499751	4.203706253882512	6.148037894939122	7.164642315895392	5.622850403894487	6.419220908170467
252	-7.555701713559185	-6.941119653343278	-6.709183199155912	-3.5804104714596	-1.645337815899022	-1.3114057746202321	-0.9288548207673548	-1.8918541622080856	-0.46457421662338855	0.20953722245242232	-0.06134656428703414	-1.4380589687279537	-1.1512093514941106	-0.0546878872921174	0.44227489717399737	-0.35102116972990666	0.13864782417578103	-0.9343206858887477	1.5631910523048478	1.3703395093652375	-1.029372093462792	1.071336147464509	0.2001866991234071	1.774834866811087	2.454094880583791	0.5441266880602637	2.642251723294166	1.6197583634489554	7.415792923324042	4.522669303919493	6.248596652467218	7.160150033039303	5.793164238608529	6.506528837942711
256	-7.4159579089803636	-6.801543218606563	-6.553960783623738	-3.4411854657075938	-1.509344097141421	-1.1928538053913489	-0.657067714462737	-1.7437885955653136	-0.40600991146576826	0.40435272353126206	0.11638998210846822	-1.236241099097419	-1.0755603286290758	-0.29612433835605667	0.6736743433156153	-0.12680889634064307	0.2902061037842831	-0.7193064075429042	1.3294616904071648	1.6500567156139756	-0.7150775176114119	1.215226289542017	0.397753893324839	1.6015899140929708	2.6150686674851107	0.8280220606879182	2.7607183386719463	1.5805679519802136	7.470085125182817	4.836832034296962	6.2940835793848455	7.113223534744694	5.8455190510984165	6.506859762929668
260	-7.256378632344688	-6.655903799418603	-6.446528418477499	-3.3536713038649473	-1.5064322910422052	-1.2209438054730162	-0.4434871066340563	-1.7092976526973778	-0.3324785522172893	0.4498288620082122	0.10180896494910331	-1.0018869613147778	-1.0406715843629133	-0.517821370247955	0.8082479218103833	-0.05022928478553104	0.4336219419021886	-0.5574308023684099	1.072229621087436	1.9019552421233785	-0.46586885930696376	1.3259861435790867	0.5607345090060344	1.436076756666308	2.8352737355174034	1.0867266627531051	2.825084202309487	1.5585126837482393	7.523823242265158	5.068912493305742	6.237556918608372	7.0140075506507085	5.762630924934398	6.405206187289102
264	-7.14121530637202	-6.551242811828843	-6.405467970888295	-3.349915972835	-1.6558070140995185	-1.4084418976509963	-0.39566829700709133	-1.815311546510834	-0.310212223938698	0.3173203162287962	-0.13639289106265398	-0.8347983935260341	-1.037869808437675	-0.6689358932772247	0.8303212502496792	-0.15507984122223056	0.5104729520307293	-0.4955071198350854	0.8779315926320687	2.102237934526954	-0.29880976601498704	1.3799948657480257	0.6407890303645851	1.3083180156100835	3.115560523750177	1.3251771893422375	2.8316161561046407	1.5923958976595796	7.639371375823526	5.251712308975809	6.120171531484087	6.941050035118356	5.624978051289018	6.2652377924093345
268	-7.149250489304614	-6.55834625495666	-6.458005412009313	-3.4448630722809503	-1.9349861096165828	-1.718584652376384	-0.5533856735562962	-2.0416300245237244	-0.3840319206555499	0.04240187991880919	-0.5398787246424914	-0.7723216394952352	-1.0491505834793842	-0.7056425195998021	0.7817146162323845	-0.3751146187848297	0.5182412849693375	-0.521075128193384	0.8563176371888969	2.298309797206359	-0.14135268294885914	1.420612450827666	0.6447792036943546	1.2932193246615709	3.502794256903365	1.6219205815373683	2.8324322628988448	1.7004190640433414	7.9276962080118345	5.483812795145182	6.026393875165677	7.010968190611996	5.556214318552474	6.182567103988907
272	-7.325557213407822	-6.731196386508781	-6.627274496512369	-3.626268377685373	-2.291948789531989	-2.0875182099089664	-0.882752058661463	-2.3378827512843032	-0.5491530285321925	-0.2978252164950729	-1.0030634377903842	-0.7957784513409197	-1.0659506294040704	-0.6109492167306644	0.7198840361539641	-0.6032094344168314	0.491130946826725	-0.5838462695639853	1.0775197717164748	2.554069035757406	0.09838323270277045	1.5110698900218904	0.6230665429596841	1.463184949041714	4.032882680247638	2.0530888982435727	2.8860974238961656	1.859415407254585	8.460638024903592	5.84666107608943	6.019632324279429	7.299278240848437	5.646025166561807	6.221054538278943
276	-7.64815328574398	-7.070059758455967	-6.9164476220029805	-3.854697933001588	-2.664364808031426	-2.452982896333669	-1.3041415181612166	-2.6477184228805832	-0.751857457646878	-0.6203095897272038	-1.4296697342062878	-0.863689837659328	-1.0982900830196256	-0.40705588357196837	0.6763368827910097	-0.7615640144193988	0.4654568123986718	-0.634060381242169	1.5224392375655122	2.8895239757063624	0.4590238321159175	1.6806685882097225	0.6386927946177718	1.8350332929057436	4.675547587987857	2.6212119989973104	3.011228792217324	2.011530155825305	9.19842050137339	6.333497508270931	6.098000987869408	7.781236628913836	5.89643953742005	6.371485694057588
280	-8.030858973254304	-7.511736374009542	-7.298879128148029	-4.0759663478939885	-3.000442258888845	-2.7788059641298193	-1.736987705613612	-2.9267189428823515	-0.9191598869005357	-0.870071945377895	-1.777204628272084	-0.9497475004059206	-1.1691383093879921	-0.15096700153382298	0.6387943013275681	-0.845694837819202	0.4506124246664512	-0.6503760798246331	2.078984970565887	3.251780024901617	0.8914273358726839	1.895815248471278	0.7346732597875844	2.3447008073736564	5.317709432527444	3.2301013388143827	3.168966762171247	2.095045322850778	9.97850606306353	6.830322725217251	6.191732867820747	8.327879884674807	6.218286498582563	6.552956087733941
284	-8.36117170130218	-7.953538397735408	-7.721022586402288	-4.240454663060971	-3.273494950612783	-3.064795963178882	-2.1364967769087206	-3.1488604466092176	-1.000520346022818	-1.03788017964584	-2.0682785458797834	-1.062916872201952	-1.2985027995704115	0.08622408636496579	0.5648852572484234	-0.9196821427967392	0.420352606904181	-0.6461980326550059	2.588415377757482	3.5346074015068822	1.2807806697933781	2.0713419861949247	0.9129852629499081	2.867613069923669	5.800189003605442	3.7216005231356	3.2817287362212673	2.080016607755055	10.577451679227119	7.160936814348351	6.199141486729044	8.761417366795563	6.476274950842581	6.653269274126182
288	-8.548027970666839	-8.293670633357369	-8.11278436519834	-4.319035996022973	-3.484744539999473	-3.3376750861776725	-2.502297871947686	-3.3021533405855936	-0.9937459205333301	-1.1561660737411175	-2.3661324918135653	-1.2385508982859235	-1.4868794642101626	0.24947658118203708	0.41502550139547495	-1.0697650882414855	0.3283578745181135	-0.6503458006651636	2.9178249762300017	3.633650293712878	1.5091488323256297	2.113521332173027	1.1348890037493657	3.2739002621962325	5.9888892022562175	3.952285756623	3.273514262517642	1.9853645512999973	10.811644526841405	7.1697296915234165	6.035417064687574	8.937015510883471	6.552742464687605	6.581700308395011
292	-8.551466920243117	-8.463773706048018	-8.398842790379433	-4.307206142994978	-3.652768602685605	-3.6276144889795816	-2.8570630478250614	-3.381282797859566	-0.9387136078022477	-1.275264021514765	-2.728750221992404	-1.5090070924807117	-1.7084625916261829	0.3234099141538664	0.1836634124648757	-1.3449801172631262	0.1374012228357735	-0.6778301579527974	3.018871538169708	3.5040950686676586	1.5207725724925107	1.9685639093288652	1.3389278616479134	3.4875330836936045	5.840568527734451	3.866220702900474	3.106122009064534	1.8651674938794667	10.620423290141575	6.7964396305152	5.665915951728873	8.804907776536835	6.394453986235927	6.304521544751559
296	-8.381478288470149	-8.439167955072543	-8.509860970946306	-4.2172770393707095	-3.7948822879347124	-3.942450990259891	-3.211799851891595	-3.385359517133331	-0.886345861104477	-1.4323911630705717	-3.166312924973968	-1.8734172535327105	-1.9185200881203748	0.3335091761274985	-0.09149949974562095	-1.7194721655348488	-0.1561161424748403	-0.7166842800165654	2.9389173910327058	3.1853690066977065	1.352341886920748	1.6492917496048596	1.460369940885369	3.5152802378593897	5.424669252051097	3.523030272172098	2.7918105054940807	1.7718343690006693	10.0858382924068	6.103787883606751	5.110221373053742	8.42043206949973	6.021541103418897	5.848772511020623
300	-8.071441630012194	-8.22577855894382	-8.39288900163714	-4.0651726620081545	-3.911056985517376	-4.253167618503728	-3.5392198473265357	-3.3200316345315444	-0.8625450708546621	-1.6300085741851	-3.625273933794451	-2.284440750076458	-2.070317978400269	0.32346385635725194	-0.34885191829342793	-2.0988151974140137	-0.5139507638353031	-0.7393969278741079	2.781122200619943	2.777739279409612	1.1107422085375034	1.227080580474307	1.4481651746426847	3.429216137811178	4.8864340658794925	3.0650851649146023	2.3786752163912728	1.719539518783275	9.378345465823907	5.244508253207864	4.421957004826843	7.899164179885629	5.500441060484059	5.278343664194216
304	-7.648762206793468	-7.838345507859006	-8.021445254100826	-3.8614931009074054	-3.9787154097239963	-4.499162662590901	-3.7717173004291116	-3.199133626490225	-0.8507763721920535	-1.833154673716456	-4.007469167128207	-2.659933798750011	-2.132060284	0.3222381166428631	-0.5374236689350363	-2.3661286771163095	-0.8666002728517175	-0.7277674656613431	2.6400809221369266	2.386605971986484	0.9128381586869739	0.7973313907519769	1.2793474165087277	3.315319052908921	4.3727612385020755	2.644257538795083	1.923842067629643	1.6734445052811844	8.66294477182934	4.390192974450496	3.6645941641791855	7.348165493532626	4.904622065558915	4.663064468054775
308	-7.1266255198793145	-7.292174320883463	-7.409501057037437	-3.6136450676281324	-3.96388100576975	-4.614541518958533	-3.830290307864847	-3.0449736041438458	-0.8056141117736981	-1.9874767014869255	-4.216013897741819	-2.915958635597507	-2.0971062130433284	0.31943148293908796	-0.6449733956265425	-2.442641490491248	-1.1397892207932683	-0.6930843574191365	2.5509262020556243	2.068454021953559	0.8221803882821652	0.43806618341471065	0.9686594580989561	3.2203133024926593	3.963148822315178	2.34984087350753	1.4730861149789352	1.5730594356875254	8.021786669505236	3.6627130415948237	2.9010300563047537	6.816373331026396	4.290112007753714	4.061338891265881
312	-6.520604593980171	-6.6146035027394285	-6.622600538699463	-3.336350909392686	-3.8452470205498632	-4.564035404126332	-3.6698839571803568	-2.884414903987694	-0.6886240822572104	-2.050292963573508	-4.206019867768272	-3.0044038219891944	-1.9839917371249967	0.26625880531798024	-0.7042678576808179	-2.33112501509531	-1.2850208250027046	-0.6750597340706319	2.481391900473369	1.8086020900839872	0.8163571933162461	0.18169282330893177	0.5708910808454732	3.1277201096722353	3.642269363744217	2.1744184439119767	1.0557345125246511	1.3752217258064634	7.433659057922489	3.100699655333717	2.197344059164764	6.289112552023129	3.694445123881651	3.5212128073481956
316	-5.8758396954005265	-5.867081627337922	-5.77783630819679	-3.06154512586104	-3.637442818041071	-4.369204510148018	-3.315712443563445	-2.742851727236342	-0.5010441529021604	-2.0168955275158607	-4.012442578675708	-2.9354121610916044	-1.8283135844800213	0.10822075578069341	-0.7730165104422724	-2.117264027018314	-1.2996349301904169	-0.7166997772241679	2.3704709946865226	1.544156309043885	0.8041472414694792	0.013149212081314351	0.17606224075211796	2.9774136468101458	3.3297893916937977	2.036400789841492	0.6946128589258975	1.0909168692702358	6.8202361888352465	2.6766281060351322	1.6321877199925865	5.727105603063642	3.154061786317765	3.093075506030457
320	-5.280520902653074	-5.157207952830132	-5.025782095618005	-2.8376102375866994	-3.399107924462511	-4.110147942656321	-2.871223919295046	-2.6405732565015283	-0.2909313134954343	-1.9274067830060801	-3.740310182664779	-2.7763755251405944	-1.6719096856820932	-0.17126572088870157	-0.8985235668385018	-1.928878421681869	-1.2296395270773435	-0.8330943563408528	2.184787267890925	1.2164437740131253	0.6807249171236505	-0.11038126023557344	-0.11117710145060515	2.714395277799521	2.9473867341967472	1.842087144969233	0.4172965873672953	0.7916938046494196	6.126686080723011	2.346579307353655	1.2945179906586581	5.121177660410113	2.7202281883225137	2.8365111279398163
324	-4.847395884673123	-4.621042716757061	-4.512748706868123	-2.713833325209997	-3.2162880816318506	-3.89650224655571	-2.4875967439788216	-2.5929508143762803	-0.12938126888988116	-1.848242516619647	-3.518595925030584	-2.6262087755655052	-1.55325281227867	-0.5231183754111256	-1.0874284478389187	-1.873299236336353	-1.1525115937698756	-0.9959102247843049	1.9524828146276447	0.8196702578830767	0.3893494894211161	-0.23215500951804433	-0.2092759007892256	2.334265464611307	2.480799668724376	1.5486555060387512	0.2550054186104762	0.5787442311933828	5.3829450471393505	2.096775764893528	1.2595230309157741	4.52389477541298	2.454518073560628	2.8076651025457267
328	-4.666319358488452	-4.374580849093184	-4.332455147295245	-2.7157642772772657	-3.1636331001516322	-3.8161804579706615	-2.302547449020611	-2.609595769015652	-0.068138643927202	-1.8343330575406902	-3.436257830527164	-2.573064082325049	-1.498810764343308	-0.8417026379315152	-1.296613213126513	-1.9823260257263091	-1.1433788509111584	-1.1455626458809256	1.7532963708480105	0.4165302206490306	-0.04182633747031112	-0.3731534769650588	-0.09761967485338371	1.8974345874564476	2.000464195922824	1.194359895551731	0.22875666560591662	0.531531213372063	4.70811461213659	1.960199351130074	1.5524661501789105	4.037400712310205	2.4036910473217663	3.031558982824565
332	-4.750427710937231	-4.453060138903588	-4.483955848817039	-2.823978178523827	-3.259653560037988	-3.8850633999964557	-2.374968284332761	-2.688216441043106	-0.10640089932042529	-1.890926713937722	-3.491740217929809	-2.6529679231419876	-1.5148514470954728	-1.0145695183887755	-1.4489247762337845	-2.1924371664006634	-1.2383587329116528	-1.2255489795260255	1.6693705278210722	0.11139158876428787	-0.5075064884723924	-0.5238919840937123	0.1638294901287821	1.5020160637126567	1.628660913170131	0.8786980487573003	0.3306612364049983	0.6643313152706617	4.2534522902864556	1.9924137542012061	2.1180460399557925	3.7625913524998817	2.56732582397772	3.4733061702773758
336	-5.009102331866171	-4.7724180101065645	-4.857530104770827	-2.9707546159126514	-3.4405407818713307	-4.023889054629475	-2.6458020143466032	-2.8052654195531277	-0.18644757521762725	-1.9573262880498643	-3.582119455830285	-2.825739614981782	-1.5814735849506445	-0.9795196031635474	-1.4661853276428425	-2.3696787297501687	-1.410095688120759	-1.2153660028290179	1.7313898758090196	-0.0031018673829650797	-0.8721126892005624	-0.6505866630340928	0.44875609761425317	1.2331808774330875	1.4728814326292934	0.7057806235613979	0.5153841363292427	0.9161311364885659	4.117771138285268	2.2236480656748907	2.81771849874532	3.7406124974223163	2.8812861369820437	4.0292339223222795
340	-5.271429048580569	-5.144705282573612	-5.2623739109691545	-3.0617868822996384	-3.573092451611133	-4.08061407966326	-2.949642173949354	-2.910555832190127	-0.2220782035942747	-1.9260523270616239	-3.5421051889635384	-2.98270606241568	-1.6533385473470228	-0.7580798249178501	-1.3039206233482368	-2.3686609208385536	-1.5704455336021448	-1.1377930612447804	1.8960765552333136	0.10396137062289493	-1.0315390799227748	-0.7110795360731965	0.6164370163612792	1.1190538378118677	1.5640021523089036	0.7238707524143454	0.7109448295763442	1.1792775362758452	4.285407055525602	2.618694298808354	3.4645631225852163	3.9218530555889957	3.2311906732995475	4.550508964493735
344	-5.354586587738293	-5.347450719683799	-5.490659223045377	-3.015031091707236	-3.506902209010913	-3.89358161896909	-3.0782232206828235	-2.9353480264939877	-0.1464723940965929	-1.6920939641192918	-3.2186956324375395	-2.9865634365972253	-1.6715813832994992	-0.4451178897109937	-0.971540746620124	-2.099064344828546	-1.6046180684584945	-1.0389925215238298	2.0703153557959055	0.38299864433865494	-0.9598844027126332	-0.6740567071108841	0.5782536849681199	1.1192613811844516	1.8349926425381093	0.8939987994510914	0.845499394189477	1.3506009544605437	4.6233491780854665	3.0699825209355627	3.8839671513725142	4.181611050538638	3.492376795534403	4.892749774023947
348	-5.14783762585794	-5.220678793123985	-5.396653638565922	-2.8000106740829964	-3.145260087655295	-3.3691275034719204	-2.871539347074401	-2.8180060315509903	0.04801613452828606	-1.2097762792560944	-2.547580950980696	-2.7304966380799134	-1.5864615400314348	-0.15888258774697708	-0.5298311696980715	-1.5684088428953118	-1.4242871963780805	-0.9532022452130245	2.165970081582843	0.7267104368935651	-0.718560693834002	-0.5342274890763151	0.3453485957009546	1.1528136701088345	2.152781719494558	1.1049790354487214	0.876109836273753	1.3781522477640913	4.941688048283935	3.431999674715161	3.9750690359844234	4.3765778431066975	3.578917732739614	4.9715075367340384
352	-4.667326438564034	-4.743395793382963	-4.956377493742453	-2.456428283211567	-2.5003840860180695	-2.5360171730863077	-2.2953300418122704	-2.5377864773573533	0.3023210458275178	-0.5278184996630224	-1.594351287631144	-2.1926472131683217	-1.3822156155974603	0.02148686902760569	-0.06868526322189583	-0.8819347597743664	-1.015769359885075	-0.8785684086552411	2.1508929675156843	1.0203726265894562	-0.4254380751835778	-0.3185120216911042	0.03146294496460438	1.1457431287448498	2.3837406575100757	1.2256765334655229	0.8033561686260176	1.2790567842615368	5.083467947523143	3.5800535588475864	3.7435338402646723	4.410566795657602	3.475638380812259	4.795657145790079
356	-4.050202359464164	-4.046123017586035	-4.278577793763059	-2.079236979003361	-1.700518603799865	-1.5463029107154063	-1.4656012021255183	-2.1359617656185677	0.5209051357469137	0.21983028892805226	-0.5377465472949694	-1.4585868083367703	-1.0909366580122513	0.09256193018431812	0.3261309555879602	-0.19906759211825226	-0.45700693015110005	-0.7815092186270071	2.0635690636986803	1.1937575310131516	-0.19922374138600835	-0.07893281410077407	-0.19928966412296348	1.0708682510042034	2.4575083193721703	1.1682636708327665	0.6667063219403856	1.1227583856845946	4.9958848827113105	3.4639561088843562	3.291960707936157	4.274921883280346	3.2371678270625326	4.4617562181357835
360	-3.4889442832597437	-3.3498032008473695	-3.558231344776095	-1.775977368639257	-0.9397175288316649	-0.6180850847851578	-0.6051325782756539	-1.709761615251138	0.622994421339688	0.8674350955043338	0.40031537312527193	-0.6980411392707881	-0.7847562412475934	0.1142919433211551	0.6046465023987379	0.3343191734456286	0.10933434190563991	-0.6243688448400936	1.9826883027563393	1.2501254050163442	-0.10475788239017868	0.12712769178241937	-0.2127257431143092	0.9577639078754577	2.3972244202171216	0.9315719580972257	0.5250465856647413	0.9923620198944291	4.747436511451375	3.130110494340273	2.7743122507622586	4.0444102185180935	2.956318847821657	4.110914219967619
364	-3.1379513661313894	-2.8602113651541488	-2.9920394345082046	-1.6165130097584186	-0.3922270526519948	0.054917212437021426	0.05095164464961111	-1.3768066133070396	0.5861971959572807	1.2903698650206328	1.0458784076987664	-0.10205625716907146	-0.5465125427753094	0.1595935370469018	0.7694637755994049	0.6463001354112483	0.5367250428953878	-0.39882478017249234	1.9734617421869827	1.2593935696276488	-0.12443480609233028	0.2619734697880282	0.029140219018797098	0.8699187614412089	2.302450174240583	0.6040812715537599	0.43358898053371103	0.9454425549478869	4.485629547238107	2.701559536788837	2.3347470701398763	3.8337850473884942	2.7196583679199	3.8671228788015166
368	-3.0404229087360237	-2.671589129378543	-2.695443146576008	-1.6000525910988053	-0.13335052098938735	0.38357570670559094	0.35703059940795634	-1.2228803603768794	0.45939144376164165	1.4609106742214062	1.3420904840917107	0.19351398895997152	-0.4320039738238456	0.26146852904108836	0.8718138315124132	0.7645131926307944	0.7411302905444448	-0.1403382416996656	2.0489332624203245	1.3229250874497303	-0.167359098369535	0.327179669507813	0.44958296304681217	0.8673315622366204	2.2982859553485087	0.3275003722982173	0.4291426826609494	0.9931942795473266	4.36226796002515	2.327332729185695	2.0583074040897724	3.741020431610129	2.5734720165128615	3.7862942123185777
372	-3.1138696591914576	-2.7305514743529686	-2.6607291631278858	-1.6574720102424705	-0.10843080254835158	0.41361722245692234	0.31626370469353055	-1.260518309271721	0.33917725000578136	1.4576106034671037	1.3635884488964425	0.1635261918946083	-0.4431944776312704	0.3915829946645004	0.9880810355035347	0.795703230279403	0.7386062722631587	0.08951228834440725	2.1716515963084886	1.5279462298916962	-0.1115331572458526	0.366990088489943	0.8991227127262713	0.9772000288133247	2.477801078262586	0.23850157796725363	0.5272483216325405	1.1051158877127802	4.465526092699019	2.124836916327197	1.9528317402172788	3.806009044574711	2.5148634847089295	3.8392014406548487
376	-3.200619212652856	-2.8768560813749424	-2.773456804902602	-1.6881639914805935	-0.16800545113584744	0.29098772929157174	0.06827081722665772	-1.4224804603902106	0.3232869497720052	1.4218528234823102	1.2690116135029017	-0.10028199826194138	-0.5283360467923004	0.48638757940515287	1.1855670183766651	0.8677437283542017	0.6320117100017665	0.238543390625458	2.292985671929884	1.911309595050811	0.1380877193302408	0.4490976918325985	1.2330260245663518	1.1876767843778082	2.8646736072693475	0.41281637445174213	0.724843798237847	1.2311731545835423	4.788754927942515	2.138696426713958	1.9630337904005666	4.001356591612634	2.5071091588618084	3.9335560699332275
380	-3.1563193718375784	-2.938669435711066	-2.8799767421489237	-1.612859245042912	-0.15134109518465003	0.18157504453115295	-0.18712523532352893	-1.5964531858191966	0.46477812411265035	1.483830329009731	1.217401859070826	-0.43407365570147843	-0.6104721411550866	0.5029298054395138	1.491430755664431	1.0629076930866797	0.5537888989771836	0.29378378317092596	2.4006898342556133	2.446068519138602	0.601903139025232	0.6298912747692356	1.3808329070514518	1.4638247452971178	3.4095036897408297	0.8354153612025466	1.002488729806911	1.327368256078649	5.245344148744084	2.332530015778408	2.0063078352818495	4.254853714690877	2.5074479516618564	3.9637021918358757
384	-2.9279529974446654	-2.8288946080310677	-2.870250456239032	-1.414278026824799	0.027801660750649344	0.18956531536402207	-0.28930544780167844	-1.6832951264797635	0.7497210483695875	1.6987551407839925	1.293569203925519	-0.6736313087621961	-0.6290699227663044	0.46353304269108075	1.8795553398361828	1.3773726190123976	0.5968384131621647	0.28705736922268327	2.5368826325262614	3.0539417189741087	1.2114160030297254	0.921742854175356	1.372095819823755	1.7705855324864883	4.0157298940360615	1.408741947432038	1.324578997128782	1.372992988934649	5.714609131690163	2.6141934328834386	2.0122172781685412	4.486882675286701	2.490538113981771	3.86333250024053
388	-2.5786395007832623	-2.5862200194866576	-2.7294237544766653	-1.143713113758215	0.3401576570028941	0.31769922295467673	-0.18653978360286197	-1.645667548793087	1.1066030235961717	2.0266468473764947	1.479658599932434	-0.7177175265311381	-0.5707404003038615	0.45711243037208615	2.2821514548857045	1.7268831686289308	0.7716485838481308	0.26922386816716837	2.7713148523933615	3.6356463340520766	1.8356088353542417	1.2811701265413573	1.3070517745396721	2.0862541146057616	4.578515518072928	1.993774170610125	1.6416526991404428	1.3750742639156615	6.091028198122609	2.879869930625756	1.9499376963021613	4.641660201751393	2.4566152033771105	3.6366283801769166
392	-2.2474982681750997	-2.3404598176993052	-2.533573144238108	-0.8900968409953668	0.6679921729388786	0.48860648151060415	0.059285353719518624	-1.5196276864785554	1.440544363199523	2.3662877023081688	1.685466642892738	-0.552028654612121	-0.4709691393405498	0.5896692857159705	2.6230051451262058	1.996535296167729	1.0134669516725041	0.2740704112285862	3.1449787537326657	4.10734986221905	2.3382813871475543	1.6280589062594195	1.2936907974005538	2.400019401212872	5.019326674186549	2.467130177944679	1.901745433774299	1.3623377050336336	6.316141589430472	3.0580770892181843	1.8367894841549717	4.700808513217049	2.4250035224724256	3.3554706488768837
396	-2.0687735028487486	-2.2253439370237587	-2.393630736983397	-0.7294387202919808	0.8832352735154372	0.6101509913298476	0.32945078528195576	-1.3815357650208686	1.674825425687854	2.621443741855612	1.8161355211181287	-0.22818808199967852	-0.38583615324834575	0.9143420434755049	2.8558633255380514	2.1081750339687515	1.2331511943200641	0.3009591691048057	3.6243178752946674	4.429070461534957	2.6403806142901005	1.8885552835466757	1.3931328023069576	2.700582259035567	5.305002199130571	2.770311110177878	2.0711576886337446	1.3748730386354078	6.385867102712685	3.1360397259689794	1.7279924110654001	4.6791720272182085	2.4205088554305507	3.1258509080167984
400	-2.0939211792531522	-2.2906982840877586	-2.3816461502979567	-0.6819045526454219	0.9301353073478316	0.6430202706314737	0.528421281434114	-1.2930679288642235	1.7798899367217251	2.759445660299915	1.8359109116932006	0.18137846841318003	-0.3512108317091031	1.386295553522035	2.9880623742002523	2.0687124676926527	1.3782671655189283	0.32880595243408123	4.101462830678737	4.614605891974729	2.7574224402427676	2.038216824153924	1.6016771752927017	2.9673092290347536	5.448268399788145	2.930399887315807	2.1549115126562954	1.4516515695160845	6.337382300589003	3.1591446319927985	1.693960900798233	4.609696376606264	2.461116784557762	3.0402922553550056
404	-2.2598512115643214	-2.466167682143276	-2.4835548338175175	-0.7000762206522162	0.8639611580016606	0.6303828342734571	0.6401795132686509	-1.2586280075720866	1.7797000363239501	2.8286850381005664	1.7920479729230236	0.6237645729528863	-0.3548306515794958	1.8739057732000561	3.0761768740235613	1.9735351751091605	1.4672427140384883	0.34847333939309283	4.445154178840541	4.71995304823341	2.7939779687912205	2.12095283926486	1.8711786222898883	3.1733677307117714	5.4941272596882325	3.0448827666654372	2.2044398728980696	1.6186642605922206	6.227526649010893	3.2071382918447706	1.795597667929015	4.5279817466856205	2.553435557594333	3.1404971997126085
408	-2.420365804283451	-2.5977520877101052	-2.6043720179607255	-0.6951552015873396	0.8227193930835083	0.6736794693150531	0.7311745863573919	-1.2196229665481284	1.7359013513606787	2.9256215021655176	1.7875239803959935	1.0788917514264509	-0.3378897002749165	2.2226626816899517	3.1944947162083577	1.9630509565382186	1.5771905143971883	0.3909520496988235	4.573239314930731	4.814722525838379	2.8970010207466887	2.232105249491429	2.1520590727831257	3.298807612673509	5.498917088930289	3.237744561603923	2.3035783709540434	1.8810605955315403	6.112711414162835	3.3591663752622063	2.06672334149223	4.462458599268043	2.6957905224448817	3.407342902163888
412	-2.4204995571059893	-2.53352045373226	-2.620675557195686	-0.5854793176174183	0.9483783817188866	0.8706978537511011	0.902172622787083	-1.0898177596233525	1.7199903683152176	3.132071487148432	1.92057704440638	1.5436841210491665	-0.22632303776820412	2.3366823137415578	3.391861907024751	2.154418939873115	1.7935703947560329	0.5273040519752649	4.501693714220253	4.948462473773423	3.188479653891391	2.4714236197063	2.4268698631049204	3.342511168623959	5.508518205086469	3.604557028252884	2.5340781147873703	2.220186466333655	6.032547458676753	3.660650720890802	2.505999081960314	4.428273189808454	2.8821191714953214	3.778158416745857
416	-2.1724905912862287	-2.2082028333225288	-2.4491388735925197	-0.33983972582846483	1.3036658730971098	1.2546910015853225	1.2226849763517988	-0.8095778206412542	1.7860948994364667	3.461229554020635	2.2279050293940013	2.0067930170890964	0.02665782340591057	2.2314689103054137	3.660905113514061	2.5840377742376504	2.154830450339605	0.8301499465010272	4.337748993412251	5.126222120694008	3.708626976186544	2.8904652522542786	2.7095205715435178	3.322745314792027	5.541132912950903	4.169358719789543	2.9358575269962417	2.5974667006716414	5.997133716700734	4.103668679367016	3.0776276510737315	4.4221339114120894	3.101517907895128	4.178605069100915
420	-1.6953779416195456	-1.6786183076439152	-2.0900778717677384	0.0065085226505583165	1.8318417026046585	1.7711044505225928	1.6895492034216761	-0.38386541508079025	1.9523520420373377	3.8442969225145425	2.663903706500608	2.4369962153895344	0.41192656651445925	2.023014063495896	3.936873187615893	3.1896169105108343	2.627073281331145	1.3189382519800597	4.215563763465611	5.304200635869655	4.395880688059183	3.4630603702849334	3.0171706600306916	3.263182393418361	5.579728589275577	4.871090876678728	3.4828994186204647	2.9663531705349704	5.980164512794603	4.626996028662196	3.719508400109266	4.418886173535768	3.334263554737922	4.551710594129373
424	-1.0994502278226048	-1.0909181805724175	-1.6221095282608293	0.3706486513793419	2.382760995571021	2.3050301016785273	2.2327017727748353	0.11701318592092448	2.195146078289576	4.165393341991938	3.126127950405015	2.7958738733274497	0.8660045840333362	1.861295576164633	4.1275372400977695	3.838984002911257	3.1227722089126333	1.9271297406178636	4.21444844135539	5.408850179367648	5.11157082220805	4.093893517648532	3.339189044151145	3.173269025420273	5.578082547409616	5.584097371308004	4.088272084404668	3.287675133987626	5.922142967530936	5.133921610268074	4.354878414603133	4.373268593237123	3.548044434172542	4.869476782902286
428	-0.5279059992813318	-0.6013368949012954	-1.1546266049797456	0.6638489944863569	2.788786165825813	2.740030520196956	2.758060209940254	0.5910872802115971	2.456591123100682	4.322723854595204	3.5077946097502375	3.063178769960919	1.3006467786375693	1.8477752162057877	4.157858838074193	4.386610496889961	3.548305025678842	2.515027278272359	4.311485756479047	5.369856820854036	5.69459246151365	4.6589288593921205	3.6255271343248174	3.0377495212153076	5.478317246910766	6.1617021405100925	4.6359429242389725	3.5400252252847078	5.746748432909068	5.519527421367267	4.903819071786527	4.230425823974963	3.698755731780924	5.123497950016072
432	-0.09126559621895167	-0.29847779794674867	-0.7679460029286764	0.8320888259860307	2.9465601369850893	3.012417308831145	3.1970310130464368	0.9535977220301108	2.6628191403870134	4.280489910762626	3.7453372383924433	3.254024020562455	1.6422892767450366	1.9835379073608226	4.006027211565441	4.728045451624844	3.8495223424995184	2.928798906561182	4.397388923986772	5.152626501425683	6.020290359556087	5.056071268667752	3.8093025588181044	2.825539581794421	5.235879408014806	6.485126002150801	5.024268137644532	3.720826378011212	5.390230642061142	5.699384198104335	5.294397340758908	3.946206559708417	3.7398342991820934	5.3058690890819955
436	0.17315126911792691	-0.16954611199011196	-0.47815859197056104	0.8754883386442492	2.8621268200138146	3.1315019051643964	3.5311698824420747	1.1706815928466203	2.750727646558498	4.084687699495505	3.836433877795625	3.41119121643945	1.8595380736132232	2.178839916450252	3.7138082887344974	4.828263270585686	4.02854250844463	3.0757610720226576	4.347727287759616	4.77590988860727	6.038913234722692	5.240975843548814	3.8484825990786815	2.51452493032746	4.8424467918206275	6.499247057718176	5.200305448754036	3.8377065561676558	4.833961474611827	5.6317019320398645	5.47396896887609	3.5107195288712707	3.638526430480352	5.397234426223147
440	0.30166903061996597	-0.12233394353497803	-0.2438475185436612	0.8400847890624614	2.638468974127691	3.1587147632957637	3.779201021189636	1.25990664640858	2.695321076263816	3.836901655046641	3.8237569235582223	3.5732867627526104	1.9649741600016857	2.313876861452334	3.3672487650733434	4.716640460503737	4.1236452952223415	2.973316900375787	4.1041440860125435	4.306187141990471	5.780959591575134	5.231758104466862	3.756959428838564	2.116634125133918	4.3352818379619364	6.223339065098126	5.169218527140628	3.8942274948982454	4.124026288110784	5.327021108529324	5.419967637683085	2.963129751353655	3.391477337857631	5.3709735734757285
444	0.37133949901286684	-0.04474478576211229	-0.005586440660856206	0.7907436470094541	2.418610328289958	3.16405295526837	3.961695661079223	1.2642341820269265	2.5262033875581067	3.645164480542938	3.7609662914688284	3.739964714144533	1.9948389479817044	2.311562055473681	3.061343185325051	4.460444439116879	4.17010926147466	2.7437066962588417	3.7150173093460688	3.8342220686428843	5.334535108449318	5.086035715613584	3.6030747799503517	1.6860896306383577	3.789211502045099	5.737371430216678	4.979306208436761	3.880834092832451	3.3663899813535876	4.844638812231353	5.14840649258624	2.3881418644691785	3.032532445880579	5.212489114952523
448	0.45779266837886784	0.13629128004472968	0.2700786285734118	0.7826104144364522	2.319758409365341	3.1891374507494716	4.073540677276333	1.2224752872120086	2.326118224946818	3.5806836991505606	3.684904327625832	3.8610398671896777	1.9827659080036408	2.1797416155141374	2.8677811550215115	4.135816563654747	4.172011841731087	2.5533590252306344	3.3112807190262945	3.4448823841858087	4.809787738100594	4.867813098061516	3.4734234722179975	1.3028975692278948	3.293635360031538	5.152163969383394	4.695090282030314	3.7786328697170712	2.6948730877548153	4.2765321623595325	4.715887534632835	1.8914896202015596	2.627673619311807	4.939825999185853
452	0.606720028775949	0.4302801180943265	0.5723825678679223	0.8450140335682964	2.3919656216311553	3.2375247396745466	4.086125840361015	1.1567050189378159	2.2059693280791444	3.6600580123046518	3.608852377363133	3.861408462312038	1.9438997458016587	2.001609797192515	2.818598978555719	3.80940340987681	4.104060162672912	2.5295345719369036	3.0325269622532733	3.192854157969702	4.305837143517234	4.622231948626617	3.42593120663661	1.0388873789307114	2.9233064577682866	4.57501457966624	4.373072613165596	3.573750486887792	2.223293537248662	3.721893777987155	4.210029114584321	1.5623468121183808	2.255884880092402	4.608442294883356
456	0.8295136073150118	0.7994866350969688	0.8633781649725845	0.9820420717240733	2.6156780653717555	3.291896334919962	3.9774875540447234	1.0829533311204809	2.2622015419111707	3.85471509913924	3.533935776371249	3.6886780168863242	1.8769508552846532	1.8817218494590089	2.907312624266797	3.531496515894619	3.939326514788654	2.699066632132045	2.949249260131986	3.092038623632562	3.8889305493397193	4.367775906025648	3.4579238804297376	0.9243406630066877	2.715301983653555	4.080893029400105	4.049789418486202	3.2731306470248356	2.002310270976147	3.2580013192889856	3.726498832830875	1.4381414615561146	1.98159968352691	4.291749943388006
460	1.1167831392702374	1.1968268125834662	1.1142466040135799	1.1828076809583998	2.9285652563542524	3.339201918754384	3.7660155201242933	1.0304509375305027	2.5330493386211446	4.112810124503848	3.462855330307424	3.3528153811681336	1.7782657101556965	1.8846901607613291	3.098357908055694	3.332063904932684	3.679502239474188	2.9780421181830707	3.028738252622336	3.116706840275603	3.5819146542713542	4.102677334917614	3.50850128241691	0.9339277720713803	2.6589543752295346	3.6947634126839484	3.7408354187932136	2.909818403526828	1.999351734835545	2.9152555392095114	3.3375131999628715	1.4871791563633365	1.8287560893617165	4.044700612346706
464	1.4535767995374689	1.5957249362711696	1.3331556286531485	1.4303822481281339	3.2586264528018116	3.3835215483116774	3.5202739149860642	1.047864792085536	2.974303714872197	4.377287376796312	3.4027442846217872	2.9307575151835565	1.6550890165503669	2.0053520152006445	3.336503258864347	3.214308730593147	3.365084401217724	3.2156977572314855	3.1647403160301844	3.2115485587098567	3.364385596364141	3.817287912267792	3.4926156909500596	1.0015574668392915	2.7026281288576723	3.3900842581034576	3.445952406766115	2.533316129010486	2.112491602332487	2.666888230266266	3.064434282195298	1.618774171556909	1.7685043767147652	3.872067680119599
468	1.826094861188504	1.9947124669258103	1.564224716051933	1.7039242939844428	3.5454184919489475	3.438943615813962	3.332970133949561	1.1853468388194206	3.46910881120289	4.593371856536396	3.3560397540237625	2.531586402223471	1.527800556140233	2.181216472840736	3.5533835798194624	3.1491823116901925	3.0565762442665294	3.269633761733982	3.24806594028575	3.306267014739026	3.1834139743540097	3.503710499500539	3.3461244021811205	1.0543451282584446	2.773549788148217	3.1046669404799507	3.1542086521621213	2.18922471447396	2.2115879003000662	2.440298551120333	2.868581526189535	1.7171136097470414	1.7276556448232694	3.7215192224003317
472	2.2197945061906017	2.401184552806	1.859596247746377	1.9772174308447978	3.7466545010386536	3.51245807714569	3.273408881505945	1.4608207904173118	3.8724660775642716	4.711921203160916	3.311523429139207	2.2433030548678206	1.4208267891297373	2.3352189005067268	3.677828779471699	3.081542484132695	2.799998514735493	3.072048417918262	3.2324364103722076	3.3335304176090355	2.9760062619412624	3.1603853622753104	3.057512752442876	1.0463137600231067	2.8025491166882817	2.7710630823744657	2.8483922409621876	1.900242204636859	2.188022131164008	2.14926170760159	2.6685333184579134	1.6841931300556825	1.6167634684751324	3.5098242671090047
476	2.615617745471395	2.811909191661598	2.2441670837963033	2.2200922909951477	3.838693370664066	3.5949196724727726	3.350085488444313	1.8346151067190553	4.072380532473354	4.698362338601642	3.2494263566946686	2.0947158283752914	1.3510055507882577	2.4208919940861997	3.655127039264123	2.9552445337069377	2.6034285956456027	2.6572205953266854	3.15647482075076	3.249445668599527	2.7008643082139323	2.7960855890251572	2.6701381139097946	0.9738326644152407	2.7457647254284505	2.353190177698292	2.5133151944601533	1.6614389377608363	1.9926549145933585	1.736938472177152	2.3804492890338884	1.474638339134257	1.3688143457185755	3.1719899097466224
480	2.9921402855669097	3.207698098667088	2.6969642571068353	2.4066896377835563	3.819114913834835	3.6693942454201185	3.5080790431143876	2.214052671564595	4.038471688564825	4.5488676909993435	3.161598197584138	2.05644225555017	1.3223214116089692	2.443242066890489	3.471408358392519	2.749346964570407	2.4422469077438316	2.1418685859008955	3.1109714429512163	3.051129571840706	2.367505305988566	2.434839480928427	2.2591364326659797	0.8663948156416954	2.596579068303887	1.8733185482412116	2.1477572863712573	1.4520800077016482	1.6468750196838982	1.20991682700812	1.9627584169423995	1.1081546517050471	0.9712140535629349	2.7047519615549467
484	3.33608650318913	3.569234123755274	3.1652152458385556	2.528785699181836	3.7140173818278415	3.7322773839179697	3.664973249719	2.493563407324353	3.835134496542802	4.305579174615297	3.073948613988904	2.077022308827678	1.3307981457489444	2.4453680453549698	3.170992843251337	2.5051631864240944	2.289601797045239	1.6716235833878936	3.1734096923815875	2.7833361555398906	2.0464451261351027	2.1183447784346527	1.8995764207563988	0.7600958328129982	2.383672946633782	1.4143258297497883	1.7748850539218612	1.2554349867595305	1.2240866391747982	0.6446509941037665	1.4420005046677093	0.6548916680967711	0.4746827471192598	2.1775219385483062
488	3.6528277304930725	3.8990931412482652	3.600238314121942	2.6049230032956383	3.5800106435034564	3.8077855014031115	3.7629456425075323	2.6107470923312266	3.5910367875033278	4.054348935381428	3.048861495903439	2.1268854087536657	1.3740944827673172	2.4757053789575747	2.8502859997312098	2.320775026184063	2.149159187612835	1.3597191537859723	3.3537158881391265	2.526224129974436	1.8474205685702696	1.900250787705685	1.6421670872235556	0.6716204268664857	2.1561231558722302	1.0903454991468615	1.4429279529380727	1.0725375386815683	0.8125796297538536	0.15927782614548483	0.9051417685544279	0.20206424542909157	-0.026881763643701765	1.7017986731478294
492	3.965407838346462	4.227052201089194	3.986811866231265	2.6758458546790753	3.4894132526036525	3.938322534154592	3.8012339972845206	2.583185666238093	3.439998856442401	3.895902862249362	3.155468455930913	2.216800207263225	1.4554702006786235	2.5596687729106264	2.622602932984277	2.3051953257534277	2.0628166146649356	1.2458422152535986	3.585440149791628	2.364020580045216	1.8683278513467685	1.8278564168557483	1.508055206306052	0.5894055351635054	1.9616235445087413	0.9951483582167094	1.2101579874002721	0.9202653742443938	0.47855806229883713	-0.13793945277673636	0.46098908665616756	-0.1813479806374544	-0.4364998627609351	1.374505277978072
496	4.297838677045729	4.5894055250644765	4.34479807710417	2.7852566171897046	3.4999565989820627	4.15159844303995	3.8265011213967526	2.499955409413927	3.4622974308337344	3.9001521965739605	3.419608107516222	2.375287526809372	1.577037330460502	2.688791268235869	2.5672991210969283	2.5113906796945042	2.0828254170283587	1.2906136480171486	3.765024175674892	2.3465151727560385	2.136974567740034	1.9156055402075063	1.493151184126884	0.48605266090700555	1.8269705726273329	1.1520774335384276	1.117871400871799	0.8149561861443377	0.24539460179838404	-0.1985331321710619	0.19042573821150485	-0.46584960700674993	-0.6946027261363114	1.228245374439567
500	4.653908240966076	4.99654434849944	4.703489768550855	2.956732980892511	3.6242501644183736	4.425376880916841	3.8891224762954115	2.470128053150733	3.6552297976714563	4.067736615401339	3.783298959716887	2.601531499016481	1.7268667177470143	2.8303384709424613	2.689158432846758	2.8851678298585957	2.2236599866038156	1.4014131987475384	3.8124430083341014	2.4613575873220466	2.576291077785041	2.12363671720303	1.5758637150078378	0.3410057714912618	1.747521992086039	1.4908360205203637	1.1635762423701748	0.7533662896209127	0.09381967014228994	-0.057971790286565295	0.10984285893125727	-0.6628910882425901	-0.8018572310229904	1.2155911891764106
504	5.006865488762688	5.412832246465748	5.067601667961151	3.1811897674351868	3.8195924662475695	4.6777081371462215	3.9956915277689045	2.5579478676110163	3.9466798205867386	4.324882973242097	4.106447209480851	2.830697290903103	1.8709166002721171	2.9494454786220916	2.914272062573201	3.266782513953705	2.4278089938856304	1.4795142374831525	3.71708129898014	2.635073655151278	3.0194172782958937	2.358002656705307	1.7192606882557195	0.1587635423705	1.6916682677473809	1.8685010624440483	1.2918256488609514	0.705547986633427	-0.02050587902256273	0.1798502798308033	0.16721144276363797	-0.8087738135899089	-0.8124766925325864	1.2370476691484833
508	5.309591756766689	5.7669877860379	5.4015698296545835	3.4234061154717206	4.00930403650834	4.798257338807195	4.091490258377256	2.7437391211855178	4.241586674471687	4.559550273827598	4.222222794363105	2.943504087645881	1.9595774362680578	3.0275828761909267	3.1283099572354436	3.4558727653989054	2.5729970867044902	1.46779381858269	3.540203085544268	2.7663209368481083	3.276242486311413	2.4991381105268307	1.8712611151180492	-0.03011291280236633	1.618239637103913	2.12939547954811	1.412623044262144	0.6267496331603462	-0.14292715453778712	0.39125800033968317	0.27258989146074825	-0.9412158703882457	-0.8019499162453821	1.1977057426731053
512	5.525657163020492	5.9956459847708965	5.650328621903725	3.6460010913348935	4.128332127638487	4.710045802622438	4.0903487102234	2.9365203306444707	4.473550785214159	4.6821942211192695	4.023543824527808	2.8239388394583744	1.9511864136070531	3.0665376108948217	3.2391920007939943	3.31233977435199	2.5262067254182057	1.376266118389581	3.3753666792526764	2.776389353418147	3.2222113527960947	2.450318091881779	1.9723010013375573	-0.18724439990929526	1.497895952257605	2.1750457231920093	1.4402329885360026	0.48311766860103067	-0.3026658884989952	0.4876883315648021	0.3430913678090095	-1.0833606692618476	-0.8296396115337488	1.0575847599030974
516	5.663080201156198	6.093967422358352	5.786274895364205	3.8360419176525715	4.165672291728782	4.426227081567771	3.9351117511579377	3.0334937495890895	4.633589256032025	4.676289546604148	3.5333993345696246	2.434644216112636	1.8403401328352773	3.082315914001348	3.227812282042208	2.8395447659326454	2.218283409240071	1.2756961551882955	3.294599286344412	2.649765007958424	2.8640751766373134	2.18363284513383	1.9735507915260524	-0.29192739651408334	1.3271164860597533	2.008182520564592	1.3323334421851927	0.2744427912458803	-0.5093751536860278	0.44754734522358247	0.3364799908248929	-1.2425384490113296	-0.9171425080985613	0.845618722688016
520	5.78736256091932	6.13897751211898	5.850249752533006	4.0164437192600895	4.175530899949742	4.0643081562425145	3.6499583629008296	2.990771762926322	4.762567031280118	4.606872546962515	2.9142181799744598	1.8619075966556415	1.6722931819656097	3.096905223656896	3.1545939365849764	2.1995902005928087	1.69488620330139	1.2609758345238615	3.312272540312853	2.4404723582640586	2.3443853795943017	1.7581340030150567	1.861662502356944	-0.35787936954741495	1.1262863845999427	1.7259818271929128	1.1076098652531754	0.03820418184290719	-0.7619505505397913	0.3088012627911373	0.25629112059735765	-1.4210770094278726	-1.052457449163174	0.6312347038544363
