time	FP1	FPZ	FP2	F7	F3	FZ	F4	F8	FT7	FC3	FCZ	FC4	FT8	T7	C3	CZ	C4	T8	TP7	CP3	CPZ	CP4	TP8	P7	P3	PZ	P4	P8	PO3	POZ	PO4	O1	OZ	O2
-200	-2.3195128382294863	-1.4424420558750906	-1.3410799469467403	-1.7043044524078603	-2.2737960758021853	-1.5620919426579647	-2.032788033121488	-1.1627371281831453	-1.692451949614909	-1.820673937969158	-1.5068083963497882	-2.37129616138671	-1.3407282795434532	-1.5216268262592747	-1.3346855606713806	-1.6546913343614296	-2.310000652203087	-1.8295748187602843	-1.0051872704876588	-1.342757221646485	-1.179694053532484	-1.6848479466815316	-1.3268228735803311	-0.0002446042775054398	-0.7399946432504065	-0.7803065161077658	-0.7272150498149594	-0.25727233225717283	-0.0869240311573766	-0.08646411426887027	0.14812017939840952	0.7601488213420697	0.4464458811932366	0.12018406360800239
-196	-1.7064950423071148	-0.6755089146725252	-0.9261907911758448	-1.219568845530809	-1.3521790470316328	-0.576808749173123	-1.2054828374944733	-0.9005027986679163	-1.3400350775264656	-0.953441975093706	-0.6112083181208487	-1.5704494675086902	-0.9533695554504867	-0.6122741087713867	-0.6003232583148044	-0.8609804489332584	-1.9249049376525944	-1.3149186339558454	-0.6411933286690759	-0.698594151163618	-0.47067436457055734	-1.6689257579628811	-1.217442390229171	0.23789454936523247	-0.2584672265679683	-0.2839922599774923	-0.994003531807399	-0.4370641995362437	0.15886548121396973	0.0820739714219259	-0.018560990644323	0.8797765351971433	0.4470053005853636	0.02628120028297725
-192	-0.8020043352859247	0.1268963959589524	-0.26062366300585266	-0.5899941310291763	-0.2807498567168644	0.5211547003939582	-0.12893451717725637	-0.6230594500069737	-0.7930042723661428	-0.017462579489368982	0.36614149716441824	-0.5251314030740425	-0.6248504503686628	0.259622662604022	0.10301043067196865	0.036297235546261505	-1.1964436739278175	-0.6053937062237557	-0.32690948165372835	-0.14748841486886902	0.275494545002609	-1.3276983466005816	-0.9120343304495625	0.31327506820739326	0.14589136802078934	0.20214155265317008	-1.0559647056621926	-0.5721637592175042	0.3826181282873695	0.24517492888061898	-0.13853646779846054	0.8294742682495593	0.392251579963258	-0.04402202729197129
-188	0.10671010586499756	0.7294117789926103	0.4926286923368596	0.011736920073797874	0.6614990217673755	1.4364445173236435	0.830895719814574	-0.34397274168907793	-0.24624337193784268	0.7575978617614131	1.2073351114308368	0.44365727789446047	-0.407796679897689	0.7118300777583133	0.6154868587213136	0.8371704199635268	-0.3550815871333666	0.035843335001571996	-0.20317538031302787	0.2031265939114024	0.860858795853579	-0.7870147208370755	-0.5682657942729694	0.1870942707106463	0.37187409307050756	0.5180804716381395	-0.9423375105907972	-0.6750314218644351	0.48853108163515363	0.30126070900196306	-0.2449694418682746	0.6291462763160689	0.2512687736366187	-0.13625104690960788
-184	0.7516188602544444	1.0000408862614554	1.1406110496333566	0.43339922914754764	1.2754862276299266	1.9799575755674939	1.4141663277207719	-0.09609145646868467	0.1364701237809267	1.2347475259124083	1.784941072725818	1.1042314739958359	-0.3015743784443016	0.5782740101519369	0.8916581846613161	1.423142191154836	0.39251288672529355	0.3982650627571422	-0.29547932669424826	0.37432387376691345	1.215003964217566	-0.1808289135897384	-0.31475415746376023	-0.07348808627648129	0.44159963615504183	0.6445540769516064	-0.6715660078259432	-0.705469487316456	0.4663296926168812	0.2510963373997188	-0.30336046142280915	0.37331271077317424	0.06240736677387499	-0.24163177548437506
-180	1.0078400348013348	0.9722028946172621	1.5371926984123576	0.6142678841340897	1.5250507554651076	2.14709901267602	1.5891326625756552	0.08086434731332753	0.3060222856424681	1.4245381319319514	2.1083149856743306	1.4173914158321363	-0.25303995545397	0.0032314576592666283	1.0123773787687609	1.802128191212698	0.9663748120704836	0.42240545046970734	-0.5007985221616612	0.49262928838330583	1.4182088339285222	0.4270994950478524	-0.1929558212653816	-0.325379996670331	0.4744993436277489	0.6977700573470341	-0.22755061032541518	-0.5807430729508789	0.38941100141436896	0.19304490040677352	-0.219988792579271	0.17905417039487076	-0.08094231018849692	-0.2896025769551336
-176	0.9344849562893339	0.8127444365962414	1.63110184257681	0.6031492337257602	1.5280141791865687	2.091436380828029	1.5379842480929762	0.16062305827118542	0.33848461423291765	1.4573488198679112	2.2921786250416627	1.522374745340028	-0.18534573865825243	-0.6414427145021864	1.1252913446625745	2.0804550595209155	1.4250715935013443	0.21539127772309605	-0.6499454362672181	0.7080354076629134	1.6388714272129554	1.060146209901208	-0.14664599262406294	-0.42339852345380286	0.6071156844069691	0.8483422973195064	0.4220279146506532	-0.22481630685789236	0.3664607396410292	0.2609344714252492	0.10142368052624794	0.12613581089121634	-0.0791257841377472	-0.18468856764894057
-172	0.722055016125137	0.7175996881487147	1.4669426642574463	0.5169202076258712	1.466174121969653	2.0149443098694197	1.521942373247919	0.14557619356117402	0.3679434051760737	1.4927476606827736	2.469451182806373	1.62458037919911	-0.03960113217369076	-0.9724491214042075	1.3486103977486505	2.3799998700134166	1.886383290296544	-0.017905253871772414	-0.6105893238864192	1.0978643866477145	2.020906204843381	1.7737367108385178	-0.06244186668724194	-0.30045869870621267	0.9045084692052883	1.212154504576628	1.2724961010276736	0.37061479594119495	0.47348022341395235	0.5400350080206979	0.6851503831731157	0.21701739673659148	0.113768286715803	0.12954299119190968
-168	0.5717219695915444	0.7950350622131579	1.1459028691924447	0.4667734193937913	1.471420522789537	2.044092650021047	1.7135524706492817	0.06620687229607003	0.48991867776202136	1.6221858222059493	2.7035510471750444	1.860476250719619	0.19119551729567433	-0.8129416683653052	1.6973881678641651	2.7535266806700838	2.4155692993211955	-0.08477317520434523	-0.36614629533831056	1.6142135817780792	2.588652127405932	2.5682337219246465	0.16556572872322206	-0.006875943375155094	1.3174661364671139	1.7790870621586277	2.233316177451629	1.1130639286549326	0.709481356736869	1.013033625906081	1.4403825961940109	0.38268470667541554	0.4583018708578984	0.6218755229507893
-164	0.5801205024377718	1.0052020524395258	0.7746109346859885	0.4992670702249912	1.5588457545024033	2.1654446070358295	2.0937793201989447	-0.03175193435877793	0.6966517550045817	1.8247001125042812	2.952730648215238	2.2199380341748585	0.45951139810894925	-0.28110021281796965	2.0773031659131505	3.1496534268013074	2.957758657617216	0.10623997423051863	-0.023051442520235648	2.106545681403285	3.2253148474324242	3.334541550800452	0.5791655168215917	0.31487238327637374	1.7101182894445734	2.4182476936320603	3.1229617516825403	1.8290007068232572	1.0010822986123418	1.5660947521723947	2.1800980512889945	0.5299368487329914	0.846173939952697	1.1713776558865499
-160	0.6972641331234579	1.1913202970944392	0.4330580521617147	0.5867146834819141	1.645401831287349	2.2561623993177755	2.4725947317638903	-0.10169630472018167	0.8862844683205133	1.9999662587216278	3.106393090988288	2.5668096477552687	0.694816349182647	0.2981061927898347	2.3490600526629435	3.4484035881716695	3.3602139864961336	0.5154041038851921	0.2563132041181912	2.408028119683253	3.7380542660750153	3.8809502026801805	1.1269080610433804	0.5081849085375131	1.942058439119906	2.9533758088886577	3.7269120122274146	2.3319199026360278	1.2511788575054448	2.04987787682834	2.698032372338514	0.6005117878057529	1.1553456754125004	1.617025609702193
-156	0.7782505134960743	1.181217190621229	0.17011874871218458	0.6661327464451602	1.633797522234616	2.1826467458931553	2.614383690909081	-0.1102904898123903	0.9354065633045242	2.052004808967135	3.066064826853657	2.736292593723239	0.8462805726619309	0.5990166648999818	2.422260278308209	3.541762343047656	3.466673127004938	1.006699678740371	0.3530348828462367	2.435734742690693	3.9682104487367247	4.02706002172352	1.6756995874059228	0.48985421533885953	1.9555424402455301	3.2588925279354175	3.888767709450604	2.500700705890317	1.4003828728605523	2.3562657773609375	2.8613812851188465	0.6077606066618105	1.3114562001495846	1.83197974696161
-152	0.6947309953315441	0.8975574947584213	0.012095478332796986	0.6928457600267031	1.4962657652271139	1.8975477170719455	2.3837027489560945	-0.04753833624639226	0.7866340259718563	1.9608604858482535	2.813842289496073	2.6400299005611276	0.9083609558059743	0.4933101820411784	2.3133692682987084	3.4032375726607027	3.219402305104212	1.4180360996683992	0.2627819173853981	2.2389461937643187	3.87703799222558	3.708483448202287	2.0543551393139845	0.29623037501884436	1.8105490161960152	3.316391936512169	3.5850224404420965	2.3273553789506525	1.460391398557434	2.4638218817494186	2.6683466367109485	0.6265621765530008	1.319706794267853	1.7814338162267993
-148	0.4293249834665347	0.4069923152184759	-0.03101778767622329	0.6691026074682406	1.2970396247541593	1.4689357243644139	1.8159984304354915	0.07182537746176672	0.4901697325251815	1.7909872486672789	2.4198596416412963	2.301624530703239	0.914699075296808	0.11559109360598006	2.1270160621346834	3.0969874780664783	2.694450133196557	1.6255264241185965	0.09142690128846782	1.9626022527734823	3.5518965631453603	3.021636001587411	2.113114351659528	0.060133147832921514	1.6426036316407884	3.197114221130333	2.9352176115315487	1.906769032432575	1.4953308067715276	2.424505227643361	2.235953563766991	0.7386693339771718	1.2462035386093149	1.528895731880571
-144	0.09310896671152433	-0.11671879858112208	0.028138844225292423	0.6317450984263593	1.141173955897194	1.0307614777289984	1.0898960801263897	0.2082413876759546	0.17795124605073157	1.6344302851419539	1.991619105079067	1.82513248459639	0.9001914836090404	-0.23370133281354818	1.9747730443687306	2.727542155055146	2.0573625512631786	1.574847813444851	-0.013895365374470626	1.7511030391351032	3.137051574416132	2.181135172105468	1.7801768734809493	-0.06530261768304621	1.5721366365794427	2.991737596587824	2.142581695869188	1.380714174599359	1.5677911003584195	2.3086998404387935	1.730613108080268	0.9710763072292067	1.1665393084637679	1.1933987110525097
-140	-0.1445536460803115	-0.490089087441004	0.13726615871105347	0.6100894793365947	1.0854649516356851	0.6901584250191447	0.41964009298233496	0.30470347327549746	-0.014773016758217732	1.5297616681576816	1.600325818789766	1.3201850619363233	0.8640079476476912	-0.28691103982012917	1.8870055627864282	2.3643140733153487	1.4669311009563892	1.2819539276181748	0.04170269508561734	1.6520200926079198	2.735028021582877	1.4103463852560512	1.099029061403685	0.004893351333899824	1.6204463202572161	2.7360718181195485	1.3977626526828415	0.8726137258432793	1.683641310255745	2.1466190760775	1.2833795515083133	1.264261123326297	1.1155705423799884	0.8854873754079445
-136	-0.17082489983821694	-0.618655203210995	0.20618110843101134	0.5910719022132839	1.0798858376895049	0.45778256539160395	-0.05969358965584488	0.30599072498313923	-0.029637904762899032	1.42001592754426	1.2373771636239699	0.8383477905088026	0.7636463622840144	0.01772721852356812	1.782381887704203	1.9951454350643656	0.992290851948747	0.8172169903149603	0.24007072984164884	1.5842083652553243	2.34438084964131	0.8316808321935732	0.22787448706314573	0.23839962422262273	1.6874058204009648	2.384581082999287	0.7984436730253223	0.4443308401810442	1.7725136235308148	1.9057151031063175	0.9352478957405327	1.490067835860438	1.067015049147782	0.6551043970734374
-132	-0.01669261414068506	-0.5410779104876999	0.14116388523700976	0.5199812637552277	0.985441086188453	0.24980658229700287	-0.33898779664284107	0.18333384348358345	0.0853896362413783	1.18316995798843	0.8333076813639654	0.3706880202471166	0.5448697791648024	0.5002781140094411	1.518520351390714	1.5439511498570861	0.5991517290247018	0.2817696325817519	0.4617142665649964	1.3929011786579453	1.8766523552243717	0.42493200194839004	-0.6062002166701752	0.5049471246368437	1.6090021092799454	1.8525457335429865	0.3322802177622999	0.09778369938481087	1.722536917152172	1.5223748645493174	0.6436660869559846	1.5166140756463204	0.9587423181169755	0.4830501961433153
-128	0.15389221867807937	-0.39105042716477695	-0.09844510232389111	0.3434456280143376	0.6690623147284741	-0.035627331494741635	-0.49068879957289746	-0.045475795750243554	0.2143816346477948	0.725405512408792	0.33077746546201686	-0.09422583854250577	0.19119530867941814	0.854682026135745	0.9994330977002153	0.9450286602956116	0.2147131556811985	-0.21253526157124916	0.5587881193358082	0.9610956286960559	1.2416869370582182	0.08163053521765835	-1.1821953028395236	0.651313303256715	1.2619941202726335	1.0978382798133688	-0.0706244556312836	-0.18682870221652004	1.4481860362683032	0.9643766259640784	0.3391328147432135	1.2819253173887548	0.7439785580924905	0.31526967803512107
-124	0.15687327047318814	-0.3018414370545435	-0.4532425094128473	0.06728235615194006	0.11691162705706422	-0.41839620365365787	-0.5734136090106439	-0.3112619809398318	0.25619891221212293	0.07750987987022434	-0.23775003790433938	-0.502979992550288	-0.23814544021561984	0.8470649101805501	0.2714177065195549	0.22487501743284788	-0.17878821447055446	-0.5616540298586628	0.4469636667410931	0.30905750315837976	0.44446956999140863	-0.2864006750505284	-1.363910910023863	0.5896799549473585	0.6544660909341493	0.18736711097141678	-0.4579254079224475	-0.41208305850892196	0.9515156125840737	0.2813076369812643	-0.010583978119592646	0.8348391631029576	0.4330770362410277	0.11198841007091703
-120	-0.06927398574743658	-0.31685027400128424	-0.7672641853988121	-0.2180416876533093	-0.515985249170285	-0.7876538614413884	-0.5663410410887421	-0.5115700351196952	0.19440053354296116	-0.5796467647222932	-0.7291359883019308	-0.7263488155146257	-0.6112667306725812	0.46374139072636705	-0.4649618554297066	-0.47146445393738273	-0.4977755235978977	-0.6913312060067843	0.15616497357994924	-0.38794237277313365	-0.3765310039550513	-0.6612457020277197	-1.1472113103512505	0.34507229837079584	-0.05776300266702483	-0.7021974307451273	-0.8022819141159429	-0.5495120273067683	0.3367583147129689	-0.39454901118800256	-0.36920565273529526	0.3164924077149563	0.0978297141704613	-0.11999549686415094
-116	-0.3918595304132377	-0.36243396905946	-0.8559085109081915	-0.3723391583101934	-0.9649850701764093	-0.9478391981036096	-0.3846155991380393	-0.5533469901419346	0.10629072758541673	-0.9910332535518062	-0.9517669653704569	-0.6252080782364122	-0.7811133245774085	-0.0848167238478243	-0.9460351443247477	-0.9382191276704395	-0.5981523975529207	-0.5838792309324629	-0.18946012806742027	-0.883598861847649	-1.0041695807853332	-0.9163884497394117	-0.656956969033024	0.0351378320760499	-0.6453556402125221	-1.360192414664294	-1.011755106278877	-0.5601664767427591	-0.2358119779831995	-0.9058119631785903	-0.6533378346160444	-0.11092755170472184	-0.16765747922052726	-0.3322782508090273
-112	-0.5434728251087285	-0.2997550658764157	-0.6093024596089676	-0.28531989383186734	-0.9969109867675571	-0.7372364979250338	0.03351595989348397	-0.39894142646202324	0.107214100388204	-0.9663524007241047	-0.7788391093617453	-0.15730830987314415	-0.6637455208232881	-0.5081859814211164	-0.9889441703623478	-1.0211317513433988	-0.3796363761376864	-0.29213833735141087	-0.44719615465745255	-0.9978374813636066	-1.2595980135587124	-0.9018477178692326	-0.08963197447081406	-0.2027880544310941	-0.9268946624242203	-1.6492906767212563	-0.9959526632912779	-0.43112569938529766	-0.6286619885784915	-1.1508078546079172	-0.7881031016479263	-0.3463880709008906	-0.3023457817550371	-0.4689835596164827
-108	-0.2897949509456605	-0.02279953466559936	-0.07152447831453905	0.0454514398023337	-0.5531443939548546	-0.1481935825182651	0.6273778661146926	-0.08488248267200672	0.26819461516378557	-0.5012392985086623	-0.24497531292577016	0.5445227013191516	-0.2859765582016999	-0.6255170091095031	-0.6031076892884567	-0.7178453188892139	0.11222361744918748	0.07813469300808547	-0.5388045297370614	-0.724002538283611	-1.1110141249262822	-0.5650457725563983	0.37296372557889546	-0.29274338409899825	-0.8658721425129796	-1.579509135073097	-0.7434660773580055	-0.199487536641957	-0.7923461774848393	-1.1375966043360966	-0.7571703772501632	-0.39746010203148285	-0.3137207321352537	-0.5042670952463182
-104	0.39743539590628585	0.45773455385035855	0.55896818496722	0.4911170887468497	0.19569286654655715	0.6317101104999644	1.1862597435564957	0.2936341159082728	0.556010483291643	0.1982261831524048	0.44040509947211415	1.1923264234957076	0.2196508342442478	-0.4820462155092534	0.0025875202780453435	-0.19930487820850398	0.6676592213940039	0.4067962755423046	-0.4905194925798404	-0.23830394386683862	-0.7031313163171102	-0.018083656161070185	0.6344035847859192	-0.2615500085902906	-0.5852402433878279	-1.3005729880875236	-0.3516193023387175	0.05572407678601845	-0.7796165327415879	-0.975409445684148	-0.6120574458881751	-0.365207015545989	-0.2692573659774476	-0.4563253510398143
-100	1.274806853890492	0.9994697545566595	1.0239016983884075	0.848294852022385	0.9282058453966788	1.2968497243563843	1.4360139333708732	0.6296455844240917	0.838204858570992	0.8147154429846978	0.9844912861763552	1.4712791405724865	0.6772851926869919	-0.31661841193369333	0.5289065228460054	0.270570813926402	1.005666491830443	0.6068122967658283	-0.40756451980687497	0.1977877015842217	-0.2826773815170669	0.5016795980185065	0.7068470102583821	-0.2161580318715508	-0.2909510426328051	-1.0131651137521236	0.017152484463062778	0.2524867945495286	-0.7010920030059138	-0.8060255030308991	-0.435934900136858	-0.3770334115045946	-0.24935364660249823	-0.3706230809867978
-96	1.9256709765453137	1.395794388108038	1.1456665963811516	0.9487003064045056	1.3420500721426551	1.5820926387897187	1.1975369423195275	0.8608344175539274	0.9604512428830161	1.0879714461514516	1.161132571149843	1.2091364830006905	0.9587532853715864	-0.3878802349311122	0.7478299122049286	0.47400697946082493	0.9281241274288982	0.660450635673068	-0.3966038515091238	0.38490340016461067	-0.0619050188289763	0.7568533401454034	0.6794258338940508	-0.2678730779083565	-0.14996859393403356	-0.8512802698577124	0.22584958317478737	0.35130762965197393	-0.6503600461752289	-0.7158178669022979	-0.2868525378614298	-0.5039653169305823	-0.2904963784036063	-0.28398814725701316
-92	1.9876530120257259	1.4881284199336329	0.9338270402219643	0.7583257536815724	1.3179249730214362	1.411690589201632	0.5197427259674389	1.0007858251099775	0.8424968102164975	0.9555503701880227	0.9333808994569468	0.48636042948952624	1.047445413805955	-0.7803841213550674	0.6220273955852935	0.35543852954770283	0.44404619820063795	0.6194443687058288	-0.4904143797890444	0.2934368543368867	-0.10313741091676143	0.6495050175480848	0.6535689218232552	-0.45652088407650626	-0.199304401371347	-0.8097425082743528	0.24354298351311143	0.37622150683783645	-0.6504735334185948	-0.6867719871347808	-0.16256925422631663	-0.7177564483640781	-0.36013683585793854	-0.19868680784606607
-88	1.3739751542687781	1.2582703797043373	0.5877692088546179	0.401952235875961	0.9783763264749972	0.9488328075295068	-0.3016987733376338	1.1220903368276387	0.5336116538880507	0.579394756284819	0.47473433493918266	-0.3823547651650944	1.0332031223914129	-1.3187752928816552	0.3086531452492444	0.04451727110828874	-0.21675603036991128	0.569898603907824	-0.6245567782845959	0.06410220994262296	-0.2948844723408917	0.28554198073773973	0.6835376603034996	-0.7225183826324509	-0.3414066723310089	-0.7619035224751822	0.16290549892780684	0.3965866257668272	-0.6541237218554239	-0.6182224138863736	-0.012632558090383116	-0.9123795009465853	-0.38065886401390436	-0.08645004012215822
-84	0.3565827003059225	0.847983536963509	0.3816047599217792	0.09585453545688125	0.6059734209973774	0.5107827173688448	-0.8521370270195509	1.2999526229462677	0.19810338268331634	0.24122093557013674	0.07264564913051406	-0.9962424610734442	1.0439310047495816	-1.6468503433610235	0.047740645586120053	-0.22843633534454122	-0.7167106252694896	0.5819475040048143	-0.6767304522594679	-0.09559269225304405	-0.4330651749167474	-0.08256455490009175	0.7556772212976648	-0.9390616989268571	-0.4230661679553744	-0.5557324872291125	0.1388291713070523	0.47795143602816714	-0.5920470341993472	-0.40500619905260715	0.2111265654001842	-0.9714714264184252	-0.285487829918098	0.08174758383854051
-80	-0.5551350698760371	0.4869447338207841	0.49438711876026115	0.022403383570970808	0.46527525665114433	0.3873960366005018	-0.8196116069127658	1.5511702259954758	0.0296765006329388	0.165460422217331	-0.03851427873185854	-1.0785533162542706	1.155260083142819	-1.4388854467303227	0.0032338444061886986	-0.2788810722939399	-0.7955594638765678	0.6697745306270971	-0.5470232353704555	-0.05579084516386921	-0.3607498398255834	-0.20816542155638015	0.8104989508192875	-0.9877141689158684	-0.34846341521976276	-0.13152326610260517	0.2812150113635172	0.6311447604456972	-0.4381983865164887	-0.026471748881262486	0.4968096005294288	-0.8443734028478679	-0.0753630248789634	0.29648393317707866
-76	-0.8884852506139986	0.36748799588881714	0.889109847685023	0.22038184050708878	0.6369898303161937	0.667504428131913	-0.1823251540825962	1.8016622021010205	0.14108829164646422	0.3778148283956271	0.18218311621445507	-0.624840257974432	1.328576084597328	-0.6136577709917093	0.15715666075605725	-0.08660776146241629	-0.41927531255723055	0.782329497746335	-0.22790864052451582	0.14472813867745088	-0.07825456539900671	-0.004954226768174582	0.7865597585846537	-0.8308395722393374	-0.15073114595504225	0.41420864954321296	0.569188295357829	0.7902761081770163	-0.2445130193020594	0.4127272059033833	0.7496942262795063	-0.5827799424716458	0.16368272859255442	0.49118828649485413
-72	-0.4772403824201144	0.5364073501395371	1.3181186881164673	0.5592414126581805	0.967865583837197	1.175452110183819	0.7499667387147313	1.9143857907599022	0.49596911543557304	0.6871446353729757	0.5514143691446167	0.09080197639189802	1.4264683687434843	0.5822878465256226	0.3229438952398666	0.18624022556013836	0.19284799646325515	0.8321341255159456	0.1798515613306627	0.32032874145694895	0.24560773310640155	0.3895534565150225	0.6611002666948349	-0.5338960872522006	0.025627301941184313	0.8623215534373188	0.8443372228285806	0.839027045038948	-0.11821838438465944	0.7214710694217468	0.8272941091631142	-0.3134905688000346	0.2977249614828138	0.5628570304011272
-68	0.4318049837177654	0.8648160674195157	1.4605089389166344	0.8142498711055326	1.164917346874235	1.5584338864080451	1.4803254566964974	1.7607967809090297	0.9204936004286626	0.8014024475845024	0.761120317444811	0.6621742827863311	1.2928829160473079	1.6789027410080652	0.26697540215798315	0.28943559454321693	0.6841316205871868	0.7424190621705244	0.5177837597171968	0.2566931241230303	0.3684922745461021	0.6844137889748411	0.4606961596301585	-0.2260157609240016	0.017599621743232503	0.9845253800330807	0.890658376352378	0.6709398014295139	-0.15665392538096848	0.7206093650744045	0.6138587578533844	-0.16651305514256798	0.21576739793184033	0.4215151656952675
-64	1.3074201312434541	1.116540548366614	1.1178033323676373	0.8005304912382847	0.9797537898122787	1.482091423107444	1.5874681432698603	1.2952864137371625	1.1922017305791524	0.5111730085818488	0.5559292421610194	0.7738182525171219	0.8504552223668146	2.2204482499328475	-0.13392020728155105	0.0382379478740872	0.7590691428093342	0.48584166046503335	0.6576992256725379	-0.143441348905805	0.1219149452350067	0.6065116509383403	0.23755291044340368	-0.023079588951014612	-0.24331404207310717	0.6742714030408229	0.5631765709009613	0.25247514184150444	-0.3781653037060215	0.3482474973946091	0.09534396207102433	-0.20052178153432718	-0.10427486870188019	0.04530736792569473
-60	1.6259701210931843	1.0756347152255676	0.3492872110131236	0.4830775844775204	0.3687381437051799	0.8204745033530005	0.9521995162764998	0.5987453445576493	1.154579040473335	-0.17344531373102273	-0.11776083678077695	0.36054477004575136	0.1659376766068426	2.0008313605337134	-0.801445422533277	-0.5711463079337571	0.3390386096023838	0.10038102392840507	0.5724136814924164	-0.7823349813736404	-0.48265161988470856	0.06487870945047389	0.033697251145400904	0.03800075864138298	-0.6730988008671173	0.014531387910811525	-0.11403424264011933	-0.34642922790800407	-0.6961393338747414	-0.29293525145004584	-0.6131921395078994	-0.37053340579895966	-0.5747085199151198	-0.4936333584243346
-56	1.158938404971911	0.6643772704516675	-0.5375708328026152	-0.0022184888310598353	-0.46673673273502464	-0.26448520951252164	-0.17449414686016484	-0.14355012738224546	0.7947918752630883	-1.0134834025544206	-1.0731984349811692	-0.37424474860117385	-0.5633807168088016	1.1696921557458468	-1.4864369593284672	-1.350748535560635	-0.4055004109635146	-0.3231684259361686	0.3513856521317879	-1.4070782625912677	-1.2511141268613821	-0.7870675305522132	-0.13663041557148423	0.01544856834981581	-1.0710082027097825	-0.7573903779934738	-0.9401674842939384	-0.9707932447718831	-0.9562324261364654	-0.9760373806152713	-1.306993004360072	-0.556789933229403	-1.0350986692997741	-1.0487270328746796
-52	0.09414525306297289	-0.012321157349830598	-1.1460440129909164	-0.429895399915595	-1.1882142990630356	-1.400766369144069	-1.3045322862113775	-0.7191823702774397	0.24404562948123323	-1.6683992105322647	-1.9784288356421544	-1.0879795523831206	-1.0975133152908738	0.14321421050630065	-1.9040087413399958	-2.021921391150632	-1.1611109942684887	-0.6747168285501048	0.14787629209376557	-1.7438482002099385	-1.909758205360514	-1.628996010482212	-0.2791913740738571	0.01898526768063393	-1.229059573885143	-1.3688458169709374	-1.6279531676198549	-1.441858168776345	-1.0175724003849782	-1.4573889933983883	-1.7794954731835975	-0.6365008934163356	-1.3268388476250905	-1.4556271993125656
-48	-1.0742602321205172	-0.720551131336606	-1.2113131254131029	-0.6181535705218318	-1.5140323600690373	-2.1993088666701794	-1.9772672603277042	-0.9822140311238162	-0.2955332688976338	-1.8859362554618573	-2.5315957005480327	-1.498361226113547	-1.2687100140010998	-0.6200031026445425	-1.8928840112579146	-2.3686776101390485	-1.649384971269053	-0.8644306041827263	0.09328360086969471	-1.6481623607985068	-2.253047460589678	-2.1439897959938063	-0.39718752999161316	0.13600566948884832	-1.0507951948338745	-1.647430415762513	-1.9452469299794708	-1.63305317943254	-0.8305541255962287	-1.5931671817610258	-1.913941378529579	-0.5546141252820155	-1.3655768598411293	-1.6001949269901696
-44	-1.8249121858298565	-1.220967528121577	-0.7572098951295496	-0.5359585867701562	-1.3850189412434588	-2.456730359550526	-2.0069496580951705	-0.9156765914686564	-0.6550249440821524	-1.6452897745554542	-2.619739287437918	-1.5372370442679584	-1.0633059713220634	-0.8487910010842427	-1.5065523347964798	-2.355316394581352	-1.7763302281354365	-0.8536826946639638	0.22701774480246853	-1.1849492758397726	-2.2517332973849884	-2.1910400335306557	-0.47322180747718107	0.3742272248356541	-0.609661339174254	-1.5997446735046732	-1.8339611245582308	-1.5237184724484518	-0.46610721828081875	-1.403115268979447	-1.7316913561015324	-0.3511142125801661	-1.173456427472488	-1.4637606106995014
-40	-1.891148562425016	-1.3927924597861494	-0.09481272077464371	-0.31846973219574287	-1.0018436883427801	-2.254779094725321	-1.573471542200462	-0.6286702736240943	-0.7786766271004978	-1.169102427391928	-2.3717975556572948	-1.3741418088551494	-0.6228440984259439	-0.5741909131811972	-0.9829547976472145	-2.1395211165769883	-1.6685429769351001	-0.6664319617611771	0.4788396644423675	-0.5922324642487753	-2.0590925164687714	-1.8775801611226028	-0.47509482382987406	0.6526954157562773	-0.11308704288064325	-1.39137172347687	-1.4387267791663312	-1.2035845487724595	-0.08052360246116812	-1.0479743454223565	-1.3720720971751943	-0.13282537426791965	-0.8563493468598373	-1.1229668827314927
-36	-1.3802087272129397	-1.2885338035476073	0.34570458444097685	-0.1801679129820094	-0.7094882112710008	-1.8993208360402472	-1.0998195382007006	-0.2985665492625951	-0.7374246101834699	-0.7964773157991467	-2.074493641384111	-1.2903583017195754	-0.1732930238640061	-0.0676882786829968	-0.6134611948737363	-1.9718815038486872	-1.5733237226817922	-0.3857048740185594	0.7138263565160905	-0.15400271078805278	-1.9124840449685	-1.4859564266835013	-0.3881599595283369	0.8467934110242836	0.20456944354383744	-1.2427644698237472	-1.0275839541240448	-0.8301529267332585	0.16260096389725706	-0.7375251036143075	-1.0188539002444137	-0.011642659053613879	-0.5457392917205904	-0.7104005795662742
-32	-0.6744907481330426	-1.0909734936826294	0.2506169968476454	-0.28106963563527704	-0.7965884784613722	-1.7382677749615765	-0.9937818025293943	-0.08728909470454298	-0.6701754910714888	-0.7934458235735241	-2.003298754402606	-1.4896365366519322	0.08213205614811288	0.3432886293803956	-0.590635357796051	-2.0441884942896036	-1.6922593074034813	-0.1295605149574294	0.8109704831629151	-0.05929957315255195	-1.9912195155415016	-1.3037663665279475	-0.24778068003084702	0.8600996710996363	0.19761143574890472	-1.3036059108246172	-0.8495318868169301	-0.558807848473179	0.16941787259720148	-0.6218938215766892	-0.8134465197052781	-0.04406661529144101	-0.3374867430749298	-0.35712709932760406
-28	-0.19127091717112482	-1.0004202102198483	-0.4079349030685741	-0.6306164844803868	-1.3291490044414627	-1.965778941913411	-1.4115477764731108	-0.07409255932936418	-0.6974856835875287	-1.2117803066176729	-2.2688641490873427	-1.968997592723156	0.05084057139435261	0.46359449507968903	-0.9216977930640196	-2.3786482750919027	-2.054586405335129	-0.01401619050838331	0.7266175728572395	-0.32575920141943465	-2.3162879885367005	-1.4601820670455115	-0.14308696949118763	0.6751882416844432	-0.13224194910516995	-1.5783683021749761	-1.00764214738118	-0.47881084559669135	-0.051994740831708075	-0.7270961385489327	-0.7993768433415698	-0.2100671822489435	-0.2605844431496894	-0.1448823060907732
-24	-0.1459559198509181	-1.1178538771062791	-1.3549476827744595	-1.0820584269860827	-2.1085944122483324	-2.515732520427561	-2.1665661280290918	-0.2408533090232515	-0.8570253231345284	-1.8673973036348843	-2.7576191355700295	-2.510166877131066	-0.22708156647570066	0.31832396903731264	-1.4447942935705678	-2.815350287005083	-2.4939522680258857	-0.1115749252005735	0.5112715350594137	-0.8177793005323516	-2.7428965499291	-1.8569019986000421	-0.17798134639626711	0.35932162313340377	-0.656322775614215	-1.9369522284241798	-1.4122921192751865	-0.5837901815933932	-0.41306301847119997	-0.9627812480460481	-0.920757649004351	-0.4353780139421275	-0.2855248444024101	-0.08791814722275305
-20	-0.4562685776158091	-1.3896688187799366	-2.1598691885776162	-1.4194506370946374	-2.7798273493201116	-3.1043476980033398	-2.838790647968851	-0.5051127659442564	-1.0880501242823564	-2.4489641127744797	-3.199023477106958	-2.801472656806356	-0.6201839431363345	0.09590492373333102	-1.9320052813388915	-3.1044633310139123	-2.7444119384140433	-0.4160881031975254	0.2733209126247504	-1.3375682797040194	-3.046858303006885	-2.23186993035445	-0.4067855467062721	0.025536749447483072	-1.1980211704524601	-2.1978907529652636	-1.8379557086317027	-0.787140486637234	-0.8009642342372202	-1.1905076473696234	-1.0687999698357191	-0.6391869767263569	-0.35963448791303987	-0.1468505855667379
-16	-0.8352789857756447	-1.6452931124155532	-2.4664435324386003	-1.4876553974738895	-3.028786413175193	-3.396927586562132	-3.022517911909281	-0.7764049748845535	-1.27785813485813	-2.6919622353299135	-3.321177235801235	-2.6227815084995734	-0.9834585761035841	-0.005198782762425416	-2.2128586713234695	-3.0495529097810876	-2.599188798064144	-0.8379659631553354	0.11247593881104585	-1.7272264913819702	-3.052765123289213	-2.3153626860335437	-0.7843381146655496	-0.22689349892074792	-1.6192709166652128	-2.232780927742897	-2.046805138188637	-0.9693597530686542	-1.1338214845641337	-1.3082339730611625	-1.1453168363264925	-0.7772413472579301	-0.44474506265886493	-0.2604239874463592
-12	-1.0008370851043549	-1.7043995814206816	-2.172209972619335	-1.283341285326464	-2.7534694602112437	-3.1987752833667398	-2.5579967434196087	-1.0024791930637709	-1.3336598839466753	-2.5165059502962137	-3.002799264955892	-1.9767414281528233	-1.2274582355026504	0.08804341383401286	-2.2480795326694816	-2.6172552042685306	-2.0346546121725613	-1.2347021071732043	0.0682879461114068	-1.9249650191343763	-2.7285580566181333	-1.9853475043716347	-1.1645225257082397	-0.3547535529716735	-1.8660201979254707	-2.0306649156799486	-1.910454029981865	-1.0327583525332218	-1.3828093970672135	-1.299767610129352	-1.1065499754624555	-0.8529969432275543	-0.5326828347108608	-0.37423682118343876
-8	-0.8583744742656131	-1.4889917336063798	-1.4657602273173775	-0.95311081168817	-2.113213056951027	-2.564075225078456	-1.6183276135593792	-1.1796812981385343	-1.2380728690360316	-2.05467843490643	-2.3388056696016752	-1.0959680052743286	-1.34162664074724	0.27778798271616373	-2.118606085196688	-1.9542697618734992	-1.2321015565282196	-1.46509563552981	0.10592124584396753	-1.953447456196254	-2.1969935838543697	-1.3367547955141788	-1.3609770502061362	-0.37681358957521793	-1.956285352536135	-1.6910577969771325	-1.4684667550205053	-0.9408981180277504	-1.5559763869101604	-1.2254033057745624	-0.9695529317218834	-0.8960757828976909	-0.6341468079768751	-0.45447111015017816
-4	-0.5504662380625684	-1.0766552659508353	-0.7147778850628825	-0.7061566692643365	-1.4355565273280217	-1.7688499644443005	-0.6140169485802188	-1.326716896522188	-1.0644456121272914	-1.5628660877823528	-1.5909266431695757	-0.3299859455837204	-1.369495626806638	0.3646004488799637	-1.9524011562645085	-1.3088840213154416	-0.49164304013101984	-1.4505908452603398	0.14410078489161263	-1.8682706308879284	-1.6650623041075843	-0.6293842180574114	-1.2463922469141973	-0.34752100618359844	-1.9356653641467283	-1.3571394647666064	-0.8938681460700737	-0.7243154030632472	-1.6649678903504983	-1.1665362090222475	-0.7839368561979347	-0.929590997733117	-0.753449676518743	-0.4844896185086844
0	-0.3535816660537032	-0.6671656949365097	-0.2707937949019437	-0.6956152302345546	-1.0404288742500007	-1.1656926840915158	0.028722567411265255	-1.4527455531635298	-0.9361530518738065	-1.2784681287912212	-1.0531207296485599	0.03028772391182545	-1.3666908706491687	0.19254033218886255	-1.8436186267082255	-0.9026799775221301	-0.08159000405931342	-1.214130636964522	0.1112477925591303	-1.7121417479202996	-1.3137849536150796	-0.14233846926514926	-0.829597947887156	-0.31739604392979215	-1.837354536186016	-1.130735990530481	-0.3876931061493123	-0.45177298670194266	-1.7005734400729198	-1.1600495547570084	-0.5872145876363832	-0.9465755796375617	-0.8654190280045412	-0.4484903801085154
4	-0.4912367748732565	-0.47923448560836285	-0.30238404793688634	-0.937041399497296	-1.079723117009679	-1.0040789817255034	0.08622751363203171	-1.538533922125707	-0.9583816504123501	-1.3019754853755476	-0.9089304185807207	-0.1106935662216662	-1.364547368419168	-0.23502412379054752	-1.811224217610326	-0.8268020728217357	-0.11120244087515131	-0.8714016057901873	-0.009620144007653361	-1.5051143131402593	-1.2133989303471067	-0.026646312258917386	-0.2695061557641119	-0.3081288925974461	-1.674380655829663	-1.022609708111518	-0.07132379692666758	-0.19176121007664812	-1.6368564325967658	-1.1686425179540023	-0.37859448694964315	-0.9126948691212956	-0.9158576703790269	-0.32382869638700096
8	-0.9898951028626936	-0.6361882074506334	-0.7395867686672383	-1.3096985783888857	-1.4773205481423777	-1.3139914241040604	-0.3715490391410457	-1.5439662894368207	-1.1618914574852073	-1.5660122593442338	-1.155684825840416	-0.6267627461821635	-1.3601306642524627	-0.7360219936861567	-1.8160415841981998	-1.016011354742252	-0.4949878739734355	-0.5759611115219122	-0.1670517470195267	-1.2717770305949188	-1.3071451154131548	-0.2393871986782516	0.192593693246963	-0.31100147884049867	-1.4637693129776166	-0.9642850136252898	0.06268338843255233	0.01573645878335409	-1.4601097070069367	-1.1068952055641228	-0.1272340562707525	-0.7931122163775585	-0.8480199554013749	-0.09107039100780512
12	-1.6614682632459918	-1.1020667525123486	-1.3424806560954254	-1.6330221850173352	-1.9941648194509967	-1.9090093326054467	-1.0535308096035791	-1.4353183471681006	-1.4833532534341534	-1.8973782014626324	-1.6269122321061256	-1.2559680907010558	-1.3303353752880767	-1.041543242685908	-1.8116989090001188	-1.304265853449904	-1.015501258193552	-0.44478344805000336	-0.26747772030055955	-1.0697318288497848	-1.4625630341796978	-0.5856953844541837	0.35173419029123204	-0.3040455870104501	-1.252561923679321	-0.8681828357711533	0.12134201048971097	0.16546307462401683	-1.1987367838158267	-0.9054573155430721	0.19375662456707834	-0.5840018376864563	-0.6395200474805209	0.24538019237554598
16	-2.2142703477267656	-1.699994559764323	-1.8449025107534458	-1.7705702736974644	-2.3722588956066915	-2.500165217763007	-1.6260671574546337	-1.2170957296160325	-1.7974276497282888	-2.1264960712149756	-2.093181366404068	-1.7429510310990444	-1.2588185040163078	-0.9491363143799368	-1.7873269274408634	-1.524837609255929	-1.4426376783187496	-0.5074840771260135	-0.22816920222849357	-0.9832724904030652	-1.5558222492991602	-0.8382247665222967	0.14134165608960353	-0.27167445352627667	-1.1156058283296062	-0.6975702029736068	0.225048243431289	0.26983457735599514	-0.9297063923251108	-0.5742301330373604	0.5672434554083631	-0.32721131957410887	-0.3296355000756483	0.6363059266237676
20	-2.42285441740583	-2.2026929799734027	-2.083478445514869	-1.6997075037958094	-2.4716212687078762	-2.852401487778237	-1.8888958644860623	-0.94385301828503	-1.980306858784996	-2.1783506815271707	-2.3822898804599055	-1.9596229742165512	-1.1524730891694477	-0.44875502473064993	-1.7747276976600515	-1.5976399142936786	-1.6459271866250729	-0.7004471999603616	-0.02637449272768609	-1.0805736752884763	-1.540610667153728	-0.8666540958458138	-0.33208715831835983	-0.21378065591720305	-1.121406194716634	-0.5034297095939829	0.4162245084267495	0.333575992934123	-0.7536274175690144	-0.2235497230607743	0.9128872729141448	-0.10003715728298343	-0.019245067562747582	0.9835926865539902
24	-2.2509431782158407	-2.443520062953019	-2.051005358286065	-1.5112655124655492	-2.3286962450361344	-2.8986153529417096	-1.8546551419162618	-0.7009129506534606	-1.9719574401659394	-2.0985012001461296	-2.4561786589598777	-1.9458725403294537	-1.037429330113897	0.2493832999131991	-1.819763298208579	-1.5596761664113172	-1.643728728912728	-0.9063221789365795	0.2772155099068639	-1.3612573112451625	-1.4663543664149987	-0.7061325293832634	-0.8413814881062762	-0.14382903241560652	-1.2866157260835778	-0.40525141256059405	0.6189737900365151	0.3387225857765826	-0.7501245718136981	-0.025451486865992294	1.1046451302295328	0.012805539150987736	0.16002650518545708	1.1627566785065824
28	-1.8600200367696602	-2.39149927489161	-1.863671536508671	-1.3464062179904215	-2.113874668506363	-2.7564628054643063	-1.7006537871338743	-0.5687805995885947	-1.804880256864319	-2.0093827196887593	-2.4118390022419907	-1.8581881476217583	-0.9456369852986534	0.8082395771601358	-1.942265505655333	-1.5300189218038827	-1.5694708784532385	-1.0212105486835932	0.5567743764171558	-1.7332141355624096	-1.4412759506076491	-0.5277968035723789	-1.156175848902836	-0.07993946204268292	-1.5504882296516778	-0.524720548258643	0.6751989109158311	0.24805952545956347	-0.9348002648593997	-0.1284306344127586	1.0219434473939009	-0.044511400050793196	0.10005392853986476	1.0692480775540092
32	-1.5122499427761742	-2.1584520285470146	-1.6750167565971001	-1.3138358559815895	-2.0238704630298665	-2.6487932138324597	-1.638274188673814	-0.588626979295415	-1.5854960639978006	-2.031919712658592	-2.4160835681950195	-1.8685163212330724	-0.9015519000179592	0.9302994585391285	-2.116218561551593	-1.6369278389610267	-1.586971755789424	-1.010000464750409	0.6757330281363149	-2.0443572946431816	-1.5661090572871046	-0.5383334742305909	-1.1611856192835592	-0.03702802201697542	-1.792283888106449	-0.9082988477662751	0.43534344324824503	0.02803665392472817	-1.2406884400514617	-0.5673307762127385	0.6142100080241589	-0.2694985263695999	-0.22666144313806202	0.6737779361879733
36	-1.4289135896845764	-1.9386975716280863	-1.5962163169614574	-1.4365099632234417	-2.1745433752471106	-2.7777781416379073	-1.787716622607421	-0.7506191115501509	-1.441032048401844	-2.2202441636296517	-2.613964074210922	-2.070467466848988	-0.922696111256842	0.5077450262601813	-2.28360771556318	-1.9483830879610546	-1.7991788341873685	-0.9217337346647283	0.5515177832030409	-2.157178634919248	-1.8753552389480446	-0.8628433921010098	-0.9102031565573961	-0.023136852250692844	-1.886251564031923	-1.4815322123315733	-0.14377969467101825	-0.3217827967625735	-1.5351749619825152	-1.2179151742703356	-0.05396633954132034	-0.5908341988905197	-0.735363123944473	0.057432543341353504
40	-1.6853843884831559	-1.9155317496574606	-1.6661374526873283	-1.6532725054007784	-2.552295201533369	-3.222736827343108	-2.1265253967001314	-1.0121611331180618	-1.4569061957769267	-2.544066184296455	-3.0588316840191356	-2.438171857400116	-1.0290389034993386	-0.3213078073495576	-2.393482917464727	-2.440823787248767	-2.1967439596026805	-0.8592672922374495	0.20049898275775815	-2.0262224623067655	-2.316359752528829	-1.4738769494038184	-0.5902053102850824	-0.03755638738925288	-1.7652198031680653	-2.063448185479381	-0.952466127851907	-0.753166971689287	-1.665907855596233	-1.8264701320310623	-0.8043249825197507	-0.8801128246021169	-1.2411024539130262	-0.5962448105063454
44	-2.1932752077040893	-2.1816918794862645	-1.8736787987133245	-1.8695957613472294	-3.0446834487338115	-3.9137463470828515	-2.534700625695833	-1.3295154537966165	-1.6398637253366708	-2.9224677012091247	-3.6971685793038525	-2.8578591274586715	-1.246324297619325	-1.2398705451179188	-2.4401743350409344	-3.019497148519691	-2.673643820688053	-0.9234237051537783	-0.26144462757859377	-1.7325495437748417	-2.7773654390785247	-2.207644695430261	-0.4216959465824148	-0.06890955549961934	-1.4586564265616924	-2.4420206485128353	-1.764682288482838	-1.1795132130406922	-1.5211248359422438	-2.111709827813587	-1.4007624352375236	-0.9891371702016433	-1.5198981723558633	-1.0584005090694337
48	-2.764783613853943	-2.706593983492435	-2.1980750505264437	-2.019295210508459	-3.51798318928384	-4.683276164628501	-2.891592972130582	-1.677313919600944	-1.921095247186749	-3.279792538945272	-4.404878605211758	-3.2023084082815254	-1.5916494090902973	-1.9008904647517995	-2.4749903616406543	-3.570675364062304	-3.088504068206305	-1.1595542401601755	-0.6628981811953005	-1.4513561688973233	-3.1455876747821536	-2.8453338074371946	-0.5447465763643626	-0.09396208053946	-1.0840058299352675	-2.4757864412742645	-2.333740943738608	-1.5034421644399523	-1.0823184224459366	-1.8959350538069741	-1.6380611616739245	-0.8061904886872209	-1.4002889359406234	-1.1428210706467588
52	-3.2147931971446577	-3.360219708542018	-2.632168047935103	-2.100704664648623	-3.890377273274055	-5.35824822026689	-3.1537713924891526	-2.0481862970138853	-2.1986973230163276	-3.5866353421256467	-5.048134791026658	-3.4010248098336477	-2.047156805591924	-2.0835292286720897	-2.5825006896620635	-4.013565053343285	-3.3344814693186704	-1.5339659413709437	-0.8489866235279016	-1.368419405343291	-3.362699023339835	-3.2116367735839013	-0.9476100182450269	-0.08173605779038617	-0.7965437153732589	-2.1705391352212096	-2.4961960252681457	-1.6455661016879353	-0.4465088833026051	-1.2019646137408437	-1.4228504860240418	-0.3099899284165694	-0.8445706942215764	-0.7839151601072913
56	-3.4442987355056416	-3.973589410286255	-3.1713504711190863	-2.1697518770750035	-4.160102356897874	-5.839699253597241	-3.368478766519823	-2.4343092380098437	-2.3962523876725785	-3.8650612733532306	-5.537960992182543	-3.470653525172989	-2.5401184494736584	-1.7835159256728363	-2.8373320031055904	-4.329110134638896	-3.3846530828852366	-1.9462403009867892	-0.7530236225189642	-1.59334289625338	-3.453063240869866	-3.2455055631712426	-1.4710423909240364	-0.008647596441727976	-0.7280745487904505	-1.6945106940402532	-2.236266368941983	-1.5650360544745672	0.18950350534754604	-0.2691058807731334	-0.8139560798121764	0.39697661895660796	0.014302886986383951	-0.07171721738351426
60	-3.46505831797276	-4.406203735671059	-3.7756123447460594	-2.2969305457297384	-4.379446495443204	-6.129717334530055	-3.6210887340674685	-2.8019354272672237	-2.5021650727994618	-4.160440434442187	-5.854906067371103	-3.493369093658118	-2.9475061819045756	-1.2003874748440688	-3.2675366319174994	-4.555543411197333	-3.2926158821898737	-2.2644476833392155	-0.4336678076762275	-2.1172072833966307	-3.5118389040973264	-3.0084586067537376	-1.8790034008269563	0.11815343767376003	-0.945348141190801	-1.3191125359609428	-1.6776648717484952	-1.263401624350806	0.5826021418167296	0.5275371061357482	-0.0005981662528388283	1.0970200272519581	0.9039421058720625	0.776766715472782
64	-3.370160094335402	-4.594986427149995	-4.344662655351582	-2.52236532528142	-4.604671466645806	-6.303252681076784	-3.9647524256741664	-3.0848143022854453	-2.5737330848563187	-4.5046720391028705	-6.0415301170403035	-3.567209473186655	-3.137057773299173	-0.6330330355874142	-3.8434467218636126	-4.760062205694401	-3.1591148296704863	-2.3746116101393255	-0.0574043913226391	-2.8329513001442383	-3.6599428561312366	-2.6382741861490566	-1.9637691925059486	0.24602816936842445	-1.4417629205542344	-1.3074355092417673	-1.012764451330955	-0.774870989750487	0.5240233527304655	0.8261880853774545	0.7748201469886219	1.520946856473394	1.5095233879124526	1.5021600685340706
68	-3.280240289035694	-4.566187847053027	-4.7362494349110165	-2.832762472630067	-4.853249537612445	-6.447170241290819	-4.375372398773803	-3.209457150939258	-2.703122847408059	-4.890221583417538	-6.170379623093164	-3.749798526833328	-3.0321121139266842	-0.34229826840763056	-4.489567268480606	-5.001389490851709	-3.079254381034834	-2.2201700154517385	0.17069369511423638	-3.594603052600525	-3.984258641674112	-2.2763318958031076	-1.6338559347863484	0.28783839868352573	-2.1514246409457383	-1.79584633850639	-0.4101251055376385	-0.1532216068214046	-0.0748100651401976	0.4352526057698367	1.316115256801335	1.454459186696496	1.6023603637293924	1.9086562346906888
72	-3.294259063032893	-4.414438713372436	-4.829508292402611	-3.172790519333224	-5.099056231022605	-6.609672052861743	-4.764445292841537	-3.1383867184557297	-2.965119115972656	-5.273371206321027	-6.309820159240134	-4.030827035263814	-2.666730635585878	-0.4487467694873694	-5.113255964720885	-5.304219709355936	-3.103555671485564	-1.8240860654553555	0.09813648437518452	-4.2804093252830935	-4.493628490546769	-2.011110539127146	-0.9494029855599886	0.16143539507161708	-2.9717256947828803	-2.7247018745294804	0.04932878153982829	0.535341917116867	-1.1268864841620263	-0.57423257682779	1.5482943018923243	0.8435785153071502	1.1426857681034601	1.941613192424558
76	-3.462183943590369	-4.262206066814648	-4.601404178446048	-3.4798624427675366	-5.3033013209915545	-6.786289674791314	-5.039369570406698	-2.9075701163315766	-3.3738162432366936	-5.600664124653628	-6.5008683040519735	-4.344789970872501	-2.193996423904051	-0.906450328922523	-5.631916985597671	-5.652473435435907	-3.2266621508195255	-1.2913368907750271	-0.3026925913797871	-4.822106349214512	-5.107453333357362	-1.859234089925636	-0.0999851224282259	-0.15531222483046192	-3.777770032881481	-3.848475208102748	0.38213881753761836	1.215054985793365	-2.3700790345434695	-1.8804912519660832	1.5379441937717884	-0.14918349645619547	0.3110929421676756	1.7036102967165587
80	-3.7796358966768193	-4.214420784800284	-4.171019543607372	-3.7172832395161293	-5.452606664242524	-6.94184063112466	-5.165288912129798	-2.629170649566206	-3.869759549861144	-5.837333664461368	-6.748301965841814	-4.610822189133939	-1.8311359836122998	-1.5534845551369716	-5.986082061912962	-5.999081596487076	-3.40420412157794	-0.7807359079676436	-0.9166382528050346	-5.191553102737315	-5.682123169858119	-1.788005228296695	0.666117189632913	-0.5865799769850618	-4.4289135821103045	-4.823387610655369	0.6585243923727251	1.8043539478522812	-3.434303275020624	-3.0253283901126347	1.4506971799463504	-1.1755983799817284	-0.5514141903306828	1.4015490973372833
84	-4.197801102530233	-4.325285900639761	-3.774400463111546	-3.8860587975616916	-5.574037537806791	-7.046502095551578	-5.185776220580269	-2.4520163474164316	-4.341477383142827	-5.979896053475212	-7.023164254576565	-4.775199401243341	-1.7633146003072748	-2.1955327932239026	-6.140384181732128	-6.283263667455376	-3.581288567084214	-0.45309749131247495	-1.5276355704839113	-5.366217599671818	-6.062674983930278	-1.7522155002223825	1.135038969035242	-0.9644876694170146	-4.779485690447607	-5.334097371939193	0.9419923400937744	2.230409139723983	-3.9568998713727033	-3.581101408500092	1.4712361060190675	-1.8172268821612108	-1.0701860162418266	1.2541084257887587
88	-4.63707159778959	-4.588118064740578	-3.6662175562801895	-4.010587205297825	-5.714776978369427	-7.099495392994687	-5.192141519789052	-2.489805930527199	-4.669200408591041	-6.047244533529783	-7.2741040999818205	-4.837843405906957	-2.04820465524443	-2.6759757928043575	-6.081611141109031	-6.449768050122151	-3.719995012427984	-0.4088353206326002	-1.9030177545184621	-5.307883726070317	-6.140005096192313	-1.7265038446705379	1.2050921886536017	-1.0883995267091477	-4.707080829180216	-5.207943426334849	1.2468622891417092	2.4508747992625755	-3.7077147867052043	-3.3028457081375566	1.7233445600868396	-1.7456850961479888	-0.9791681145741944	1.401766058243718
92	-5.003099905733865	-4.946208464532288	-3.992090930396403	-4.108654011843442	-5.895953163519911	-7.120767098568422	-5.254280553903406	-2.758269779870755	-4.766093242056127	-6.0547599639612475	-7.438695888811871	-4.842348563366286	-2.576295846156611	-2.9063675330216245	-5.816885933494927	-6.460266096970646	-3.8069562815870897	-0.6406466348685762	-1.882142300622193	-4.9718518131613925	-5.886843666472598	-1.7112154917428286	0.9215548015215644	-0.8114786127583423	-4.152503956801092	-4.467598903820495	1.5390986165288834	2.4749283728102442	-2.6698284081763233	-2.2028689328843356	2.2273397389443788	-0.8532940723810094	-0.21536083465085387	1.8608387661682277
96	-5.207686887944384	-5.316792951511691	-4.70076369052429	-4.168083180394571	-6.0749010886357375	-7.1205935298432745	-5.3621277673762355	-3.16004537738237	-4.603531825840578	-5.991794571053814	-7.456391315708113	-4.837609278862871	-3.117368690249518	-2.8582603859262865	-5.37492989136735	-6.298976882289971	-3.8403911493615617	-1.027406570701641	-1.4327366315908177	-4.344481934069079	-5.362198339275471	-1.7118174986535402	0.4565204966463162	-0.11407097400236942	-3.1573269287503174	-3.3086516773611794	1.7724047854497296	2.3667523801176644	-1.0455989811247648	-0.5289323912617726	2.905447714145773	0.7017004472182449	1.0685250732147091	2.5340547497666774
100	-5.193853842019836	-5.619695649263781	-5.54637239963201	-4.149323452963907	-6.150856002536988	-7.076355916276985	-5.4213909965967275	-3.5293681532443535	-4.214808930246082	-5.824052795964626	-7.288720112518161	-4.841126429732897	-3.4331896218404525	-2.5404226715798237	-4.8106527207033905	-5.980296596687091	-3.815741290949065	-1.3808313573306916	-0.6556247456210128	-3.4857416064947584	-4.69139956243514	-1.7204307274297064	0.03663106253435414	0.8738085009447856	-1.8791323852779247	-2.025541777265149	1.9228123377891033	2.219953531382461	0.8097223619044696	1.3285075392560093	3.619417181413608	2.553008073083083	2.5688698226920836	3.260332576149555
104	-4.964835154396148	-5.799819454808768	-6.190087302791942	-4.012331475618128	-6.016024097512415	-6.937847596771949	-5.308529840418052	-3.7176628018931006	-3.6824262049209073	-5.521065698035747	-6.941881162283005	-4.824501502254119	-3.400961390491767	-1.9891351411189688	-4.20524310003952	-5.556695447243886	-3.7204611207489506	-1.5351391991957404	0.2586973302985427	-2.543740266099646	-4.031645764662382	-1.7113709406560105	-0.15500992497408556	1.9185270022591512	-0.5669726119031875	-0.9215640998461259	1.9999616095593469	2.113910908130295	2.498574727425836	2.9555246755366746	4.218684185821014	4.26220415946602	3.9411814113293806	3.8760661980996156
108	-4.5912499311877495	-5.83551548438173	-6.357690795105601	-3.7501790428846133	-5.626342282395193	-6.664333803517192	-4.9563622349534295	-3.6692447569713993	-3.1203739564315054	-5.092629419820569	-6.482489569509752	-4.735867488348259	-3.0761818808137096	-1.28076290760928	-3.656373014755362	-5.121957765998964	-3.547890892607988	-1.4335492813156336	1.0979090901311832	-1.7264785723012168	-3.537988415368585	-1.6608010488540605	-0.061511788361934376	2.7732775141315704	0.49749639504711923	-0.24047782956443692	2.0228075930069154	2.0702195115273487	3.685826053850312	4.011350144749024	4.573283660786332	5.463749394927283	4.902122962019082	4.256831158380953
112	-4.18947504893187	-5.734244808978234	-5.973897442040162	-3.4084541711582745	-5.05270289099071	-6.273111804382863	-4.419465530681522	-3.442456475149575	-2.6524310045032067	-4.613860118661181	-6.03506325151708	-4.548830974538255	-2.6585693292252577	-0.5431408868428124	-3.2633383191686995	-4.802110183035749	-3.325460187145402	-1.164926406780218	1.6916258292404078	-1.241458770478594	-3.338018408930712	-1.5840587575973157	0.21404486840566408	3.267313472128024	1.071984765207317	-0.13535411621729232	1.9732783983001165	2.031109327910272	4.1612348451457475	4.279409397764866	4.582784641139542	5.9588303415533	5.2872362003350935	4.326726902528213
116	-3.8738660714572215	-5.517950044051914	-5.196802126161563	-3.072905055870811	-4.469764698187586	-5.85668323945524	-3.865922441258771	-3.169371835336118	-2.3835959374329265	-4.212265957687805	-5.745160565176261	-4.29417895186576	-2.3825747906612125	0.057286951546276596	-3.1049096505928637	-4.71983860731573	-3.1238050381946936	-0.9249462461960768	1.9485955189144977	-1.2238056628800364	-3.5067725093042097	-1.5518748721042315	0.45114371066631526	3.3539342795570324	1.0182708476106928	-0.658260939843483	1.772801513964353	1.8792016458749787	3.8552908800063164	3.68489192985975	4.1778726472277645	5.73270891649554	5.059778200726265	4.049967278745763
120	-3.6990587617941975	-5.206311689583598	-4.327740658323994	-2.8253304887010766	-4.075256337367216	-5.546542153659901	-3.4972035796561274	-2.9684843942081782	-2.3650321900737894	-4.0113620656779485	-5.715324387425662	-4.0572986500346255	-2.3807561337444176	0.371567576185524	-3.2109906592361677	-4.938765990185844	-3.0399153155823977	-0.9089032388627717	1.869154686977005	-1.6809462266443855	-4.040353287986345	-1.6744816260976576	0.4147863675612398	3.0998923700269176	0.34061840090584455	-1.7540245011867481	1.2998751369082553	1.4864011965416923	2.824342720530353	2.2973256053143123	3.3271984970012425	4.907381999023626	4.285785187391102	3.4221374902155244
124	-3.618165960713642	-4.80466364601148	-3.64435695681756	-2.690005295637589	-3.977911223858717	-5.431329713460062	-3.4286472710828777	-2.8646027969515333	-2.5579771930961717	-4.0562271969428485	-5.935848697934565	-3.9267694850962362	-2.605460398771576	0.34841623814354217	-3.5380008131346674	-5.4056982857598825	-3.144259683299911	-1.197818276242157	1.537733550957684	-2.4766008791384193	-4.828951346603236	-2.0427014776155015	-0.028809338735323105	2.6321477823559305	-0.8104237893624154	-3.246543160824873	0.4550368476346354	0.7711476664147031	1.2311632602125344	0.33262637173595905	2.058046812583472	3.67409919764823	3.103758327277289	2.4749159750441625
128	-3.486364117403221	-4.301367272007523	-3.2518186487113336	-2.603779547793154	-4.115303982834954	-5.474446759707403	-3.596122017364146	-2.7694170405085043	-2.8197731900548293	-4.259125698780433	-6.246995910131171	-3.9185826679477165	-2.8547165321754684	0.08893606789307658	-3.9555265803605453	-5.9226689189151065	-3.4174945268178227	-1.7049548582900074	1.1003266545171693	-3.356985322106092	-5.645250783018841	-2.651616089801895	-0.8427265265168818	2.0798175282420077	-2.164762729901321	-4.830483901225831	-0.7590292076974355	-0.26624634794725366	-0.6648157222175283	-1.852617020697958	0.4814873921635726	2.247459644365383	1.7057460503427582	1.2931059566274943
132	-3.1165928761950803	-3.675520887631823	-3.0326969546997438	-2.4314861236218297	-4.2542080771803	-5.488159642668387	-3.7549054527847896	-2.5307271416665587	-2.9310667440798706	-4.404111851063304	-6.3673629599981725	-3.9310257335596113	-2.8833680080095023	-0.17031994419011592	-4.261089314192955	-6.180984004627669	-3.7254798318263673	-2.214725250374543	0.7272202354190418	-4.015887727135028	-6.1748847805524925	-3.363975039571965	-1.833389992853435	1.5362104138689392	-3.3898637209183455	-6.102350696415555	-2.1997685376895264	-1.5502564867933761	-2.525245183291117	-3.804226388863269	-1.2074497907670951	0.844006953492714	0.3193292609735563	0.019201235797206544
136	-2.3666179120393904	-2.912462703980967	-2.7259883811790644	-2.027011150964442	-4.087335576228321	-5.195325838323493	-3.582135906712202	-2.0302991815805305	-2.670539372377409	-4.222300518819696	-5.990902885570225	-3.7644657993640456	-2.5465760166723204	-0.15625145991929998	-4.229341973117104	-5.858911976327054	-3.8535675905209215	-2.503848307963669	0.5663498625761465	-4.18100212948915	-6.09631155382216	-3.939512719698462	-2.7513749529991247	1.0519461605215814	-4.16839312454662	-6.647418005372645	-3.617043247627487	-2.9714999123890413	-3.9794776339194597	-5.064761149016906	-2.7697458197282554	-0.3296464971325816	-0.823275921650371	-1.1712630957595809
140	-1.2278830974095367	-2.0215163179857614	-2.096509451341344	-1.3125632968188476	-3.3834052000453694	-4.361552227452495	-2.841518871762622	-1.2710963455533024	-1.9144834231677978	-3.508980265341116	-4.919156538941408	-3.21241878652138	-1.890406603808725	0.304788886731245	-3.684170952078367	-4.751208293363239	-3.596912613370451	-2.4750709471201873	0.6953350884048175	-3.6945531274977115	-5.191344248062549	-4.126712311816161	-3.422878495157501	0.6486824138476164	-4.2791147124018405	-6.1671037518245795	-4.745588290630846	-4.4351272471031615	-4.706299293079895	-5.301507459606924	-3.9924311537079222	-1.0983359785959868	-1.5321242770613235	-2.1183214134139594
144	0.13615754212335257	-1.0496740314684803	-1.0935366126107895	-0.33313524638944414	-2.114720100785723	-2.932925693736432	-1.5239694080023227	-0.39747947354098595	-0.7121531945368249	-2.2295949402784068	-3.1694707790461956	-2.1831307356075094	-1.133139607429625	1.1887586086777502	-2.5738451415882135	-2.8750467227827086	-2.8697521614099677	-2.2173826638504996	1.0894683571965613	-2.5674881870296784	-3.444973936919953	-3.78459357259814	-3.837187518922262	0.33280473863499904	-3.662329426102018	-4.599375713180173	-5.418877587942184	-5.889860138327775	-4.532549846649673	-4.42207335309315	-4.761246669192387	-1.3585185970339375	-1.7122743086499455	-2.73148082997196
148	1.4293665849837256	-0.0849837658643856	0.0997010466919436	0.7459208350422375	-0.4916164266571948	-1.1013541193812133	0.11218793661879889	0.36993595864356194	0.706869898441918	-0.5575821981657572	-1.0009810899257685	-0.7866981009648281	-0.5458880649135742	2.266661638259163	-1.0120389435965806	-0.49655106538336824	-1.7766101315465952	-1.954751605820647	1.6194609362722772	-0.9837630962329728	-1.0834794017139404	-2.97202610219179	-4.145071972872102	0.09397250390168876	-2.4435968337352962	-2.1706049387488755	-5.644292340333272	-7.323915939913431	-3.504955998154621	-2.6203818255069744	-5.098353849890345	-1.122152444867338	-1.3990135157549397	-3.0207691116359863
152	2.331125491932467	0.7567019443480562	1.1543269128265714	1.701850529188653	1.119928714785672	0.7508984189148632	1.6346930224154603	0.8452467897055566	2.0087637850589743	1.1821073263840571	1.167670723828038	0.6762213689897266	-0.30624878329204275	3.2021341243006423	0.7430621962860271	1.9486495207225278	-0.5924434050861028	-1.913649792608074	2.0916821903824623	0.7549909334194537	1.4821488819848625	-1.9444245050929363	-4.562929618759251	-0.10181600574774963	-0.8965085126176676	0.6625428779086915	-5.592068658061559	-8.73110673607375	-1.8870263052027576	-0.3157259217874024	-5.137707220457491	-0.5275410400422934	-0.746946809790166	-3.0807030123177976
156	2.6364319257929902	1.3608617748234317	1.7736524298710181	2.34956430795647	2.358048671490957	2.210013384007655	2.627200358433485	0.9709334348960408	2.88659095035366	2.6417896680890336	2.9191324637144938	1.8330901814909717	-0.40782895581275336	3.709974756410802	2.3717064797603076	4.01330517709272	0.34818711788960405	-2.1849279348522397	2.321547025541245	2.328727954707075	3.793013801535011	-1.0528479787947562	-5.236433492791239	-0.30906611602952805	0.6494957192235232	3.3674495135164397	-5.503221021109365	-10.072767232259137	-0.0675762517534243	1.9980260083297978	-5.049130903847629	0.20505973644936074	0.029909847228709863	-3.034334890334036
160	2.3588917195845323	1.6501818853676877	1.8570425463520677	2.6211180620773815	3.0223214550005975	3.01502250863841	2.8775587009257806	0.8436090328851982	3.1904268184219973	3.5923926739592553	4.003440846825877	2.4063112674994773	-0.6735426170509943	3.68894719146145	3.6093249229857194	5.405788884819713	0.8017444590353602	-2.667722933709593	2.210523122928487	3.509083739004185	5.50480125944766	-0.5854076132299346	-6.14630459187343	-0.5791606292407324	1.9267468403807932	5.524019704223357	-5.56039093521063	-11.26219269770095	1.588309403224096	3.931547870246525	-4.947595106984841	0.8649527408696406	0.7456169705639397	-2.96484994139753
164	1.7354584888511155	1.613812680938332	1.5460289677687102	2.584685557515434	3.144807092356146	3.1670591751246717	2.4660289225305894	0.6486476643398001	2.984879247758704	4.005105485340962	4.425233829769741	2.342574590490597	-0.8691237546912021	3.2600259698576046	4.342413891319174	6.085363372697458	0.7284209709850105	-3.132787219721088	1.7940452053551148	4.232076634212494	6.499957545082105	-0.6315060838014134	-7.107315522369474	-0.9224917269304233	2.820755951435405	6.959492665839615	-5.792653069176226	-12.182229964970364	2.8751814292795608	5.323472486406936	-4.837732779686534	1.342980619854539	1.3134192195156613	-2.8732101844725264
168	1.12254142477816	1.314526196975635	1.1246489258028074	2.3935012756952716	2.939739935128529	2.902980558695459	1.7094391541237173	0.5444334135615034	2.503000253079946	4.032153596234585	4.407176006634181	1.833796973366934	-0.8488005378273826	2.6869151524416552	4.63502501271175	6.238976462824759	0.30325579566684785	-3.3661417876133695	1.2303314177921494	4.598713386369101	6.895966035598392	-1.044888970597993	-7.864300707988788	-1.282793876270229	3.3921618375965035	7.766578177870523	-6.067096218049975	-12.728035894683646	3.802659978802527	6.251539214563061	-4.625463950876758	1.6727410512653214	1.763704057055254	-2.687060110937383
172	0.8233736732675558	0.8647622444254194	0.8377238490888691	2.195549244105819	2.6673715047248847	2.548524611714398	0.9914528106453209	0.5651925787961094	2.0241694399273054	3.902739753406417	4.251290787453779	1.2145059078070803	-0.6451561434669625	2.2322509232428924	4.674402701973903	6.1566219174394226	-0.1786148543616629	-3.3075051224171745	0.7350649219074146	4.802868354115378	6.951331597897573	-1.5218454560957588	-8.227377870768395	-1.5453256329621363	3.8197419546962887	8.205010393407875	-6.1664275967359545	-12.848687139496219	4.547119129144628	6.936686498294655	-4.186548699299365	1.9981198260404374	2.203791612783129	-2.3127176703236687
176	0.9284679866237392	0.38017558955528563	0.7398336511052747	2.054787392196804	2.489684337052164	2.33180832274129	0.5706838951007571	0.5987926706454815	1.7391251281698612	3.79201601978399	4.171250809628516	0.7879073003903334	-0.44977760201383477	2.0348107763414784	4.6618218304236345	6.070976718833634	-0.4549214828449639	-3.0908477228329563	0.4917761969071119	5.019751059256278	6.9183735672801	-1.7583228305292284	-8.166774729136735	-1.5847210844083877	4.291426170958403	8.54100606669287	-5.913032039972152	-12.568099943854536	5.326017366313841	7.5942463683080605	-3.4556190880313817	2.47800230354284	2.738003723861131	-1.7040312247168998
180	1.2569528786395483	-0.06937435251840433	0.6686815006539656	1.9291003893784522	2.3997721611469682	2.2633242549973254	0.4667375970023717	0.4611764240542236	1.6744573074026508	3.73640250216317	4.187325943865274	0.6734395606204377	-0.48922476048929825	2.0671176858210685	4.707275378740272	6.047799095143373	-0.4290164698259562	-2.9552264138949718	0.5771851525039292	5.314340101176087	6.922148687052063	-1.606557722803878	-7.813171843829545	-1.3315337862729049	4.902309882184625	8.913334823992574	-5.270349012419966	-11.9734363253608	6.268854125408017	8.316944101316189	-2.4804401335079986	3.1845967689219465	3.396789303786602	-0.9039506889408885
184	1.438226219360771	-0.48548501607392025	0.3609778275912736	1.7162128643574697	2.2606732788229884	2.1535696928964994	0.49124908323237154	0.016345305327036323	1.712381477800981	3.641397228584066	4.142465104134787	0.768286762681997	-0.8795979000772024	2.1903426591885444	4.78746222240989	5.985398754266983	-0.2009379858665817	-3.0866699140819076	0.9363951063356282	5.620938763732078	6.928207856806052	-1.1393647165142498	-7.368445854656961	-0.8174645880087321	5.61514948380895	9.293562865635131	-4.362168301059338	-11.176830263529263	7.356351357006832	9.04922769169147	-1.4078845942237534	4.05669735837965	4.11664580259475	-0.032557133503015756
188	1.1036820383816837	-0.9294223165888285	-0.36202612427861414	1.3348458971654216	1.9180555295201682	1.7516914561868402	0.390617876258734	-0.7321815472236849	1.684213991681301	3.36724137409741	3.8225026034167358	0.8340442755622399	-1.5488134583470072	2.2605020942836256	4.784037577948322	5.712252125623116	0.013531139086296714	-3.492908468964457	1.4161149227628493	5.801429733887955	6.8043594188558005	-0.5918667897540015	-6.987127763273505	-0.17058409707393235	6.299965842553588	9.546793913579767	-3.4041209134940438	-10.276477787775091	8.453899362200877	9.653447126811471	-0.4122167517268156	4.933702456415669	4.777963149405308	0.7692140321384267
192	0.08818083234219558	-1.4798372946570195	-1.4628725014945902	0.7870659212268083	1.3113092150959398	0.9160868502376096	-0.000754622100344176	-1.6289683539271063	1.4766492806346119	2.833703510759405	3.103516094001533	0.6432968957871779	-2.2702882232567205	2.2079644147440294	4.57384012974855	5.115642534691666	0.014095724524732093	-3.9919512171094023	1.8356755925562216	5.744297489922092	6.4285020665943	-0.2224234783994256	-6.702965719465799	0.4428202498699929	6.823719007429969	9.542464232194215	-2.5916345054043837	-9.335407233510441	9.410346007430125	10.016982053261797	0.39223086734925083	5.651897416150253	5.277836309459168	1.4087043965059243
196	-1.4650931321347356	-2.1783199255305443	-2.6929604939180916	0.1632644828012215	0.5153132664067838	-0.2813885800886649	-0.6742256862783956	-2.4479505953972778	1.0893733473930294	2.080736870280702	2.0419511743489633	0.10892375531114126	-2.7945215631502	2.054467196045879	4.116809834576758	4.225416649640686	-0.27131977608843616	-4.326045979068018	2.0624792523763587	5.44535492475888	5.7765011641571915	-0.16922898547838516	-6.4416494206870825	0.9007627345231255	7.134723645316632	9.244438148046756	-2.0062103220832435	-8.383757570080606	10.155048344722296	10.130343411618165	1.0033832763134414	6.141625865688954	5.592370972819097	1.883717055333183
200	-3.1535627762329654	-2.9938895626773614	-3.732619991415274	-0.4135864664602959	-0.31089925687496694	-1.582417245684346	-1.4754171334209258	-3.0156171245731884	0.6155699475959208	1.2474762169813458	0.8520808198396695	-0.680854020783908	-2.9960622711832285	1.8628754568750607	3.486532917756799	3.20080446388835	-0.76216923998092	-4.328085411588504	2.054937595901259	5.019650446616152	4.93556307500228	-0.3893530358974712	-6.104720577085842	1.1827601164519892	7.288915138915374	8.724921204473157	-1.5964865644201867	-7.439703922561768	10.729795428842488	10.086881612106314	1.5161117277014218	6.4634990528951	5.788857922243669	2.272699111922509
204	-4.499813068473048	-3.826880683773724	-4.37802504387819	-0.8660855867453815	-1.0278617117679967	-2.680630677130984	-2.2182726804040387	-3.3068103706794267	0.16812436240187414	0.4871922719099114	-0.211308821502286	-1.528749223664083	-2.950581543148642	1.6677213865135905	2.82550954105353	2.2345871868936102	-1.292025920466891	-4.0371050732728655	1.8609201861127853	4.633575427754471	4.043212880416869	-0.705807147628256	-5.663597092634386	1.3692442144156103	7.4020585826909935	8.103636721178468	-1.2359595267562111	-6.529350264276694	11.239381761784422	10.011243794914469	2.0513460584347407	6.763224107832948	5.981859668887735	2.6806204251321084
208	-5.17678688649652	-4.550789821579208	-4.6531681896984125	-1.2103903263050202	-1.5992805917416235	-3.384331217804262	-2.8036613393569825	-3.449763050906274	-0.19364567052110906	-0.12271563677799475	-0.9896699165153007	-2.248363250777896	-2.8879101203484985	1.4450017177338625	2.2575156631693396	1.4406754934176977	-1.7185724930288804	-3.680039634950126	1.5828351934524558	4.399706352569788	3.199989072349881	-0.927622315925801	-5.193692671060771	1.584551807217653	7.5618352699096665	7.462443332904747	-0.8170930722587851	-5.690343842444786	11.758292168494318	9.968828176125074	2.67471527377983	7.1727800188167405	6.260867103028279	3.1746909538224446
212	-5.153359400135991	-5.067398058495113	-4.773195254672474	-1.538587327887291	-2.097109789322006	-3.703838339037379	-3.2608258641884706	-3.6366667655680547	-0.4879074978430879	-0.6148104056094655	-1.4916790686139383	-2.7578790118205943	-3.0475900096243005	1.1356028289733937	1.8158119871071048	0.7985236028537642	-2.004933113758221	-3.528078070316092	1.326717373359345	4.3032216917110935	2.4162285266907473	-0.9692448353138173	-4.8272609588816735	1.915603990486746	7.759174327333796	6.795285684595262	-0.3264648310048266	-4.961052882066831	12.257851569698872	9.915793393849306	3.350762597207252	7.717595557754935	6.629884703109783	3.74352311142864
216	-4.68735216864653	-5.345026002740458	-4.981175886929355	-1.9460568378906338	-2.626013033912557	-3.811528434666977	-3.683474054573413	-4.000479688080912	-0.7764783482020867	-1.0872718068328444	-1.8548817587751256	-3.0866191309246873	-3.529917231230638	0.7076107841746057	1.435565229606137	0.19274167667840547	-2.216745847827327	-3.72330879225055	1.1629048556531199	4.210085858206004	1.6317510563660644	-0.891064224377629	-4.659902560866713	2.354952329411983	7.886870841141032	6.030828937562927	0.14957871995354205	-4.362266052676523	12.606540648103184	9.72589204240005	3.9609813590180383	8.288911798530517	6.996703130223207	4.302730072602227
220	-4.171234120328021	-5.41926764073661	-5.370211587698844	-2.451126092444314	-3.2194180407303934	-3.907314290672089	-4.1193313494629695	-4.525124538440881	-1.1032392950814098	-1.6114132363643119	-2.2283518258101096	-3.311225167497504	-4.224272240463888	0.20531032927652498	1.0156645749198243	-0.48108580587041233	-2.4502627787715667	-4.179490078864306	1.111171958025249	3.9548346896457396	0.7930934409145016	-0.8429411628421761	-4.67164133799772	2.8032510209833847	7.808877925230767	5.111584650485603	0.48666375752602237	-3.88450812312713	12.647351233022121	9.277886367261624	4.373207558081027	8.698677994700548	7.2188510712516925	4.741470324943001
224	-3.9208018680763908	-5.360487447556158	-5.80889414274362	-2.9630358144337268	-3.7811431789300936	-4.077139844137363	-4.493195045571056	-5.049615847236297	-1.4531737529305153	-2.1536600535377506	-2.6522228650841764	-3.4689047248996943	-4.866740214458267	-0.26179075174993055	0.512070952553123	-1.2126767604728315	-2.740060560937847	-4.627944934604625	1.146595952000143	3.4605722339997116	-0.06358634664455558	-0.9475171542087013	-4.7226796030971325	3.130122653687776	7.461891155476942	4.077264775472497	0.6129169448636663	-3.4897758872615507	12.307899444023198	8.551452615128408	4.522267807033299	8.788918472988337	7.1834945497345135	4.984049307637433
228	-4.023037423467074	-5.227340208207264	-6.020253166257842	-3.3224048530619292	-4.116761197186744	-4.232777584833284	-4.6188468816490795	-5.364629255101853	-1.758861418098059	-2.565835469443519	-3.0106084270760682	-3.506270876615046	-5.194448457954614	-0.5810013994806833	0.0017156717324153716	-1.8435114575571898	-3.0069992466347415	-4.783593165717998	1.221159455077269	2.8173839974796846	-0.78171056311655	-1.1976790397923132	-4.633318412526849	3.255064717657606	6.924828511874399	3.0959734838521196	0.5729344472725042	-3.1266167084909395	11.6734590235669	7.672562102973614	4.454451549727712	8.52880189649663	6.8755469148613715	5.030771719628845
232	-4.324600208807997	-5.040061461121503	-5.7710323188035675	-3.3959741506667123	-4.044376363079947	-4.174819458911498	-4.308408726304931	-5.344113813259119	-1.951941842873029	-2.6588559083566143	-3.09430169277968	-3.308692685356681	-5.105531202777497	-0.7066634279529375	-0.33132290756497934	-2.1340572780135125	-3.086583844975069	-4.525599468249252	1.289209004961918	2.2650167884860943	-1.1360793085025251	-1.4346388542193769	-4.295924652697534	3.20022129204534	6.408592684778111	2.4156484542892573	0.5256839977343599	-2.748105757450738	10.974978419251292	6.879026872433152	4.312571514685534	8.045191744519386	6.399472697313343	4.960168825977754
236	-4.554129112189673	-4.790451514547119	-5.045359598772922	-3.1669206539305637	-3.5183241278510944	-3.738711586095939	-3.5135102183326086	-5.029230581937423	-2.016793245945684	-2.3188822210893547	-2.7372944285900944	-2.7888073850792994	-4.724689948551041	-0.6862303597290743	-0.28717967795345356	-1.8973036956568512	-2.8235790658234188	-3.974925269581588	1.3279778923838725	2.0819096512683415	-0.9446024870865435	-1.4264738523707898	-3.745921840746924	3.0830259245281195	6.164538844757081	2.2576260509711847	0.6720739586074366	-2.3260059297963447	10.492352459166096	6.422410948750791	4.270087708182688	7.568073730434687	5.941773876447438	4.892840849920934
240	-4.499668586814478	-4.478391159194858	-4.08639668386619	-2.760156624501001	-2.6843111447272823	-2.9285643026799386	-2.400825732845358	-4.61039637355274	-2.0052454420960553	-1.5939459760476948	-1.9420500944696586	-1.9717608640479665	-4.332400787859347	-0.6188656672111655	0.229989706889272	-1.1204622955643542	-2.1722137873165908	-3.4186599168295286	1.3483033146195431	2.435859912444405	-0.17723140075759658	-0.9981949900220668	-3.1428689877315223	3.05287050430091	6.357272608918912	2.7102820804832453	1.1552654475608353	-1.8541810465729154	10.422901127249158	6.457909090903599	4.451419342246354	7.318965416549465	5.69135712140341	4.936574923449433
244	-4.133432377869751	-4.147155274411031	-3.2773160851703964	-2.383954995812147	-1.82808494106324	-1.9512075136512503	-1.3040045466878685	-4.326583374543956	-1.9991295287203834	-0.69618880572978	-0.913236198503779	-1.015368935882485	-4.204284180516795	-0.5743615612787583	1.134979841227774	3.47676867963718e-05	-1.235032674532294	-3.129979364122098	1.3929157221912336	3.2829413331115163	1.004119393674559	-0.13325843181344188	-2.6674156121619075	3.2124409594491805	6.976194364100669	3.682858934640884	1.991719360091326	-1.340017076923789	10.790876361305461	6.98205469276019	4.885102259699994	7.409550171264608	5.762493595833182	5.146254526496702
248	-3.6169719604725157	-3.8893742463143073	-2.9298336431918703	-2.219797128794965	-1.2421084611050055	-1.128654000293733	-0.5737215862094207	-4.33455656864614	-2.047115797596422	0.08564119019343712	0.021524833460941466	-0.1526126410684331	-4.449594486446518	-0.5278816209816801	2.174497837298617	1.1309171886501408	-0.22343940976473478	-3.193502179666064	1.5212806424832932	4.371341694285689	2.298159593501904	1.0056958173155985	-2.4000246464215995	3.567590704493676	7.834037284145518	4.940523611946543	3.065062753568223	-0.7950943688345596	11.444203347876183	7.84359357760894	5.506974206372106	7.800158957815037	6.152635558806908	5.511014924440517
252	-3.194080583137504	-3.812530746370989	-3.112307063827971	-2.3241660536260635	-1.0845255824363966	-0.7402345519450217	-0.41240256920643376	-4.622243392718385	-2.1265520995809233	0.5176835643095823	0.5597740397625487	0.4065590490566975	-4.942112433353665	-0.37055593635462786	3.0297052783767304	1.9430171202240532	0.6333513243897112	-3.4491779717146365	1.7786103442109176	5.350557313761649	3.382894269031645	2.1477167552129126	-2.263825172430753	4.0295457738229565	8.65272233685759	6.197431548684044	4.181752671174267	-0.2333799147674084	12.134661643862437	8.813051201504068	6.202468856410584	8.331303575462062	6.7485699483240476	5.967165931894804
256	-3.0471427363710353	-3.980424155676103	-3.6234652904579527	-2.60194801627312	-1.3115025725631029	-0.8834121801006839	-0.7818164805700485	-5.0198802821258255	-2.1563961451446123	0.5242183195230335	0.5617859945418623	0.5626447186569733	-5.387264714944607	0.00858275869556952	3.457463494154655	2.2488868179762815	1.182739970082106	-3.594747534259096	2.1665873472825785	5.932203277869307	4.0430512326206465	3.040226928664497	-2.0701131768413377	4.469510067145747	9.194101310405289	7.222180348281861	5.159941183414051	0.32583731330621557	12.63897225049933	9.675055479418049	6.863171560125771	8.80954072635424	7.377227287740259	6.428213580114315
260	-3.2072060027210645	-4.366739738883489	-4.128231991835517	-2.8691337036173397	-1.7201282934628797	-1.4355248176570814	-1.4337898456613396	-5.304354654271366	-2.0601212926349977	0.20674274809615065	0.10092954312114633	0.3588437428951236	-5.492786393602751	0.6165443643262487	3.3960177812665777	2.064527029547092	1.3966420853638934	-3.3805253420356727	2.6275603704870196	6.016405567238015	4.239373673226054	3.55718969400663	-1.640450831086226	4.789003836938469	9.363815283975827	7.901781539040398	5.899935230618011	0.8552925565106378	12.852643934224998	10.29522893213693	7.4241637996151635	9.095776534957736	7.872939089924985	6.814271432838343
264	-3.562968006675147	-4.853518473768993	-4.364968288845237	-2.9647562428961796	-2.0722598977221485	-2.1356477683506836	-2.049479717802246	-5.3273787363970735	-1.8363722516425975	-0.22618859949225265	-0.5968739375303612	-0.059199422448420955	-5.137306200408455	1.2983213630321733	2.9809706135827816	1.5687243898839562	1.3520778383450596	-2.7711384226452718	3.0534846705591248	5.718826756343821	4.0892338649503355	3.732029905433487	-0.9323633885685552	4.963903414591372	9.233947730592773	8.240274408516596	6.401370509198201	1.3209462132481833	12.808492628184126	10.635304424137207	7.865639189888484	9.14836213663161	8.129571894147656	7.069027406011064
268	-3.9550650019925704	-5.281821714417368	-4.2944955717380076	-2.8463292050024305	-2.22763513956314	-2.733385317577015	-2.403004163397109	-5.093208776966323	-1.5827586610887574	-0.5768358692864273	-1.2833486763023976	-0.5255010710800061	-4.44179676841811	1.7801922514792625	2.4647052225827597	0.9914758776427907	1.1665616006008577	-1.9749592492785388	3.3237597858435426	5.28991268729733	3.77842806815814	3.707700720009073	-0.08677431919124	5.041432367947876	8.979397751071875	8.307800271993571	6.728610498606374	1.6884981351183608	12.621093718134802	10.723373386012023	8.187859514544927	9.010050750872415	8.12054536676566	7.163297158275498
272	-4.27950095049901	-5.528592095721822	-4.103623379837101	-2.6118116312842274	-2.2099120561117926	-3.117416135546639	-2.4593708453074092	-4.74622009986387	-1.4531476460961694	-0.7567270975080879	-1.8122355892203212	-0.9262514090994283	-3.705353965940901	1.7960740282488572	2.0837988800843728	0.49516063803588084	0.931768951447711	-1.3190172877388322	3.3542766486357576	4.972210394703455	3.4547796162164848	3.636684408542864	0.638907609757	5.09460447932486	8.766368843833844	8.17509267650343	6.947003823860648	1.9332284878558836	12.396124808485508	10.604923221516158	8.381156900226332	8.756285645311937	7.885001162648438	7.09072969553757
276	-4.533946979519681	-5.5690831997455685	-4.065299023854759	-2.437452310130204	-2.1730451528998187	-3.353223076937368	-2.3634402692251477	-4.475940216207882	-1.569085594030383	-0.8153984526074545	-2.1918790285083958	-1.2337720362984772	-3.2400782026502775	1.2364340989367146	1.9434014509725945	0.11076519610334418	0.6789135319734997	-1.050234672755822	3.139695636451693	4.873152720545593	3.1614069858841813	3.5923199562928128	1.0090787385259294	5.16857622749015	8.657076813775307	7.87335155406579	7.07339952590359	2.048481220795489	12.16144272594814	10.307494137489263	8.415031411859557	8.4421081329826	7.495384197384568	6.864142400577421
280	-4.784333216985662	-5.486617074465495	-4.348919857489271	-2.4704360899541546	-2.292378658229024	-3.6130118278836374	-2.332767957519751	-4.403171051352544	-1.9425450514386238	-0.8883678890687322	-2.543021195666891	-1.487098690093093	-3.2054455199374234	0.2316073322409084	1.9800529429988938	-0.2432583415327052	0.3901608278437502	-1.189096924640641	2.763969891245524	4.92203711220684	2.841329328992715	3.5402266889835396	0.9407088732810663	5.252542005628987	8.584483124993744	7.397982101835806	7.068518620764546	2.0455803819508844	11.86070916042324	9.837146734196795	8.253581026219816	8.081451395611921	7.026581746480778	6.515171034576165
284	-5.078273283534793	-5.420947061203561	-4.906074034701977	-2.74149345659463	-2.651361697178636	-4.048769463807381	-2.5255303319110025	-4.5171866302883155	-2.4610307154509234	-1.104290244175436	-2.9984946175210814	-1.7430421069960313	-3.5351452738199773	-0.8897181726880647	2.0126938769069618	-0.683228371802541	0.039159823110178266	-1.5272654256407907	2.366890186056037	4.924753176653107	2.4004867016267317	3.3798577700158736	0.5456660376123464	5.2892932758303886	8.403443315270161	6.743504507205245	6.871074659165876	1.9460402677994282	11.405673951916333	9.20030496181785	7.885055522084336	7.662556628908299	6.537296755498086	6.092601760740706
288	-5.3790821893305	-5.486747727846512	-5.502577290947416	-3.1494047562239325	-3.191445342589348	-4.688211429203443	-2.9620034619888234	-4.699652659948483	-2.9457628652585868	-1.5072870216461263	-3.6088266281566552	-2.034541363347774	-3.99094890540539	-1.7419488386043214	1.8505660248764149	-1.272961136465037	-0.3730902364371118	-1.765937443089349	2.0861718601961794	4.6834068180095185	1.7895154907822006	3.024176589959903	0.0652932225009372	5.219542967016013	7.988221625186903	5.945866569765962	6.451639159126216	1.7754635766025904	10.754006358651967	8.434802987737372	7.347828369662628	7.186191063857344	6.069839462214191	5.6586737489883685
292	-5.571032986880539	-5.708462700736443	-5.8655056805340395	-3.5215678126115817	-3.7474348450460826	-5.412580953284009	-3.527491560612983	-4.814928519490203	-3.2475392736458444	-2.033811325660408	-4.306443680380937	-2.3502111375599397	-4.3073434720961945	-2.0550792165368876	1.4003161156585724	-1.9752097079952526	-0.8049440363588249	-1.7045369105218975	2.000318283752782	4.1148733988821835	1.056773779108331	2.4690415796885103	-0.2637632780568248	5.028698431670212	7.319551926252574	5.103543745507125	5.851222023496128	1.5603605469409005	9.961616490962617	7.626687984284503	6.732923490691432	6.693764192847184	5.658840165156161	5.27850817301338
296	-5.539290891013414	-6.011102661215026	-5.847999081151969	-3.7124822046008825	-4.143402565985447	-6.026510700269142	-4.049946774748012	-4.803380954059152	-3.3232796108264444	-2.55246185611974	-4.945232855709067	-2.645535462375841	-4.337397564427542	-1.7846068098787613	0.7152175885262804	-2.66528271955865	-1.1898065775395452	-1.358972188379533	2.097639555403432	3.301848164805114	0.34289109620306985	1.8124810411468868	-0.3271507910574923	4.7639512895468865	6.508696062821272	4.362103451205986	5.18133638981145	1.3316023316142236	9.173351264681312	6.898774606453118	6.159046157545607	6.2617516359545125	5.336938844557752	5.005098807096006
300	-5.266972051674098	-6.2700867494588595	-5.506041989730172	-3.6790122892953714	-4.288471687933636	-6.371027453549711	-4.390762318015954	-4.7230725169145	-3.245753041655725	-2.9356017038615114	-5.382370458365167	-2.8615932392351326	-4.122644890866957	-1.1079243393582165	-0.03177478901470129	-3.1894934096871714	-1.4586443864234782	-0.9432073211698084	2.2880072535922333	2.4560449061373397	-0.17557528570669365	1.221369382635638	-0.1742587681185411	4.513838279771867	5.748366818219923	3.87030362105728	4.587445247512052	1.1263152332479411	8.556506135318285	6.373955233693687	5.729824528532851	5.96528671665907	5.129222380085847	4.8621067878037065
304	-4.880233275489875	-6.388117774093721	-5.045972334519666	-3.4923384101432644	-4.218752373534465	-6.410889132526219	-4.495503414248089	-4.711991298222994	-3.1421728054823035	-3.121172420250901	-5.551918015767911	-2.9408080503602076	-3.852325429726938	-0.3192178002881077	-0.6329410656207579	-3.4342553528863458	-1.5568857153685578	-0.7259365301877553	2.450872176658212	1.8159272624898093	-0.3639204492917605	0.8635560252321451	0.03783867126090613	4.3598890194488815	5.217246996105061	3.7257375623097255	4.194227684875681	0.9857439373877922	8.212160089739921	6.128402217651051	5.495765672159682	5.830917820513943	5.0395912996847025	4.836189257809327
308	-4.599405277083907	-6.352164252455979	-4.686196315377964	-3.285080424597815	-4.065475930440006	-6.248600467164474	-4.396437633858558	-4.88803623872701	-3.106879226469849	-3.131445876798449	-5.491753087483533	-2.8491856979914343	-3.7348964120027883	0.31189599554470687	-0.9397817230339259	-3.3730106268599434	-1.4612009488407294	-0.8511590340105454	2.492547982598523	1.535761710104203	-0.19121336888673948	0.8335130193646981	0.15856531222363873	4.329749096429274	4.9913987987382615	3.932329883184004	4.053937901752096	0.9420366263447307	8.115091303363902	6.155270084099329	5.43528841553747	5.809432968731029	5.037342535652294	4.879838454323879
312	-4.619844901818679	-6.2365894160168205	-4.5288004760841885	-3.17098282967104	-3.9744815726070004	-6.062091335250111	-4.174365509938035	-5.2523650990437405	-3.1466987053579616	-3.046891204770718	-5.315151678017299	-2.595970624091556	-3.865707626119543	0.6390098317225317	-0.9231175160943401	-3.0725335997255083	-1.1925009458951694	-1.2453814713506481	2.3839733540426913	1.6187368590493738	0.2529581182769	1.1094496222141677	0.1323138919112322	4.378000725183183	5.007653223746051	4.389468658809014	4.126475800586289	0.9993048285049825	8.117281893263158	6.358141883056121	5.465162263423472	5.787657246282346	5.056426989186874	4.92606686302064
316	-4.9934301250270785	-6.151376231875274	-4.522870529199746	-3.186956874430514	-4.028090943656952	-6.007243618103431	-3.9122297665050154	-5.663162217147202	-3.1919372001167923	-2.9584152623824043	-5.150847898830076	-2.2442264500223494	-4.171537865597029	0.6524682624556117	-0.6764559728709703	-2.6635036401258856	-0.8214035013441243	-1.6652767616189446	2.160945171622385	1.921703214561923	0.7913227657366296	1.557875033260042	0.014943079985203448	4.40490053972098	5.094947325240742	4.91649292658241	4.297475803969252	1.122895953204389	8.0141267574152	6.57850502260596	5.475233064179295	5.634861931879298	5.012537943582351	4.9106163854595515
320	-5.58045433542853	-6.166844352411172	-4.535336959832334	-3.287024966524058	-4.210919846393596	-6.1406912648612355	-3.6680653002635615	-5.89765833319334	-3.157991401328596	-2.9249293730321333	-5.086320864233469	-1.9065206002737785	-4.45622204609165	0.42677298080459714	-0.3634641161325122	-2.2914693297706266	-0.4629379201168234	-1.849692697623371	1.8959089469726285	2.2290728035914924	1.227088686705976	1.981487984422883	-0.08402440675740604	4.306470860098886	5.060706602670942	5.308840738244415	4.423906315124656	1.2426402537443488	7.644335250627887	6.651213152305202	5.370300279410046	5.264482008040248	4.83364628525105	4.790951716724811
324	-6.1096849287273605	-6.266113742266742	-4.473503578335616	-3.3864226255748604	-4.433341491950199	-6.40448187164762	-3.4749362380985778	-5.771083340379366	-3.016413442625377	-2.9575016423895937	-5.142982469925374	-1.7164655880506794	-4.517065990487595	0.048607546713415516	-0.14109776878495958	-2.069306368371695	-0.2514322691768248	-1.6804314809334049	1.6573594766734188	2.354659312979007	1.418714996570677	2.1922843400918453	-0.08803021885580903	4.028080930076655	4.78668354733251	5.409570203474717	4.391882408497745	1.2774819103412576	6.974576932464128	6.470708353871772	5.108393179393807	4.683381545640198	4.495942581269686	4.562710273667031
328	-6.318848117133601	-6.356868727846933	-4.364620674557784	-3.4213135156082295	-4.591693866580916	-6.675889475179911	-3.356547824014545	-5.2426924573140115	-2.8238639760247257	-3.032063953373827	-5.290536867135843	-1.7814028218115943	-4.258795250630632	-0.4284643520027957	-0.09758042519489822	-2.0492229409932015	-0.29865926428730916	-1.2493067948270657	1.4767125807672035	2.217836135986806	1.3265635933762128	2.0773851819041544	-0.00991549806028577	3.592484226693399	4.281977642692464	5.16498182900069	4.158116330138973	1.1712620228759776	6.120988830371184	6.034692272208935	4.716032493128563	3.99843810979322	4.041408528614784	4.261363972395387
332	-6.091371520875648	-6.333380206330308	-4.33445977070327	-3.383431664507583	-4.625182140116971	-6.842960340389202	-3.3294474994522294	-4.451069343773116	-2.685840838326936	-3.1132678906993245	-5.478072629449225	-2.1250300353757816	-3.7442431355357084	-0.9743055080610501	-0.22672809603191382	-2.214059347284793	-0.638827679928558	-0.7966131547842469	1.3431106771891106	1.8673558188022255	1.019688246059873	1.6421923595928765	0.0604390798473297	3.09338640385682	3.674276819489212	4.646464812945318	3.7639222050050667	0.9225349402977763	5.2995962962816705	5.447364793375632	4.2758331190873715	3.378260603958505	3.5670187383238554	3.9482560058091996
336	-5.513403401759926	-6.148797019693065	-4.500326622091137	-3.312098017913391	-4.537757385241262	-6.85895441230927	-3.385978690181694	-3.6566276457971996	-2.679912083535386	-3.1720788398764026	-5.657935128232177	-2.6497003965236505	-3.15799235500291	-1.541852827947711	-0.4444101441607176	-2.485533469600486	-1.1862808436006929	-0.5596125111756152	1.2220281331680325	1.4476085864711772	0.6441071613262088	1.0168255541878282	0.027038495919388093	2.656685107199375	3.146249763174647	4.027666081750066	3.320724955757821	0.5946546777970422	4.729073512535335	4.878696429332866	3.8946571251767015	2.9854676648104412	3.18883418231762	3.688961734994739
340	-4.8201050636665865	-5.849655613435385	-4.855219828745167	-3.252018205061538	-4.376379478849386	-6.748985750324951	-3.4782798202434564	-3.1143290917922264	-2.7943446565649532	-3.187918416557603	-5.793094620383608	-3.1563596645773444	-2.702041142317406	-2.035316462146476	-0.63435578186093	-2.7502968241871493	-1.7473034814588442	-0.6292665584889219	1.0864859791981096	1.1261272401987943	0.3622198095713227	0.4112737168418827	-0.13972514832505384	2.3879890381603603	2.8482620644183267	3.517125836075555	2.964514486457581	0.29063090608652475	4.529587734230394	4.490503299819796	3.659174194634154	2.9065442011882925	2.990710250933069	3.5264315516129736
344	-4.266705502228093	-5.550432668023858	-5.22827051750057	-3.2116172232604647	-4.187758435166672	-6.571021063426857	-3.5145599753337424	-2.9533905908405247	-2.926673404933858	-3.142154924088916	-5.849748119843843	-3.4166712674662634	-2.496720784559423	-2.3224503935351803	-0.7012633067545658	-2.89546417458968	-2.084806913834269	-0.9069063640585482	0.9403058862787573	1.0180278990792018	0.2901569299524675	0.042786862593151155	-0.3752723028721849	2.331689590289197	2.830982677941567	3.2747442639641213	2.8042364049683237	0.10747810426040885	4.668486583367013	4.364720810360755	3.6000244526570278	3.1125898282620716	2.9845249577510535	3.4626772316292844
348	-4.00311945858206	-5.362551675608808	-5.359052167713591	-3.1524722496549082	-3.9861645597906383	-6.364206298018837	-3.384865275420101	-3.125868789410186	-2.9419374391665603	-3.0158343238982015	-5.791145786922952	-3.2699503816062294	-2.5360069210874325	-2.2909054698324747	-0.6092036947128241	-2.8456845211661674	-2.01574038950303	-1.1767833203168716	0.8207349756500113	1.1411155433454616	0.4568924594310979	0.05593419060890181	-0.5576463923680182	2.4603052077165493	3.0292973441889175	3.3479013358466783	2.8841187881131973	0.09448029822099005	4.97940014535669	4.469328392188931	3.6823487188828947	3.469887009443113	3.1041686456508866	3.460603228414916
352	-4.016918172231303	-5.3239574297956045	-5.047675120007311	-3.016743175519442	-3.7533161545405114	-6.123673900402247	-3.0119068546545775	-3.4466278465990046	-2.7586574484793953	-2.79973363169478	-5.588445649342679	-2.704626553382656	-2.7137229374081517	-1.9170551251647838	-0.39327183266530247	-2.593975299008093	-1.5019925794826745	-1.2482395140604123	0.7798268179278246	1.4156089985392732	0.7968719581512081	0.46332925441110817	-0.5854996428012355	2.692862980719485	3.2992207920700487	3.6537027266761664	3.1689951339820888	0.23176768363611056	5.24120520222133	4.676415908450753	3.8233468436032028	3.7928929233157116	3.234487048565883	3.4621264847129503
356	-4.176218499130134	-5.376877294316536	-4.2888021360834365	-2.774973385480438	-3.4691767604977626	-5.818528160663632	-2.3991031586156986	-3.7012226488126596	-2.406251424436274	-2.5129697259399073	-5.246208177672567	-1.8753377151825248	-2.9007861540989484	-1.297116753164304	-0.14305843376757346	-2.2120907250821222	-0.6833394748601218	-1.0758088799971615	0.8565575458835122	1.704015131462851	1.178771016005823	1.1365950078878198	-0.4417270410829276	2.93178033088532	3.487274637954511	4.018938054428352	3.560946932385206	0.44400626308873925	5.280628667850555	4.8273806450080805	3.932189454641268	3.920341958638465	3.2657744802038087	3.4175774964831405
360	-4.334157932782889	-5.409090028457618	-3.307343236202373	-2.463050120810815	-3.1522426525638134	-5.440469728085423	-1.6526211458443174	-3.7579524422180146	-2.014790768304866	-2.216495269901324	-4.826224314902357	-1.0463211509990402	-3.0182475967497746	-0.616023419732227	0.033620741133444265	-1.8320349408625325	0.16894718961975977	-0.7792389969225337	1.0539561483476225	1.8704894733887352	1.4583302699463048	1.8521215868918357	-0.19999165782503328	3.1014585416690816	3.4977939040564925	4.261148442000423	3.9395756622031857	0.6427463276847777	5.0499548784549235	4.814450251821732	3.9562249083769707	3.7825972938403627	3.148862830795003	3.3155293380951574
364	-4.4201335795384775	-5.334080682638698	-2.466241591902611	-2.1800608579907483	-2.878024570828169	-5.0463695398714465	-0.95727252718517	-3.623368969352239	-1.742515678774704	-2.0053942152890394	-4.447414863801875	-0.4847944366612961	-3.0656967085684537	-0.06891791505102798	0.0532406008389481	-1.601205821763008	0.7610425929882201	-0.5578447566253298	1.3337160315219119	1.8348706914352069	1.5341299733529514	2.374944442474911	0.026506168700888226	3.1729707637785696	3.3289010440703084	4.272788990677088	4.206809510100262	0.7720288614808377	4.644021022515696	4.636726367687922	3.9089169403567636	3.4307830247090774	2.922130815757705	3.1949813285270756
368	-4.467613685772362	-5.157112585398732	-2.094798798040609	-2.045229429803333	-2.758186810205437	-4.760301101110057	-0.5120416270679674	-3.4166698369547928	-1.6882471995644899	-1.9768172452607862	-4.251768101447935	-0.3523716619654954	-3.097122661400488	0.22543524148767735	-0.11242395611035236	-1.6271460015223445	0.8989821053696011	-0.561698792946776	1.6299009281969075	1.5987484414744124	1.3828939164532916	2.54940294575759	0.15573285480757987	3.1642935196140765	3.062151185887586	4.066099633441361	4.320645798265002	0.8339328744814359	4.248849858047099	4.39917849383699	3.863102903149435	3.0130808277351093	2.6947171620044768	3.1305313031313244
372	-4.565999973213169	-4.9821724765874835	-2.327981227719214	-2.136494631141514	-2.8850302623388013	-4.722825515267174	-0.4509203422605834	-3.2835073388168743	-1.8429467631540135	-2.182375663969401	-4.344738472459545	-0.6476791484692901	-3.163873902915917	0.2689323716526303	-0.42413845551217644	-1.9331846188374397	0.5655812606837084	-0.7946665863000867	1.8714126301246856	1.23956525012815	1.0618610355270663	2.3548390805871957	0.18657928658108713	3.1195461671269546	2.816496365111931	3.7577037716406396	4.3018464933503076	0.8801365472506777	4.048770894318852	4.254277218568064	3.9111373325783303	2.7075786522216383	2.5931234294271137	3.1962940612202946
376	-4.7788333772168325	-4.95416926086839	-3.0473973674128727	-2.4479973254386636	-3.2777702725624382	-5.0160112254339335	-0.7866677025960693	-3.3083507931151126	-2.1071779674734663	-2.5969581538437017	-4.742021548696492	-1.2253215282021368	-3.271822682703187	0.15953063924566135	-0.7943688611001853	-2.449131959453743	-0.08567669966047241	-1.1117557259147053	2.0034515807114244	0.8705139734224333	0.6755108220211532	1.8989624929167623	0.19346342932016844	3.0794825476144583	2.6862749985583836	3.4992279918061677	4.208991040093534	0.9732251738772237	4.134922493985373	4.314587582185327	4.108521451113797	2.640684359559109	2.6955406597746143	3.422802916468117
380	-5.086638437780031	-5.168278681104183	-3.9524805446016344	-2.890080683087159	-3.8609504602227402	-5.607207760959128	-1.4030848706106884	-3.4751429470061366	-2.3625278413252295	-3.121975175604709	-5.353368745639316	-1.8756266784996662	-3.3806803141116974	0.01445056960063559	-1.1274679870749869	-3.04324244684536	-0.8135040381873412	-1.310494777231785	1.9988890835839666	0.587075589605118	0.32199165143733915	1.3545153106823504	0.2673026912616185	3.057735673813773	2.6939649513893102	3.3889894399909877	4.095045556219842	1.1375846834071717	4.45851515597966	4.581401813384244	4.428825844073416	2.828456871520942	2.9862608834211093	3.767366399790072
384	-5.388901696904585	-5.602324471634299	-4.713376510164077	-3.330245724853046	-4.4885330086870745	-6.346486075590432	-2.099921459618252	-3.687252035368318	-2.5443570549622243	-3.624129763036231	-6.015463813852941	-2.4230363307812253	-3.4356069478078597	-0.10816082331052308	-1.3621964420258725	-3.580265036126715	-1.4056371414935267	-1.2567383019188987	1.8587707234183222	0.42596450340490494	0.046160831930917565	0.8712984897549862	0.4430876661081026	3.0349111480382693	2.7800409723664474	3.413445464099164	3.9714476961955927	1.3315131630658648	4.851098048360065	4.929884421299576	4.758222091105541	3.1681604305387614	3.35501836883347	4.11754988584442
388	-5.564148412007784	-6.115444644746754	-5.121087061350283	-3.6525719073583427	-5.004944788694296	-7.02553747310695	-2.6685545377114	-3.8357734583331813	-2.6700975827514495	-3.9936699766418062	-6.56024359000436	-2.787958614939841	-3.4135832700375364	-0.24032144187810234	-1.4993672333055261	-3.97790287920847	-1.7646372273715014	-0.9670604442976038	1.6074271161503768	0.3495751908536288	-0.17835922494202786	0.5123627172885619	0.6665743572571861	2.9722483083069515	2.8292472291086685	3.4488625439352814	3.7997479342847327	1.4596852027279181	5.098776327611446	5.159692274418098	4.936420428210565	3.4835712821746765	3.64230870280967	4.330263603721677
392	-5.5459966519522945	-6.516159518002625	-5.15523623118594	-3.8027753733945207	-5.310739980640743	-7.469308357454065	-2.964868538046653	-3.8682155511467804	-2.8061931062420697	-4.191025723366431	-6.886049730081437	-2.989648334584432	-3.349478474743453	-0.4705312240164906	-1.5986577232052934	-4.235359658038434	-1.9254020403887662	-0.6033291801478828	1.2843272653578492	0.26431551508927453	-0.43110248337621626	0.24287606714440338	0.8166668990497171	2.8358771729395857	2.720390074537315	3.3212556755135614	3.5130727202410617	1.416814800500035	5.033354269671152	5.084794031656758	4.823835360745791	3.6018967537539854	3.7074742223594983	4.2878799330218005
396	-5.361214147383425	-6.659735185975092	-4.947032915976739	-3.7975647353614117	-5.39895008631403	-7.613016586156178	-2.9579944535913523	-3.8097515010014193	-3.0001494808744473	-4.257691372612179	-6.996231538274934	-3.1052706163207118	-3.316738835543886	-0.8679975845356591	-1.7467869476085247	-4.421487797064356	-2.008377546961805	-0.3824343969703133	0.9366996264650168	0.0640422849230332	-0.7995482066948664	-0.02922927022051185	0.7693540434486505	2.616842024871991	2.376872771937816	2.8943827079176057	3.055479995642588	1.138916728005249	4.598572242570629	4.6175279500728195	4.362158764316198	3.4251534852335443	3.485225430272307	3.9444429774832552
400	-5.109796034309698	-6.5187711551115095	-4.673345553996835	-3.6993846799910064	-5.341975198609977	-7.520325164881412	-2.732241146818795	-3.7297484780558245	-3.227594844298616	-4.283164490376235	-6.98276184226402	-3.2121674933396416	-3.376271716176661	-1.4090152943322878	-2.008659119303013	-4.627237308263638	-2.1383283084287545	-0.4527803051961035	0.6133595093500062	-0.31720399776481073	-1.3265302147752227	-0.3848559846698115	0.47362595677006025	2.337618821917904	1.799796576724261	2.1434051936393255	2.421976321781216	0.6419346912389203	3.866366615070516	3.809065570751076	3.604138365229039	2.9667508527239077	3.009132616075156	3.347419730318109
404	-4.9043354864275575	-6.187241538638971	-4.446576107242713	-3.5757648854575352	-5.239957319381464	-7.334944706517666	-2.4437527594856348	-3.6784562971703103	-3.393470994011045	-4.347872246255344	-6.96690319209654	-3.3496711169548807	-3.5233287722323796	-1.9631335685756688	-2.387374395064988	-4.910775649069989	-2.380135053347426	-0.8088453391634588	0.35379701763473304	-0.8682247378363246	-1.9799669931013446	-0.8442935922287151	-0.01344337776634455	2.0388359972022876	1.0690324279497563	1.174063918010505	1.6710903602370792	0.02105191344668118	2.9970276280075736	2.8251490521628386	2.693754666203074	2.3340032041749574	2.3898868500452175	2.6208188467613645
408	-4.806856143259362	-5.819496616929498	-4.266131390291065	-3.469334593596729	-5.1636538375184475	-7.1948742684863	-2.255766386058888	-3.6432356742428764	-3.3938598547125776	-4.475363243247913	-7.029584866895559	-3.515978565875815	-3.675490370053775	-2.3494186342050067	-2.8143155503743946	-5.26285599333488	-2.719620936203075	-1.2919633355900348	0.17598020985995294	-1.4965801201228657	-2.6586155824294866	-1.3581459487957426	-0.550073801082358	1.7556840137023948	0.3151608995586806	0.18113629474206905	0.9053633786231433	-0.588876126709947	2.1693088953561515	1.8737504434961636	1.8078615619791674	1.672122951100561	1.7632651284522363	1.9168288659337878
412	-4.804493891983588	-5.542995438886141	-4.053804864185293	-3.3916795168121987	-5.123432623325562	-7.157461625148141	-2.2745821418554986	-3.55588196810356	-3.194502107184291	-4.62031983162705	-7.168132763884627	-3.689306011422092	-3.712486734553874	-2.433154099997013	-3.175441018670404	-5.608752713347806	-3.0899126451680807	-1.6731913047508178	0.06963372212948961	-2.059265608356762	-3.230170241783569	-1.8401912404330043	-0.9733735298376951	1.5013776979687241	-0.32288220443267984	-0.6306204779915766	0.23139291943303147	-1.068541762515204	1.5176386794874224	1.12450074865627	1.0918421717733928	1.1049100132702458	1.2397463290385204	1.3634248937515918
416	-4.836054312893896	-5.397244439803443	-3.7418322468699206	-3.3403429900710835	-5.082515703720616	-7.179602128021929	-2.511952155446871	-3.3492057238896495	-2.876965753921052	-4.700521457248535	-7.304124336875021	-3.852298726846146	-3.55040930805268	-2.209432834769008	-3.363132229896969	-5.846189484141157	-3.419071904133176	-1.7748676493656306	-0.001681068325827577	-2.418148273084826	-3.58497737933076	-2.217712158325986	-1.177454945452505	1.2657879559030085	-0.740251360454806	-1.125533101101173	-0.2788580350987923	-1.3597087825778076	1.10038852413829	0.6561092717771686	0.6178535803454347	0.6981521827237244	0.8769611694129306	1.0290727589374855
420	-4.843164908579069	-5.332824216730005	-3.350536337976256	-3.3201668178655535	-5.001639830359134	-7.158734303520172	-2.881596796389829	-3.0296161098283716	-2.615647309375129	-4.651260841070416	-7.332457523906758	-3.994868268417345	-3.212771884436138	-1.8174228622327375	-3.324284783553399	-5.894880279916663	-3.660485019978745	-1.5676165779589577	-0.08414980747911625	-2.492239230539366	-3.6767730620061028	-2.4628503260420325	-1.1611992091425336	1.0332027647635451	-0.8905609227584163	-1.2776330677200263	-0.6042800530435839	-1.4792745076024711	0.9091498232775849	0.4530320156103545	0.38262548946098074	0.4623516786346151	0.6838129145523775	0.9174016690933904
424	-4.804923999099202	-5.263568388047437	-3.0040173454734465	-3.348624459395267	-4.881873595309952	-7.006499749613756	-3.2315244593094468	-2.711134188482803	-2.586850159789632	-4.469398964088167	-7.18191240404759	-4.0968804255999745	-2.8477070259675794	-1.4756251536306668	-3.0832121294379276	-5.731581673456393	-3.791723957025328	-1.1914813488442157	-0.2089242184847775	-2.2870294990018065	-3.532292833946808	-2.5875418120858593	-1.0263344023541283	0.8073896149277847	-0.7890198210822573	-1.1590590447726319	-0.7637808899669328	-1.4978963098854727	0.9034691430169638	0.44292521364917736	0.3361190250970445	0.38352486394372587	0.645175455371821	0.986008224382059
428	-4.735751140081952	-5.13525389328473	-2.87210678329123	-3.443657627948056	-4.776715266565442	-6.710074407802343	-3.4038774881253957	-2.5787923270920805	-2.866974346551869	-4.221083630395034	-6.853912813048317	-4.1123366252069475	-2.6726806096309144	-1.369737025617369	-2.729315750860605	-5.394664273946921	-3.793542613942123	-0.8904191829134982	-0.3717633178384722	-1.890019054409374	-3.2281870760476092	-2.6104936533822816	-0.9276902652206734	0.6242144688105151	-0.4984807657530995	-0.8883824326020207	-0.7867755273981958	-1.4947200975827009	1.044974443658385	0.5485492930867869	0.42072498692147514	0.45386218910069015	0.7455305438292337	1.1763958901268097
432	-4.655219066310667	-4.966721999026395	-3.0686666888008234	-3.602251759017371	-4.762161719696668	-6.342130168161245	-3.2976398384760177	-2.7932503152896397	-3.3756017599710773	-4.006316174882582	-6.417614920625693	-3.974925746418745	-2.8676543163377497	-1.5509153565350597	-2.374325031007969	-4.957693564295771	-3.632784834272924	-0.8911549426467481	-0.5274550901447443	-1.4324840271068973	-2.848209373912478	-2.5225794251649125	-0.9950331424386495	0.5425173626553913	-0.10395271304826316	-0.5672723040563615	-0.6850972754347548	-1.5119798145267342	1.3136277165625592	0.7275246363391412	0.5999766573063106	0.6822750551164103	0.9780749653917736	1.4403086864346761
436	-4.561360347675567	-4.839440333545748	-3.567146292263353	-3.7881379031861155	-4.88345669467119	-6.018047317569563	-2.914350979122684	-3.3870341692287123	-3.9022598168078972	-3.902706374805427	-5.971180900756737	-3.6348206905147324	-3.469660034956381	-1.9074960898877096	-2.103840822630207	-4.493961322882354	-3.2764885342844243	-1.2854837146728617	-0.6074816569249659	-1.0366146538311638	-2.4483056006606634	-2.286861175485386	-1.2669174639186505	0.6151539071764389	0.3129476300921464	-0.24136638580418268	-0.45232409124614453	-1.5387322863830188	1.6998895363804938	0.9796464418473092	0.859462974285753	1.077380535266631	1.3335846628851586	1.7472909644834729
440	-4.433722008001484	-4.845658766910175	-4.189224709424445	-3.9433994193651625	-5.115800367790633	-5.831549629746967	-2.3726723134218095	-4.214495648233933	-4.211790551042276	-3.9231960674416837	-5.597053036863673	-3.114017717128706	-4.325366486119294	-2.2325980606931877	-1.9475097607080105	-4.054559220567666	-2.737270348313666	-1.972990388657289	-0.5574255571596829	-0.7722076754147124	-2.048063511445958	-1.8806168985569525	-1.6660814243213808	0.8542141296754394	0.6911739689542638	0.09870398019665823	-0.09117506421434703	-1.528203721956476	2.1826190893380493	1.3242057528441409	1.1868270605640356	1.6158521134588177	1.7806401207789742	2.076286787513007
444	-4.270079125113862	-5.030439364130416	-4.679079997646908	-4.021359433511594	-5.370671735555348	-5.809995159739131	-1.8785746050135248	-4.998771654859784	-4.165327538464272	-4.016385068289778	-5.336889253493423	-2.536859505924147	-5.142073141466976	-2.3454265535266092	-1.8831703615326834	-3.668584814346112	-2.1131861156516565	-2.7002935341370042	-0.371813087716734	-0.6415162666336536	-1.6476569134120878	-1.3462769951208748	-2.027777905112897	1.2136874168270912	0.9964935158366043	0.4851954567103325	0.35586386829174615	-1.4338233434716188	2.712308638400492	1.7679012969204504	1.5520685871992623	2.2219991627859876	2.2568657341243497	2.4042670666074213
448	-4.127476204941673	-5.363092408944845	-4.827124106617615	-4.020056237561516	-5.545658097570825	-5.915458664264121	-1.6554820495770235	-5.456430421404502	-3.79520367617853	-4.105995644693172	-5.197415338745463	-2.107902283114948	-5.614266381394188	-2.2016086522783866	-1.8659467650032928	-3.3613128577244384	-1.5896614749827676	-3.1732354084007044	-0.10976815941038111	-0.5960788115710649	-1.2581832377138955	-0.8186447599723052	-2.1714610998642674	1.5984917838746577	1.2168501584801779	0.9296421981228498	0.7908329347671023	-1.246752855014178	3.211212388514172	2.280588382685061	1.9001861762709116	2.775120966580529	2.6780898503399135	2.698570244651609
452	-4.128704060620946	-5.7536363456419215	-4.578464019659972	-3.992274989539005	-5.588129029470432	-6.086845382581411	-1.8573460532024977	-5.436452375037705	-3.2908558762433895	-4.144505967166744	-5.175577150629213	-2.0354764410126496	-5.565339551225968	-1.9197004985025263	-1.8646908951410461	-3.1714060226478766	-1.3848655188881942	-3.1934847751098334	0.12506027488128227	-0.5764178619136728	-0.9230997539102419	-0.49772068732484276	-1.9896211573912403	1.9002344560330577	1.350082274843018	1.394127961453615	1.0778466435875977	-1.013568041149788	3.591302147381198	2.7909810472594807	2.1622836535220817	3.1460275570594853	2.963851682809352	2.9187729284981163
456	-4.409285057379588	-6.09905098328912	-4.068728913525055	-4.022504796362706	-5.534550175998528	-6.289717658375361	-2.500687831287078	-5.000329958688857	-2.901761762922169	-4.147792328852782	-5.27740858652934	-2.4300692020098067	-5.0377817026738905	-1.7103229717942152	-1.8840347480890336	-3.1471509854013755	-1.649844046241954	-2.7571494509703856	0.2307605290547224	-0.5519697652232316	-0.7121651154657499	-0.5621652588956105	-1.5123809537850597	2.040442461584218	1.3915203774605647	1.7954779818026083	1.0974754067368924	-0.821312961888939	3.7804813289561787	3.2044107833067352	2.2808544578186667	3.2436535276534575	3.0651078146795596	3.028080217345677
460	-5.026581751530292	-6.329437716716239	-3.5634405522977333	-4.179487694678521	-5.495723710489866	-6.536186201759435	-3.440715542689371	-4.393096912736621	-2.812170975260791	-4.186122406881008	-5.512767777829646	-3.2308041967837995	-4.278593052552083	-1.7528945163339493	-1.9587765882628776	-3.3201305782416215	-2.3761453568548134	-2.061787600080131	0.15371487995915914	-0.540222822255911	-0.6904465538712614	-1.0705468627603858	-0.9150530076765907	1.9965881058828667	1.3272664513456296	2.037947172741641	0.8070683458932565	-0.7594547252554127	3.742281189053235	3.4311964425241954	2.2308902684153953	3.046997539456729	2.977052442663719	3.0038168354489283
464	-5.88574837152297	-6.429200156192146	-3.322071543889187	-4.468784797829952	-5.589807496263069	-6.856442434166198	-4.405399788224359	-3.919950713751147	-3.0512406748982865	-4.333359230544915	-5.864586338495345	-4.200246323471325	-3.6264228729242407	-2.0797638840618453	-2.1240658706443294	-3.667782058992304	-3.361774197673835	-1.4152914249927115	-0.08079681525096752	-0.5929934367467015	-0.8757525064292268	-1.902659769022845	-0.4538556027874591	1.802767629840234	1.1402740449726472	2.060308689637698	0.27632963587612625	-0.8757047631088822	3.4847490699524646	3.417549601509456	2.0288529344833517	2.609694951144308	2.734926216849858	2.845349781481954
468	-6.734019262478216	-6.424914820662194	-3.460540047491614	-4.814754950765055	-5.8606390805097055	-7.241449814633357	-5.0841150155451915	-3.7888278865522933	-3.4865803630539203	-4.6039271238437305	-6.255655749739435	-5.003074633364545	-3.350580922250435	-2.5433115894955036	-2.3778607785271184	-4.090534199877472	-4.269983280845305	-1.0876895161823759	-0.3772612800609956	-0.7555457930562669	-1.2094624011974997	-2.783681147222979	-0.3496998837701841	1.5273827275814125	0.8295582511938357	1.8736603212734908	-0.3253502539526632	-1.1478399009334648	3.0595583838464027	3.1692147174928866	1.7277896360643863	2.0383984991107407	2.3982863365657585	2.5781011516330103
472	-7.249568920905582	-6.353323443584644	-3.8884146115358464	-5.086172567877643	-6.230793460373495	-7.60045335758072	-5.23782538045252	-4.007021893874941	-3.903078069369308	-4.9171700353453485	-6.543794138599358	-5.336881147261755	-3.5264794737472522	-2.8863396571719213	-2.6574921540875964	-4.4257273562272355	-4.761852252381775	-1.178038594132672	-0.6122608169356354	-1.0196912262921043	-1.5617097576766297	-3.392002812404644	-0.6717671735015522	1.2446849314735615	0.4340894211299817	1.5686964949102717	-0.7934110144610631	-1.4883955679508416	2.5551855499605196	2.758776180931488	1.3998595440807458	1.4602049552290473	2.0338773676066526	2.249950880092125
476	-7.188045483560914	-6.235234721653786	-4.35122107360895	-5.154316412310088	-6.522957308512805	-7.771731833863371	-4.789023864099063	-4.38604973639333	-4.114609707934363	-5.1169528831991	-6.561965448978284	-5.056566702473875	-4.00805663050563	-2.875341646564313	-2.8487095760901706	-4.500727165303016	-4.6423435093973735	-1.5702508648328	-0.6871864778335024	-1.3008722034035407	-1.773204322152728	-3.500299921735102	-1.2889234987141647	1.0157946322543958	0.04445208597881083	1.2869390216760233	-0.9737642382832113	-1.7798471405868843	2.0855781979357153	2.3128838480728833	1.1175829143918143	0.9933323835089225	1.7063382820917512	1.924988622573648
480	-6.512494070776771	-6.070897563865572	-4.5620598677848845	-4.9563689106736275	-6.545149786636706	-7.5929961012824085	-3.854531278415217	-4.654427516630048	-4.051646699212714	-5.043183790825535	-6.191790565116743	-4.233462322990734	-4.5140313988204515	-2.430094712797706	-2.8284890580290396	-4.2047610176737935	-3.9474904437536376	-2.0025138804421854	-0.5695494995042559	-1.4584907256496351	-1.718036885692281	-3.078936807488273	-1.9196672391108256	0.8835665561302624	-0.21205156988011808	1.1652117938186821	-0.8283405283041491	-1.9260269354830135	1.7705019667747242	1.977574462666101	0.9378275847598985	0.7276061158883435	1.4745613299334015	1.6724361139034203
484	-5.431992040271134	-5.851668819912236	-4.352472294308916	-4.528313625346892	-6.1916732631761215	-6.994570714457105	-2.7015602520445725	-4.614800918371941	-3.780721178046149	-4.616281020907267	-5.4310636383264566	-3.117528192278534	-4.779648291918144	-1.6771972137067683	-2.5218779977069667	-3.543173542613795	-2.9242026732048667	-2.2117431107946697	-0.30428171081013167	-1.3562877143949166	-1.3590984310168486	-2.3080003203294757	-2.265294069292889	0.8715037681510744	-0.21645529513545633	1.2753158775555886	-0.4512981463005384	-1.8977317762145471	1.7028657154959044	1.8668003035143215	0.8861942268885512	0.7084081751103976	1.3827462161439112	1.545928235919294
488	-4.316536415645983	-5.578864560347094	-3.7604122066923953	-3.9920275110545225	-5.509572492040594	-6.062221511793972	-1.64920901835812	-4.25623415826039	-3.4475173863153867	-3.8931705853397567	-4.41752241926675	-2.0303320833443634	-4.6911973834805725	-0.8929138161049843	-1.9497644852048814	-2.6474859647665463	-1.9172954510919116	-2.082207912910045	0.01179882974178913	-0.9391959285865524	-0.7719472031177016	-1.492689605758909	-2.170779461148337	0.9819736455920439	0.08120952526093093	1.5845334489871086	-0.027830362249681377	-1.75141500984507	1.9098310422362457	2.011241907763899	0.9452031230904286	0.9240023470437968	1.444934722113304	1.5611420830412222
492	-3.5264797121658304	-5.272524820367353	-3.0059122963353615	-3.501513949136822	-4.690394389708185	-5.0260414950314125	-0.9568883156459178	-3.753772726118338	-3.1827828803767213	-3.0605447215056554	-3.3888821516306624	-1.2413998810897047	-4.327877510588052	-0.368274598383932	-1.2416908709647634	-1.733281727229414	-1.2228430478693442	-1.7064371065925394	0.27441349556304717	-0.28543379830774557	-0.12539084224037197	-0.9277879572332136	-1.7183443264492564	1.1869373291565917	0.6150858982769218	1.955535168478886	0.24168549417034324	-1.6108436543802764	2.321419471601748	2.3284161032063975	1.048071500993095	1.2937797275303342	1.624213453006799	1.67778169685196
496	-3.2450182355967896	-4.963616835460016	-2.370448344921565	-3.1764347473055907	-3.987626304095419	-4.169723977051805	-0.7389078717649606	-3.3623118315683516	-3.028394214613561	-2.3622820317707967	-2.5900292331153456	-0.8788887836200999	-3.896307458577076	-0.26755824617544777	-0.5997408017275297	-1.0192877028479936	-0.9754785870719128	-1.3273346390590806	0.41422477259958396	0.4019813825471826	0.3787395348523378	-0.7758311609707496	-1.199330922913448	1.4194592201634635	1.2035044401300836	2.1945497934247484	0.21962524895054258	-1.6155707795361882	2.7726395060155054	2.6388389997615223	1.0898832055231507	1.6729166465483862	1.826138849416237	1.8022047235763963
500	-3.403917542446584	-4.677925098052656	-2.049381489347904	-3.0570568961207845	-3.6028427986734717	-3.7045481111455723	-0.9409662461365567	-3.2670233167179896	-2.924516432054172	-1.9962300011779603	-2.172592396019248	-0.9095212198182426	-3.601110687700672	-0.5503799901417962	-0.22586338165001804	-0.6454613788520867	-1.1222877474106365	-1.196258303483034	0.41922464860929937	0.8679257013342415	0.5815514311412819	-1.01836824160001	-0.9708186959551379	1.581874128162524	1.6068180758915995	2.130739921912269	-0.12262178181445227	-1.8595057678958364	3.052034370346112	2.731581442612087	0.9601762866573614	1.8872824859653554	1.921508426583289	1.8174917652019238
504	-3.7407472039191685	-4.421029079719323	-2.056344027095828	-3.0968887727749794	-3.5938172249657905	-3.669826498302938	-1.3783903087147231	-3.472897282415249	-2.761091463747298	-2.0252175279983895	-2.1327454989946077	-1.180500027537102	-3.5252327830002774	-1.0004826758874152	-0.23611305594436102	-0.622499106742855	-1.481011029318973	-1.4214842283599498	0.3285397580911864	0.9194818711907995	0.43140688429631563	-1.4922431669706684	-1.2606676785111508	1.57731735308095	1.6289557177424456	1.6970906214781976	-0.7040163260805008	-2.3445868432931336	2.9870452805443732	2.458683961382752	0.5899991378193248	1.7948844387514336	1.7968547298841542	1.6322524506366491
508	-3.9542386431994907	-4.178095330180083	-2.231701845256608	-3.19608496812695	-3.8548529050776126	-3.916562070494932	-1.8188234521721334	-3.8014271163331053	-2.460366242872645	-2.3496084153934924	-2.320449346405833	-1.4977407417630018	-3.5920355229286627	-1.346026059567004	-0.6028490647354292	-0.8350611904041854	-1.8434791518398033	-1.901269669500903	0.20407016523813692	0.5257146345216972	0.008419121594332427	-1.9842737863033617	-2.033373112313126	1.3552120889780155	1.2163463800238081	0.9746785735317574	-1.3738163674954973	-2.972877494935612	2.5301883156791494	1.81558870810834	-0.005890256710380206	1.3524713482088733	1.4129933083145538	1.2281599013791749
512	-3.8705401322871515	-3.9252889057237534	-2.3468301236982367	-3.2534027017468854	-4.1712798966950935	-4.181399334840931	-2.0691702313633717	-3.994919766830301	-2.0379664846464993	-2.7512814929163527	-2.512167447423256	-1.6968511300160947	-3.627435675045707	-1.3977318966862151	-1.153121230075099	-1.092895028216047	-2.0637423940052497	-2.3789217412014416	0.09967602019178172	-0.1496442254579848	-0.5005439507244682	-2.328090900265324	-2.991787187652152	0.9490535235285528	0.5023056256010019	0.17646318629534852	-1.9689096162676896	-3.581751337545082	1.8008023454976616	0.9646481847249894	-0.7159134727522761	0.6526446325990569	0.8398945310368188	0.68051922149505
516	-3.5245637804690078	-3.645462503766063	-2.236404413298934	-3.205752603066531	-4.315592278075124	-4.210081089834434	-2.0299551435717555	-3.863859405299014	-1.6059570271953483	-2.984305135821677	-2.507295602190195	-1.6785147147715571	-3.478223076621773	-1.1384599180088437	-1.6262721974321432	-1.2032865255493348	-2.088201755973525	-2.5838067466350845	0.041967417938847985	-0.8033188561184823	-0.8667934515049468	-2.454024070265977	-3.716166963731594	0.47922727344636323	-0.2320221209628531	-0.4272192407789038	-2.3635451733996873	-4.00638483943319	1.0527169677858708	0.1829653675705123	-1.3596470321659762	-0.09607532596173304	0.24489371416727868	0.13984213734129136
520	-3.116593353032237	-3.3408980285218304	-1.87634753707176	-3.042666904396862	-4.142882813484318	-3.868782272107874	-1.7061966614561226	-3.395648947725639	-1.3150285449205337	-2.8751053737530197	-2.2039208356526756	-1.4129874670593807	-3.117754928346687	-0.7202669959956791	-1.7750208333023167	-1.0360233757564847	-1.9295210789602146	-2.385559552845449	0.027878107432671072	-1.1201931209892282	-0.9019082165835268	-2.3766961037711476	-3.8774003884648995	0.11045251758822251	-0.6735725981872406	-0.6144943817836643	-2.4942991670576027	-4.144751061465441	0.5703790173435007	-0.2506450706352637	-1.7540481046260197	-0.6504694206981156	-0.17265549258509813	-0.2269277566902461
