time	FP1	FPZ	FP2	F7	F3	FZ	F4	F8	FT7	FC3	FCZ	FC4	FT8	T7	C3	CZ	C4	T8	TP7	CP3	CPZ	CP4	TP8	P7	P3	PZ	P4	P8	PO3	POZ	PO4	O1	OZ	O2
-200	-0.3421381107275234	0.1495614048042785	-0.8036120513653923	-0.20522741921585175	-0.1176109385501259	0.10045840565828937	-0.44353085644321105	-0.058743584752781144	0.16127271909527457	-0.1606299724099619	0.3711163094210689	0.41146555439060795	-0.07848269472572796	-0.285807072394709	-0.13523770834633989	0.7287340741832251	0.14986871145080335	0.3272095314347701	-0.5378199802171473	-0.25978955560897177	0.5147774206516059	0.18332952214684814	0.04832148167211887	-0.4157067824835376	-0.26616090468918385	0.39046597382190745	0.06809138489459503	0.7513223867520802	-0.2054759258804541	0.5463907704863407	0.39401361246765937	-0.33824047360853404	0.17658537581682957	0.02817553460934934
-196	-0.4091236879032955	0.028528535666559753	-1.3565987314305694	-0.3577248147039026	-0.34629213722536684	-0.12350601671746271	-0.6565919501893411	-0.1608585264197761	0.03425595155650215	-0.1967107499639778	0.2877115003951193	0.3225245467626081	-0.0832385865732519	-0.7286101561270499	0.1327036615835956	0.7306510191590067	0.42919877063154144	0.30512943786830937	-0.5539603815397695	0.0778140796246481	0.6773271543568079	0.6053923949215738	0.27250799467903364	0.0720046086281538	0.2385283851561737	0.5940053447984984	0.6627216322379216	1.01885604601162	0.3395928433904285	0.8277464488111727	0.8292012789771772	0.17011073188748252	0.5542215690925159	0.45754095796461686
-192	-0.5057942854508974	-0.18027783884785886	-1.5216151437489283	-0.45876222733065886	-0.521765707606008	-0.30703031939236447	-0.6634620411334521	-0.35614147692408665	-0.035940121768571975	-0.19952860424210356	0.22817198874562977	0.32652097858006324	-0.1634226586268948	-1.004095074979552	0.36537679937620304	0.6946981531723558	0.7434636335675758	0.19740253637065558	-0.5293652997956833	0.388629822941915	0.7843143920169889	0.9843804811419975	0.4864941227074199	0.44358670599522454	0.6832910162840418	0.7511942963707812	1.2258444993540758	1.219155666134269	0.802773533224809	1.0071312163674555	1.1715605229362591	0.5854564890385271	0.824499485795231	0.8014236072333443
-188	-0.5358834253132841	-0.3612695625243902	-1.2444001404815437	-0.45869642380299297	-0.5771909937591024	-0.370381115931943	-0.4728148865683269	-0.5341628180368971	-0.02790877215968544	-0.16101545054791233	0.19402626107820023	0.3981686224421391	-0.2606287592029681	-1.0578955385201716	0.49192046994942645	0.6024116858531717	0.9205717421177658	0.060134220716524765	-0.44027918466034405	0.5822746738991604	0.7642888407484263	1.1257002325247014	0.5827245697567892	0.5877652153434281	0.9367155409051316	0.7551973443037897	1.4899876080087728	1.2305190532134285	1.0207995150542597	0.940051851283366	1.2295087544870364	0.7207950335424111	0.8345766046433849	0.8847353436067121
-184	-0.46479251863432725	-0.41816910995763695	-0.6799739582060214	-0.3751540472572491	-0.5197951184500641	-0.2921336583868078	-0.1826125676789775	-0.5833663925701102	0.05993282407291779	-0.10105847541805058	0.18351149512688797	0.46984913826572555	-0.31126490156741843	-0.9077007747621089	0.4894143628638501	0.47514748453340017	0.8222818949919615	-0.018293011887379723	-0.2796683602424679	0.6242429002260012	0.6154981239991477	0.9231134033738609	0.5416731820735687	0.491863011072008	0.9464361643737841	0.5736655578434733	1.3135560717797201	1.0156474087821723	0.9374046898062848	0.594085811068742	0.9409360265817318	0.5294136391624741	0.5658984169977576	0.6661543829311589
-180	-0.35020983130727246	-0.33653709207444354	-0.10547198328568791	-0.2817607514897028	-0.42621678006327984	-0.13733692432538436	0.06482279284323515	-0.46746650220148966	0.1958039249006545	-0.06388828887306418	0.17674884155471338	0.4631845045316366	-0.2958305768650228	-0.6338359101505117	0.3814509501363247	0.3531911066197986	0.4202555407404094	0.01851314674114065	-0.07992668429699144	0.5358455763639474	0.3949273516697591	0.40915706650428546	0.41794174804071527	0.23791697561277259	0.749671397700615	0.2576382451705251	0.7378103714434823	0.6230891927246416	0.6149111970635263	0.06035233646294902	0.3921988596550873	0.1181665208932552	0.13500428165682762	0.2442670458348536
-176	-0.3032633952590375	-0.1912167067468385	0.22968627454464777	-0.26197540693897853	-0.3969407965651884	-0.02757646695267588	0.1552325781240819	-0.2565657489974669	0.32000759163171	-0.09655067300261665	0.13645158673644836	0.3347166470183098	-0.25686004693030234	-0.344171046341745	0.21733315234149192	0.2640823417195019	-0.17629654661013847	0.14648500047893107	0.08892627783019694	0.3683150997399546	0.1769735063614658	-0.2563612752640812	0.2834394865032409	-0.04583168018213769	0.4432224620119218	-0.09176970995144737	-0.040814209626387085	0.1537054624253084	0.19053220700796608	-0.49516430372152526	-0.23347802401246098	-0.31889507093978614	-0.2763091914830199	-0.20601297862968565
-172	-0.41193988815253296	-0.09937859301510346	0.2274886512973276	-0.35919645337969147	-0.49845793717420817	-0.07288140785174729	0.05887355268038574	-0.09630282198910514	0.3672040095595018	-0.22341032269815783	0.023445000812823018	0.10534311804400887	-0.27870303322044526	-0.12713685599653043	0.04360930983142731	0.2000716174557976	-0.7614437918511904	0.25963345104469915	0.1472410406925145	0.16839034812851278	0.010797180208125635	-0.8519074299284557	0.17103414194317268	-0.252578496295284	0.1316018846288654	-0.37342262173786256	-0.7592373471164657	-0.2814923815772792	-0.19283625434826404	-0.9076269246074186	-0.7410295586950287	-0.6041468962674919	-0.5162910806018554	-0.5224398361367157
-168	-0.6730408055478971	-0.14683586321951556	-0.029799535795315468	-0.5509160743155526	-0.7238200288617695	-0.30527061146910345	-0.15752130707071124	-0.12864841488305684	0.29785451217790604	-0.4289473582405136	-0.17972280039711178	-0.14307787978288233	-0.4356746364561033	-0.018047977193326747	-0.11390323908181436	0.12242342500772117	-1.1212803097071864	0.2267674201962051	0.051270082463519655	-0.0400878376246657	-0.09483014768261593	-1.1780059307874176	0.06177463366885933	-0.34277155908827456	-0.11509566725043845	-0.5214101062961759	-1.1875584095535832	-0.5887759909069772	-0.441187410432816	-1.0739959451262504	-0.9963591669676197	-0.6582772119114656	-0.5296631442048739	-0.6220130904705835
-164	-0.9763927435065249	-0.3320394448003376	-0.35291924983566436	-0.7591725568677584	-0.9915932987927017	-0.6536322815604915	-0.3713569929760642	-0.39958929914677366	0.12476214735002966	-0.6582567675183593	-0.4513616848517085	-0.30651813668110267	-0.7287566643435379	0.006827475951510611	-0.24957503315379628	-0.009591541228813987	-1.1334587306969466	-0.018143856852141337	-0.17094916062109872	-0.24966746505644835	-0.15424092075029622	-1.132315990450198	-0.0787352321544231	-0.34530347498497355	-0.27436795761455374	-0.511772512097486	-1.2032301395555196	-0.7029845696820437	-0.526909469227848	-0.973390874789281	-0.9584963893532531	-0.519805787681452	-0.36360424665202534	-0.5168339001004543
-160	-1.1576908797599117	-0.5621758089177091	-0.5689567909181059	-0.8889710284676916	-1.180859801172058	-0.9755866502926178	-0.475268511764311	-0.8113908151168099	-0.0871672553603491	-0.8335153439458385	-0.7314102631222387	-0.31394925634274556	-1.0559962961238436	0.005315849078436443	-0.3594373157486207	-0.20277404733960724	-0.8238975980938087	-0.40940931336033803	-0.420908301006019	-0.4440305221791016	-0.17223909453774855	-0.7420811038355013	-0.24349480805909335	-0.3188118032512452	-0.3537975540765346	-0.34736859710729256	-0.8161976316825852	-0.5920296296431168	-0.47037777185890384	-0.6484901292640565	-0.6690080148972208	-0.29883465095411793	-0.11890014976045966	-0.28261437940769835
-156	-1.0896968814040533	-0.7016428691315372	-0.6157263501834165	-0.8731186367878969	-1.1872335642403773	-1.1294234962558407	-0.4353260386920146	-1.1567860812545057	-0.2474344217490598	-0.882936713850511	-0.9423136091283026	-0.16605569380319993	-1.246089097691635	0.03196951738869085	-0.42489775908005306	-0.4125802804543829	-0.3500555148823386	-0.76090675400312	-0.5694382772373859	-0.5814186319930577	-0.12590749529998066	-0.14484307133344884	-0.36131364015909034	-0.3017264894973844	-0.3651729514915859	-0.04410994786808331	-0.15128351709794238	-0.26878717473832403	-0.310816376616616	-0.17411820546535442	-0.22179143074782312	-0.10509221229246034	0.11330678285363353	-0.011681641422521137
-152	-0.758394775860048	-0.6470834596509087	-0.550219832461689	-0.7010074836198357	-0.9725701188327961	-1.045147654755665	-0.3061488859076514	-1.2168678014549867	-0.2805177860330174	-0.7716711740084436	-1.0207329962708585	0.06100580080842328	-1.140626070003802	0.10849106284406736	-0.41582274331965535	-0.5595002160251419	0.07537059466883077	-0.8601788260676981	-0.520471750375846	-0.606579063791411	0.020953519216921478	0.4643616366583338	-0.3345823577539699	-0.28878441380068987	-0.31383529226222273	0.3651339998563235	0.5944512471449374	0.19313563357705377	-0.09031538642492204	0.36298504380133956	0.266243516726634	0.004686225659489571	0.2897534661130015	0.22120667938173053
-148	-0.2777960293431881	-0.3835867931694912	-0.47394508003738195	-0.41514688625425356	-0.5786309823685954	-0.7509838919752553	-0.18490172875928038	-0.8780927635911343	-0.16081190068651827	-0.5140804635420069	-0.9393432116634205	0.259949057637988	-0.6871954781348407	0.21667975132595257	-0.3064054839027616	-0.567137001513063	0.2913857393060545	-0.5940206035875224	-0.2623503499559915	-0.48251724121340167	0.2832384996415657	0.9045014358572225	-0.11097175599929178	-0.24239630935981754	-0.20527839608816717	0.8167939165474127	1.2080755203263673	0.6609943492413365	0.14522361718705656	0.8694492556554986	0.6774513108315615	0.03484465918088174	0.4124493588524643	0.36980867292496544
-144	0.16243539709565025	0.005501460270104823	-0.43850794323834813	-0.08688826092002108	-0.1076418605709352	-0.34868022711458585	-0.13881498540163156	-0.2055220896777161	0.07459571938754588	-0.1688152100353991	-0.713231502162734	0.353800355494832	0.007062154338560012	0.3174405984016493	-0.09860793476242577	-0.4037949432668622	0.2643558972360079	-0.03683768203494637	0.12178883670814156	-0.22531735840177045	0.6242514236901825	1.0710654231686225	0.25487622554325173	-0.129234745772232	-0.06066569670619358	1.212280985632522	1.521107192967435	0.975814638058308	0.33998054180139115	1.2477629153219916	0.9134042836016212	0.0205261781293478	0.49783840649797695	0.411405562315793
-140	0.38926228782602984	0.37967955970271716	-0.39850506085872434	0.21358975714163064	0.3226869098145663	0.04748571652105934	-0.14862166307596114	0.5735024795357796	0.3408167055585116	0.18394300295164998	-0.3869396438366089	0.34277197632078693	0.7013096195634394	0.3769033541700231	0.16622278052324468	-0.100713088854191	0.09666171645555284	0.561722157967469	0.48942071075850263	0.086421929081637	0.9575054621363641	0.968604979453769	0.6022824629836249	0.04428490240121856	0.0768575293865465	1.4422305785959615	1.4632065259230682	1.0161236498927253	0.4345431912895111	1.413706299073557	0.921431717930414	-0.010129689213390504	0.5489705787149957	0.34460446151513496
-136	0.3370037368372119	0.6141314491025434	-0.2468367361750836	0.4410353887867002	0.6299232824633991	0.3718609204440455	-0.10239388022796865	1.166505929862778	0.5454257712898635	0.47567859171933036	-0.009888365839788	0.31407061139920184	1.121219989806826	0.3870440413716694	0.4210468520024496	0.2657757394756177	-0.02820740633041736	0.8960470534589816	0.7097622138223415	0.34211712989261545	1.1877889603189922	0.7052703481987642	0.7427800278983728	0.22780731262865347	0.1579345460718957	1.4380234443597573	1.0938396426240626	0.7646867017512975	0.39151590963697513	1.331901785348819	0.7221919279938404	-0.05213097842286916	0.5536606297819509	0.1966102565331402
-132	0.08150570074007207	0.6590343101074911	0.08911995567232497	0.5785582050975084	0.7939553240757777	0.6273284538642986	0.13712571526715603	1.3497343029276976	0.62665843805407	0.6735192520303013	0.37871512675036395	0.39227038522863716	1.088831183545521	0.3611489227236694	0.6060146078068133	0.6121522768777734	0.05451831580344984	0.7716130594799344	0.7253959756656521	0.4572195399184771	1.2652300564293195	0.44551610834173266	0.575131176450155	0.35626712351495593	0.1596214767240697	1.221287247435345	0.5918250665027641	0.33661919747241437	0.22824470641207217	1.0500503751946417	0.42000952256972013	-0.10793831172155774	0.5086065517935896	0.031903121539869
-128	-0.19855639288362678	0.5554369674010622	0.5610051140926314	0.6277046187765263	0.8513206818067681	0.8569689967453579	0.6305140837009211	1.0718069049477563	0.572573600753945	0.7857007960509641	0.7489557247326037	0.6582834703991512	0.6175028070118171	0.31216129581793234	0.7017617207929192	0.8822113849300706	0.3986028422782315	0.2254365527898591	0.5721642360546613	0.42522919070648985	1.2153760164093148	0.3366011074627707	0.16340440470447845	0.3936904062821808	0.11168871046716243	0.9130736566378869	0.19086983751744385	-0.05925861358582377	0.029524248018825063	0.700618444104369	0.17470554963348822	-0.15745961626352445	0.445429532595415	-0.05577366785034637
-124	-0.3085042826492937	0.4051693071626232	0.9923325751999844	0.5986375197555228	0.8644666649927244	1.092398163898454	1.2889640298725098	0.4742484080738781	0.41917982591654146	0.8474777915538667	1.070049760024214	1.0853534909502365	-0.08292546847387612	0.23390750527930573	0.7399908285531505	1.0605201694415847	0.9135118699851692	-0.4753567862430005	0.3533000937124952	0.3290098301210207	1.1251251669133604	0.4449247408600867	-0.27763286162852746	0.3618226936265093	0.09376035607030758	0.688353059938101	0.08316066840156598	-0.21596531515431733	-0.07841815779676034	0.45605334524406854	0.13431459631387285	-0.14736363254534676	0.4291156221522897	0.019816482389605376
-120	-0.13439661230487673	0.3099176279826394	1.165343520083303	0.5044214116712521	0.8799076654153181	1.3109410968107362	1.8804187727182193	-0.18070638134155076	0.22829879762706926	0.8913462139513494	1.2977454629558074	1.5273600778164549	-0.6989490968223593	0.0993761268729321	0.7777429203424486	1.1546704739981895	1.3999047244013714	-0.9633381342407786	0.18016028358749742	0.2941630475246742	1.084080574159627	0.7213793974783137	-0.49048954124591637	0.330244391322814	0.19370627354353145	0.6859185678330414	0.3240999571246889	-0.03656227504916671	0.00991045867384725	0.4467488217995426	0.3546997299775772	-0.016668373676774168	0.5204929696293326	0.2847741537056817
-116	0.302047609520301	0.3150723568590903	0.9543038582549821	0.3628484895605039	0.9000180340931819	1.432593699653007	2.1247160381078976	-0.6324403866059087	0.05980786666075197	0.9216422415352291	1.3747762406925368	1.7747280552879192	-0.956559357612233	-0.11797524958865388	0.8532672502909282	1.1639914483246319	1.6366468626662647	-0.9606702899520126	0.11425143451455189	0.41087669030403623	1.1174422474304995	1.0125373576349341	-0.32170310535270996	0.3727726926928726	0.44885513073129746	0.9213767028434252	0.7869666794935078	0.40407496588731	0.3123890153627218	0.6822306496561648	0.7498949151179584	0.25455591018303747	0.7239543777307541	0.6669994575826509
-112	0.8524196722443621	0.3879149546366062	0.4218960393744206	0.20098179528038101	0.8831959344499847	1.3613270486793736	1.8327856017569386	-0.7336275559022851	-0.04874829563111664	0.9085229016254202	1.250173446359912	1.6506308275510027	-0.746364889644693	-0.4076673676211752	0.9505788659891488	1.0621649000053641	1.4767249785332854	-0.4269100118825898	0.14730447493555654	0.6701077801951949	1.158019301351795	1.1224896879466255	0.17894899799943012	0.5181702958375892	0.8064551333093555	1.2611145941365485	1.2035877674232691	0.8823202826158002	0.7302638273875233	1.027646062163744	1.110543486652324	0.606434641737485	0.9582598185187369	1.0039765809460377
-108	1.308684226546659	0.44087010510715535	-0.18799766850690364	0.0544038823363506	0.770874379119098	1.0456497642819853	1.0203754876123983	-0.5003265725855212	-0.08710869379700513	0.8038387874335454	0.9076123214694855	1.1041089268464872	-0.17038057701486062	-0.6947465521437912	0.9953741406105486	0.8074527958510871	0.9107522941483254	0.41619926585975087	0.22543214204615686	0.9519174670981347	1.0775473090622916	0.9013126469744348	0.7702582459076103	0.7253018599317893	1.1294028730488004	1.4774343930136111	1.2818859783233025	1.129957673080969	1.0787402364198142	1.2559161154509428	1.1931323975003256	0.9021931863894785	1.07726311411672	1.1049151392696837
-104	1.4978717527718872	0.38677218458753526	-0.570784030903727	-0.042520083379680954	0.5264526592314427	0.5214704261965363	-0.07295351457058227	-0.0818537620623592	-0.06616522355063838	0.5723512158248496	0.3869887580637798	0.24962194200911608	0.5138459788700526	-0.852698562376562	0.8920873977072601	0.37690910601822936	0.07238301616513558	1.1992387741328576	0.2947987012572765	1.07975315775057	0.7633683662214839	0.3206311456214534	1.1426629991292134	0.8988804198458711	1.252123829541328	1.3619941438620156	0.8491337277908358	0.9681079959268866	1.168280121714683	1.1561222047226736	0.8424597361275408	0.982416984938764	0.9389835572377538	0.8443154075286479
-100	1.3559131588080937	0.19475753556194203	-0.5289792405124477	-0.06927859020623385	0.16612409013290702	-0.08762742556859508	-1.076325890684638	0.32122191705665315	-0.0071703688991829545	0.2230398351283306	-0.2131847882848879	-0.667161820634609	1.015746471701539	-0.7499896865029119	0.5861423000795812	-0.19414922546006141	-0.8074772933600279	1.5883870084713978	0.3413185170616087	0.917725739546216	0.19952517697503763	-0.4916219698891449	1.080489990367423	0.9399170255772245	1.0644928190058345	0.8411774614077252	-0.04511907312803437	0.40047967332818046	0.9002606846014499	0.6469636543152127	0.08588781186115324	0.7499117832323872	0.4905651199353008	0.23988643228046863
-96	0.9527950858855919	-0.08229202756370553	-0.0852254850500813	-0.02641033747084739	-0.23354421497031694	-0.6149597748488956	-1.6491842228259561	0.5517391548531778	0.06577847136340911	-0.1773155774169681	-0.7585391979139742	-1.3643497194175918	1.1443748445228406	-0.31727653661731925	0.11413554818423992	-0.7980761507865651	-1.4790893755762662	1.4436629974155872	0.39489120145279416	0.4553168106504386	-0.5015244471285479	-1.2854216066331625	0.5765524492012358	0.799567816622948	0.5759716019393661	0.02445084967996485	-1.128712651264044	-0.3842474212481913	0.32103520550736564	-0.17101427869535143	-0.8582008459358207	0.23092584253658957	-0.1852804268689047	-0.5347927795259377
-92	0.4591139841409127	-0.32405382312974923	0.5259442912174369	0.0666872335776827	-0.558238981744879	-0.9189432240173242	-1.6347603756638867	0.5603493437924683	0.13143333759502734	-0.5203998671744284	-1.1207354040460256	-1.639749284418991	0.8884830452421475	0.3994639803814498	-0.3928856243704554	-1.2835084167499924	-1.757978077264718	0.87165462750662	0.4954887019998963	-0.17183288888462986	-1.141264554957024	-1.7846175387147938	-0.16337244171379833	0.5032085763624246	-0.07862757871564995	-0.8442991950653099	-2.0171248861883773	-1.1004459830157083	-0.39731070298973054	-1.0563102933917277	-1.669458742695117	-0.4264835108479763	-0.8951975084591429	-1.2176656692279357
-88	0.07122968864338544	-0.39641854066898496	0.989513513927805	0.1847714181049692	-0.6961247903414529	-0.9348394251109182	-1.1194859714853982	0.4100291420597924	0.17527943805309795	-0.6932111364982537	-1.2159414260682266	-1.4457951747631093	0.40805712239237746	1.2325718371743102	-0.7570143322905353	-1.5114198884951278	-1.5760955770754288	0.15584924777737114	0.6483859403452521	-0.7364554982665136	-1.5259582957841664	-1.7959569647268139	-0.8243091681649437	0.13559259440043658	-0.6944839340795739	-1.5021213255150643	-2.3792514740955064	-1.4951741657654534	-1.036371824508962	-1.7360062555352185	-2.066514725236043	-1.0164140437213378	-1.418733235591932	-1.5722104271294883
-84	-0.07184525561074913	-0.21730410997839844	1.0890305014771469	0.31145763318581304	-0.579120634524189	-0.6894848925348833	-0.37284555937092656	0.23388589859562922	0.1910859192553703	-0.6218106134927928	-1.0283627484107136	-0.8964799023882477	-0.04664421814824495	1.9421096991142834	-0.8336948731354488	-1.4149287903348138	-0.9970802639582919	-0.389913289754623	0.7978401163938504	-1.0258630488244345	-1.5599442681028401	-1.292976495339369	-1.1360963554308878	-0.2051118607110852	-1.08897757255272	-1.789288516295469	-2.0857789463788117	-1.455914255281079	-1.432075854500506	-2.0296399542109786	-1.9334522436918056	-1.3726741040859058	-1.6112889010756244	-1.4954265318307953
-80	0.05650418982544977	0.19636063228145112	0.8266534784426858	0.4452389765465492	-0.20874787814365472	-0.27631965209815157	0.2981175474746357	0.16573524433253528	0.18140505208468274	-0.30209508461974477	-0.6096213444577108	-0.20616994746130532	-0.25217014487495876	2.298862928308478	-0.5819875583260024	-1.0292606327773433	-0.1899691666336781	-0.5638326392243476	0.8423279502582751	-0.9424913501785741	-1.2867684331831069	-0.430814592942678	-0.9922058557255119	-0.4540846336344303	-1.1805268496271832	-1.709665174936135	-1.2623259989339048	-1.0426270935437671	-1.5395322999231742	-1.9195330094511305	-1.3643625940208308	-1.441762205298499	-1.4668395482222454	-1.0598622533742148
-76	0.3675742736119117	0.7256002407827816	0.41533929004710274	0.5931720718666423	0.34288141044831827	0.19178578209139474	0.6989663821693005	0.27767530013550035	0.15652176698267392	0.1970583791525914	-0.05659009129422512	0.4076866497237114	-0.1063417640623768	2.173348898168827	-0.08577823617259092	-0.4746864724095488	0.6283809526790851	-0.34212875279831734	0.6912103277874849	-0.5447062836245963	-0.8558804967252178	0.5157448636385127	-0.4754767703926304	-0.5982338174974784	-1.0128779385743207	-1.4009170496856806	-0.22450663092674367	-0.43734344729631136	-1.430052038396912	-1.5348514279714913	-0.6066919549883306	-1.2911159959620473	-1.1074022026713024	-0.4696142363612588
-72	0.7034668904663485	1.1933753460318166	0.14085420930586107	0.7520849685754112	0.9474794244686537	0.6181516035685591	0.8128698447685322	0.5473737702854945	0.12946471539235604	0.7505454402093945	0.513396202221713	0.8006256202511061	0.3353702715512665	1.5859184225096128	0.47858333466815806	0.0910712478245716	1.254578110388403	0.14416521751245215	0.32574766792069976	-0.015081551819215394	-0.4428592015052553	1.256804224655854	0.20598766155688122	-0.665074465979845	-0.7207252365035554	-1.0449184152924376	0.6627467257933086	0.14883251450632173	-1.23248445676529	-1.0704588863049194	0.05721773565270593	-1.0552064153732745	-0.7125296574722758	0.03910744552871413
-68	0.9106485820666781	1.4358066284168678	0.18244668795298638	0.8932865239478238	1.4509119950855787	0.9355153417809646	0.7575731258338938	0.8646478035077395	0.10780354562006082	1.2126778333564348	0.985874113931653	0.930938658748086	0.8902313090736406	0.6986884457114146	0.9181157923406413	0.5305672870591891	1.554936881907902	0.6913828236290295	-0.17184622542386466	0.4305746544457404	-0.16590107935504292	1.5948406417635146	0.8253284075880295	-0.6924032551450078	-0.4535631227962847	-0.7706543783757874	1.1368362874892615	0.562097488414672	-1.0526365015156272	-0.686206100638712	0.432338326077869	-0.8513701536618068	-0.42656668912955037	0.3049387030055097
-64	0.9071070528970002	1.3677180970946343	0.5004786240339594	0.9621232127693893	1.710811491461561	1.1000145645979134	0.6754255873793396	1.073550460012324	0.08734019078614767	1.4573613368432825	1.268046852725003	0.8428438284575036	1.326151367653987	-0.242140158399542	1.1009628744938955	0.767272172421192	1.5012905559782825	1.1111874552328513	-0.6417193992625352	0.6422575695988535	-0.04458297032782654	1.4917886219507588	1.2243196933352816	-0.6999935490101215	-0.30118447466148784	-0.6043424591065062	1.131746289256873	0.7479201536368907	-0.9172639227596622	-0.4409658003641006	0.47867524503016967	-0.7149784546920454	-0.29482185766171326	0.30226543469408274
-60	0.7109901291062591	1.0139067147405467	0.8541321732890802	0.8965947009337952	1.6332195956003328	1.0781385871369704	0.62319511017814	1.0377129290130223	0.053580619259501146	1.409732218997836	1.3000869718152521	0.6132715328945398	1.4559704028563156	-0.9890178417031043	0.9979367230969071	0.7903687933994081	1.165919420159669	1.2871159282612699	-0.9151280499241734	0.5912548884722822	-0.022060090620253676	1.0619195672880881	1.3454832996730495	-0.6817764026594784	-0.26101595097445146	-0.4911238836763369	0.7726582865280767	0.7377189379186276	-0.7739396671782228	-0.29395836517503227	0.2961879067095491	-0.594196258475232	-0.2630154483830385	0.12786982921264403
-56	0.41575616493160933	0.4912571894640405	0.9441094374662063	0.660155711891464	1.203951832592638	0.8458465316397724	0.5338341580264354	0.7061228138261896	-0.011110414722822941	1.0653390857502187	1.064202425177222	0.3002197436859114	1.213181969440672	-1.3691716159584573	0.6744454486031276	0.6318421943924533	0.6810018999072224	1.1914693087060015	-0.89514076483746	0.3612862220225629	-0.02745616242808109	0.5002390133625673	1.212252375403102	-0.620101390703529	-0.2589373284001249	-0.3622999182136986	0.28552862929734374	0.6022749527984022	-0.5406768904386635	-0.1603375967269156	0.04825352865195619	-0.40160909193685546	-0.23154491127682497	-0.0692732630411205
-52	0.13429428603121693	-0.04616620379951439	0.5952578171960016	0.2710924737761591	0.5042893873834079	0.407699107094438	0.27902111340648605	0.14556147121395166	-0.1137719971049309	0.4932354378168188	0.5947263821845259	-0.07174894940619644	0.6756917221175898	-1.331775185083636	0.2451005720864494	0.3398437193396547	0.18564802361346763	0.8727779962438657	-0.607151924030901	0.08941291995123696	-0.03079683698388906	-0.007780784721399451	0.8910264946375814	-0.5082328306717915	-0.20480142482071756	-0.19490700910950012	-0.11743193090115615	0.40932625428805325	-0.16967740612105947	0.023290172160474396	-0.12375151334751154	-0.08523255565104994	-0.12407426504757481	-0.16767901139839803
-48	-0.053548004343020456	-0.4717943954477039	-0.12603777615196954	-0.18914684605527177	-0.29918286128801663	-0.1777124996466865	-0.2143776560377661	-0.47397538899917374	-0.23994587301232081	-0.17812965765325503	-0.018531022546592685	-0.4911362218377743	0.03308384112111458	-0.9519640183255869	-0.18091735198120062	-0.03553861743179804	-0.22086016778020365	0.43182986865689627	-0.19044084798891728	-0.10731996568763841	-0.056778620785173685	-0.35292905479970516	0.4647359240242559	-0.3639636030544689	-0.050108674787132546	-0.0255452505599227	-0.3198808125525928	0.20538921602368604	0.3112505368480638	0.2616068118166181	-0.1530717160413341	0.32445016421418255	0.06839969736949791	-0.12336920170630683
-44	-0.12580367891020522	-0.7304270845091508	-0.9316289997421316	-0.5971964582624265	-0.9959636901505335	-0.7904120067667612	-0.8726604558846653	-0.9408953762140977	-0.3545313170541895	-0.7917534092940446	-0.6436969025572556	-0.9260227656826472	-0.4876130508986409	-0.3958339085121816	-0.5357503281418368	-0.4416272629078255	-0.5018703924859508	-0.0010387535413578191	0.16723687904573165	-0.18112254097032185	-0.15394633969539878	-0.5240180479170939	0.03017899386415876	-0.22247782293416235	0.1833942527909108	0.08384130128911833	-0.3243224612630737	0.02092334809087041	0.8022769073257944	0.5064249621956736	-0.051059692969154906	0.7219828349004962	0.2900092594454093	0.030048580764364615
-40	-0.10867158296089445	-0.8412943461158346	-1.4573078118724092	-0.8319373705840388	-1.3962268794094363	-1.273479220036117	-1.472922321415506	-1.0914846631149326	-0.4140629459894274	-1.2045325010405739	-1.137610671032228	-1.3015346494239017	-0.7142083626834915	0.13886624539600897	-0.7979199270130032	-0.8154063800251896	-0.6703436953786203	-0.2987639896479151	0.31737998047806576	-0.16005952615857927	-0.34357046994250445	-0.5793085679686913	-0.3061672739405182	-0.11542554170553439	0.41544037952438656	0.09840060745667863	-0.21655459647340145	-0.11989618807562527	1.1743811339291987	0.6922898275062866	0.12453056840450076	0.9818564628607114	0.45970821264550066	0.2185519034112985
-36	-0.04544558737128959	-0.8654693939292492	-1.4525200091882693	-0.8258869627128095	-1.4031045401434146	-1.4871029816275059	-1.7438623861153593	-0.8880559779634101	-0.38575506112933355	-1.3337020840350697	-1.3888760770064255	-1.5136315784385794	-0.6032879337338024	0.48592629906040075	-0.9743468736844197	-1.0855534049283084	-0.756325839040473	-0.3831491460663328	0.21511547213125545	-0.1162917834564487	-0.5883154854226051	-0.5946452602631914	-0.4563653755586799	-0.053366515650718205	0.5494607077077462	0.03853441765116118	-0.10531510386103515	-0.2025107885254602	1.3253488507187572	0.7723600248863737	0.3058670155432202	1.0272177431874694	0.517881928566894	0.3709230413608726
-32	0.03377126521286388	-0.8582842924382956	-0.9116765237678791	-0.597106753272266	-1.0549907657690216	-1.3683195079588995	-1.5137894115375463	-0.44175264127779396	-0.26866090229868617	-1.1854275435082429	-1.355597850238028	-1.4764685593521092	-0.2589910023826096	0.5585739002430262	-1.0758361789243998	-1.1906765669324904	-0.7776849250232286	-0.2687437527547148	-0.06861555559000701	-0.11917267709684588	-0.8040931204521599	-0.6205170734951431	-0.3979080011335167	-0.02308451564742189	0.5202646242357745	-0.03752163788143656	-0.07244431209155172	-0.23607788920403233	1.2203612296764523	0.7323403339969656	0.43536183128111183	0.8712603427824263	0.45164891963415593	0.44381770379546837
-28	0.11716937989216403	-0.8356480577351622	-0.0727845950077153	-0.24398101804645983	-0.5128579126761055	-0.9637665724263424	-0.8213158825165257	0.03760602315706427	-0.10501489016722068	-0.851145265337637	-1.079077002661945	-1.176937219509293	0.11522492737288813	0.3720670333051584	-1.1047422858002713	-1.1061276169506433	-0.7315080743440682	-0.07551000248202784	-0.3897390057737398	-0.20133699425886198	-0.908638296217414	-0.6658393723843163	-0.2098156804509487	-0.0018472480541022736	0.32182675518798437	-0.0834926662721267	-0.15101967713851025	-0.26390051775107365	0.8981358386252167	0.5797583446170309	0.46762800098610086	0.6059319361647185	0.2881031029103049	0.4214602102129233
-24	0.1887564207318175	-0.7738418559563933	0.7069194895062461	0.09428394562043446	0.004473683878660316	-0.4156109680173031	0.0807438565242183	0.34465008887059534	0.03399734935521643	-0.4726503479468398	-0.665909825074263	-0.7051954251604706	0.3130688063346688	0.035929534493570475	-1.0618032190217803	-0.862345037667301	-0.6143776162848442	0.013011177037588797	-0.6014728530956849	-0.35103723318163305	-0.8738481976381057	-0.7122474294799769	-0.06000546723355439	0.025726271728293677	0.006518541818790734	-0.10786178680843994	-0.32967126286242326	-0.3520694068126025	0.4494066525080117	0.3275946072413693	0.3693796982976	0.35333064109286544	0.07137800735095393	0.30549892706033915
-20	0.20437581785577344	-0.6374717934726307	1.1297193737117586	0.29603546783092094	0.31561481872982156	0.09680574362870835	0.8377664068051313	0.3810258200085376	0.07561362515670823	-0.1841443027377094	-0.24445986686021515	-0.23397043288286848	0.22639103176655997	-0.29088303373328805	-0.9598858928287489	-0.5397041426383851	-0.45101344471548754	-0.16173993010216686	-0.6186764820691261	-0.5261791335172591	-0.7473564129080283	-0.7426310162868106	-0.13375565375890283	0.05764406159867584	-0.3398747733595043	-0.17712448492630067	-0.5710224494822266	-0.5553371892259601	-0.01964951674149501	-0.012438899806029089	0.12727004257494479	0.20505547471727004	-0.16021196503720747	0.10731865438545667
-16	0.09351169294351307	-0.4159470786083429	1.094935056782979	0.3099958590787096	0.3603375246963906	0.43428838143373966	1.1679656476096418	0.20425839670586238	-0.024610472780915486	-0.0531513093560097	0.08798507578808624	0.053738713128788126	-0.09839713548612922	-0.45890724543103123	-0.827254889306951	-0.23501080215247386	-0.3029837898711021	-0.6370937808164195	-0.4439908552881037	-0.6757442934141489	-0.624432025763396	-0.7562132458667766	-0.527580677130969	0.07896941135257377	-0.6310158952040182	-0.36915573384542194	-0.824742136303499	-0.8747808911171963	-0.4187483180917795	-0.4178395856798282	-0.23343974292945066	0.18518105102515384	-0.3801313033043293	-0.14729914031986263
-12	-0.19831410000322655	-0.14353255891324226	0.7245787959878446	0.17636637345131653	0.22586385848717502	0.5546483383480302	1.000804779386968	-0.005281746839807848	-0.2620117657721997	-0.0520157030401646	0.3007202438868268	0.050373539201394174	-0.4795516121200896	-0.39550655980390165	-0.6963642221989111	-0.017471786544318385	-0.24878939923415658	-1.281199094398645	-0.1586684282588398	-0.7574007492016386	-0.5883312806534308	-0.767000434846347	-1.1701381176969303	0.07437389325199371	-0.806693730701789	-0.7072254997517503	-1.036631462340948	-1.2399506537602947	-0.6899192315802649	-0.8378301241702353	-0.6376153810615321	0.2541228526375152	-0.5661607966433964	-0.4114401330096754
-8	-0.6466631873016586	0.1119151634132536	0.2792524986369199	0.006123728103375953	0.09983811502283915	0.522645412556027	0.5084651099718948	-0.046503964694152265	-0.5815773591616937	-0.07464875262010087	0.43340644130954725	-0.21339657848840132	-0.6886103731889467	-0.1452644165663023	-0.582983134705172	0.10359268609356759	-0.33459058319492807	-1.8294440461699772	0.11551037401599679	-0.7436962704955469	-0.6546704156559234	-0.7858511189647082	-1.8253375245738999	0.03801197176515304	-0.8437588789617851	-1.1187152834303982	-1.1568579644559234	-1.5310583075968518	-0.8093579987118775	-1.1889104813122544	-0.9730442141761425	0.34296640667155337	-0.6927412730846756	-0.6211376770549776
-4	-1.1103252144437077	0.28436490821568716	0.014081101829024976	-0.07222303729896234	0.17046205656406285	0.4679352331268199	0.013196349110664356	0.18676751804881256	-0.8957524277006007	0.007363941967521621	0.567189751623556	-0.5687427506392579	-0.5667909965510154	0.145633801450204	-0.4711221444633019	0.18069134606994414	-0.5280009494802193	-2.003035301873364	0.2664616399236388	-0.6219050868545232	-0.7545925359747808	-0.8015820959834019	-2.192790025896843	-0.024178354008546094	-0.752330658920555	-1.4498423301331402	-1.1497539252816598	-1.6348575312346252	-0.7798014263492143	-1.3736365998873086	-1.1293419571019938	0.39756402272938635	-0.7329266052814962	-0.7162713390386041
0	-1.3559774126149993	0.34750586660386373	0.05760827646015916	0.02775454886700879	0.5256623016437165	0.5161917792639102	-0.17792373850723717	0.6416984780322719	-1.1119762630998173	0.2767744653389619	0.779844222484055	-0.7773344497128342	-0.11024326803268622	0.29289197847804815	-0.3171441845039296	0.2990736059744192	-0.7075364571827584	-1.6543673235132486	0.22759681882616062	-0.39305257698004975	-0.767568347900333	-0.7741185407167421	-2.062363619365786	-0.1028887477899669	-0.5633639082990174	-1.5327111443923003	-1.002948281616969	-1.5070452652075277	-0.6212521179726574	-1.3168543543946838	-1.0463312837886263	0.40466788308971624	-0.6723303181839684	-0.6709085685957306
4	-1.1537513703780735	0.3282041839419482	0.3715447476066327	0.3098258666322394	1.10300886352529	0.7271534186124173	0.0778970418393854	1.1304796905585939	-1.1625776261541292	0.7247285228551423	1.1062688799584044	-0.6401042922071342	0.5217033611477304	0.16461677807731015	-0.07459268700125057	0.5314709530763472	-0.7055269461938743	-0.859572468017929	-0.00420607113148794	-0.07225491833325609	-0.5856946691984481	-0.6480493529170553	-1.4378251993117348	-0.19290380131178522	-0.3133928469851721	-1.2684609857958569	-0.7315777521736346	-1.2024754255452792	-0.36143943576157117	-0.9983527039117442	-0.7425168137877093	0.3927510370828924	-0.5202973471856736	-0.5085813390289133
8	-0.405030219724391	0.28855746911628055	0.7981978634708892	0.6952097994418159	1.7210452513157892	1.0715010139115413	0.7044724208211706	1.4348254167570527	-1.025046703611652	1.2529563872174485	1.5236835441267016	-0.09405840164517383	1.0844790908135893	-0.24024341939828833	0.2731990211264924	0.9013624764573412	-0.38955745002621234	0.1012425271100717	-0.36839350964995865	0.30932819765194375	-0.17279455022100804	-0.3790350248780658	-0.5508283362786647	-0.2922201149238362	-0.03440595036999101	-0.6804890019402251	-0.3707016101060911	-0.8504117109762384	-0.029510585516689947	-0.46418008091080637	-0.30566725057675986	0.41105937853981156	-0.3081744901505841	-0.2914824180396361
12	0.7662832121575756	0.2852982275435462	1.1575595111231585	1.062138077915283	2.174952501527816	1.455450888773765	1.4671933613927388	1.4270226919384958	-0.7276076656091037	1.7232768492105455	1.9669116685798629	0.7527508716651605	1.3693606818912074	-0.7768284062799687	0.6937948447830654	1.374333497392263	0.2600421898952144	0.871275005525004	-0.7574864010759645	0.7077934724103809	0.4158192862502671	0.04098459695362795	0.24601390895719796	-0.3886881758890028	0.2524437003914648	0.0946769041412853	0.04024241109462952	-0.588092742865642	0.3493995955705638	0.19199337016746212	0.15246488115440796	0.5056930171596797	-0.07079772633320819	-0.08481912293477045
16	2.022331232687073	0.3335714033764869	1.3347489800132615	1.303044196653672	2.341607803154781	1.7721097424588363	2.1008388943083185	1.1436965436670092	-0.34066212091267695	2.024741406097126	2.3592593610325783	1.6595714050354489	1.3083351817477356	-1.2092350690829001	1.1106482716175745	1.8754641962384189	1.1149742575151609	1.186231729373522	-1.044058677898368	1.074665186076099	1.0583124134046782	0.5687785134260328	0.6513546092754401	-0.4503750789715548	0.5357367978875069	0.8693271257386622	0.4677572238556476	-0.49319857234411824	0.7530742268622507	0.862821278777854	0.547001062442655	0.7000461799113252	0.17274127856987453	0.07942987958404288
20	2.9359376356386173	0.40063145655571775	1.3138356175630108	1.3729557956364031	2.240898603503652	1.9533063123977823	2.432788127479016	0.7697565536138025	0.041937909914468365	2.1258871501654877	2.645326607701075	2.351392024779248	1.0067193482730974	-1.3205594983138569	1.4347903692260133	2.3241615236730717	1.9376374434187877	0.9987796519811925	-1.119030592000464	1.3692960704564339	1.6233117539429136	1.1174058885972784	0.5625706300837046	-0.4320605088292723	0.8080953935247882	1.4865046702047613	0.8859801270050586	-0.5505329356599037	1.1565563649541213	1.4594967328416142	0.8485485293899085	0.9858109926129952	0.4249776293038504	0.21626937334771013
24	3.1805834689900623	0.4327030468983288	1.1571643323292955	1.3073894944561169	2.023041243213845	1.9998100945527104	2.4487354693576986	0.5362560735514791	0.33050444638731247	2.0880689568253006	2.8142795491690413	2.6400589876277047	0.6837130171679862	-1.0187131140738097	1.6103354651802044	2.6708726815501516	2.4863669809509203	0.4885884213032828	-0.9279274917062805	1.5738385876020622	2.030410761475268	1.5855809410117465	0.11343896360366983	-0.2943528585154822	1.0638745996317849	1.8821312141582929	1.2702249256488864	-0.6704625470400024	1.5308296641800705	1.9310550640942812	1.076276657248178	1.329061385613864	0.6989632827277801	0.36956366803323476
28	2.693359845037078	0.3973425914746049	0.9535744762187071	1.200253960440109	1.887436981204223	1.9740935514200066	2.267908567424716	0.5936590418132277	0.46503728510747944	2.0313687273236796	2.900667660065434	2.5039899285992977	0.5543529973339137	-0.3852569451142033	1.6469193655394991	2.9150988982034374	2.6311721735327103	-0.04236154247555929	-0.49448582405176	1.7022913651402989	2.2811970653159706	1.8966361236370521	-0.4124304641801182	-0.03124613493242644	1.3002454009606652	2.097241873214495	1.5912500579713105	-0.7463965993156335	1.847447986706797	2.2662291469577647	1.2630021540225298	1.6820695357769864	0.9949440334949353	0.5716421589723917
32	1.7159669355937475	0.31085142414765543	0.7683646063478772	1.1514025897519844	1.9752377221782262	1.9598886917222889	2.0491418786765117	0.931185779604701	0.4310035098638166	2.069410080453342	2.961689941558096	2.0836565441930084	0.7187562566730163	0.3540705433489167	1.6173120696242602	3.0959076803244536	2.413330548869084	-0.3286271683025288	0.07564511131023134	1.7948118402942803	2.4460613665812465	2.0248882719414816	-0.7396585326593667	0.3108799747724308	1.5188093147078556	2.239917034215969	1.8163796617425123	-0.7170703989044456	2.0889651722618807	2.484886401578438	1.4195485079211114	1.996260876383876	1.2846322027197503	0.8090326765615148
36	0.6812423450436392	0.2307454490796323	0.6228001101982108	1.2116719453737448	2.294171565939341	2.01325988261232	1.8949874591667275	1.3811367715297496	0.2640838318356175	2.247277015734252	3.04454230493534	1.6056604344836947	1.110256669102389	0.9381896233713501	1.6178129870576878	3.2635424054718953	2.021709437034346	-0.2727226310043279	0.6260694249558867	1.8990123223996687	2.618087046688916	2.002887720773273	-0.7432869654009077	0.6427664144500163	1.726588364056616	2.4227793155536026	1.924216146379309	-0.5946765527016195	2.2618679943198496	2.628884308853428	1.5269122085167435	2.2362246456907453	1.519991513229346	1.0226718161512172
40	0.0020140972868911066	0.21362261420198012	0.5054749833696418	1.352610584658717	2.7129592827012177	2.128755564083417	1.8041433050381768	1.7037446455855432	0.0326285026143735	2.513707869858942	3.157092324869074	1.2718278137521393	1.5263205728141966	1.1893389194978183	1.711626048535005	3.4446787747197702	1.693052764432728	0.01929515409068395	1.0018724177814895	2.0449495263921746	2.8557298111340916	1.9027092408778836	-0.49724176400528164	0.8689946510309445	1.9315891217101204	2.704272024956427	1.920253868023224	-0.44857862478488253	2.3994448124386882	2.750213139266096	1.5568650921615177	2.3905005394662755	1.6620993572232803	1.1423728437191794
44	-0.13038739529114954	0.26596632532680586	0.39763936300019226	1.4752709828323056	3.023144952770735	2.23614763648989	1.687769051105309	1.7069005923091427	-0.1936616594670297	2.739461653468656	3.2547905362923317	1.164391872327222	1.730080600185189	1.0808008881937865	1.8848043632604303	3.6171116737595166	1.5836094577861333	0.31453636209230085	1.1022957535569977	2.2238078061224855	3.141266338046848	1.79362010502965	-0.20567399211454268	0.9338787770534986	2.1320242827946463	3.0571560782494402	1.8355328990369895	-0.35836639909864504	2.546234839686487	2.8925514148161504	1.502669926664192	2.473621123744331	1.710832949133626	1.133908864973154
48	0.1681936826035729	0.3231555513329296	0.2884405844081711	1.4559559785323164	3.0360312385200605	2.230116361709585	1.434818860246144	1.339846726849451	-0.37522819543516245	2.772725813540922	3.2528314508328	1.2173013656399885	1.5696411093182872	0.7325541954618798	2.0390818067567205	3.708124628241645	1.6866350131366754	0.3931457986442431	0.9168132520416533	2.3798899590487284	3.3764405165302387	1.7025550560881193	-0.06759678555349757	0.8518636205146564	2.3034706057565613	3.374356976572731	1.7102899508210931	-0.36319565681312166	2.727846377161312	3.0673754137796694	1.398037310885273	2.5194942887591276	1.714887853107458	1.0305645439831577
52	0.552676974331706	0.274099766516064	0.17421501830938643	1.206929084591652	2.6663978032502924	2.018478150039941	0.9841950510925694	0.7127767783288906	-0.5228388892324795	2.5069374974852887	3.059973709010149	1.2614078489881029	1.052056190695559	0.32517638720429237	2.0323953577226987	3.6180803684439606	1.8371934844362394	0.1677536364134684	0.5203766213630246	2.4235000549164067	3.416448107676788	1.5949788053297551	-0.1603998984817098	0.7001669389213353	2.392176860491706	3.5035815150495706	1.5665279587295284	-0.4425688672812874	2.91888522364859	3.229995719384107	1.3038126197321764	2.563463681424605	1.7464513734592866	0.9215732789613981
56	0.6464539749990251	0.02438882359665206	0.04576323169836657	0.7214090209866922	1.9633696029683834	1.5674494465354294	0.36581912544396444	0.038660071692611056	-0.6917541009603979	1.9284118365237453	2.6212139063459383	1.1188694210413983	0.3394854656231367	-0.010839621509066283	1.7468495324853808	3.261838666309937	1.8048407985895774	-0.27774703432530645	0.03448065734144774	2.2614071312076103	3.129980794633569	1.392194386781983	-0.404724805525333	0.5757260904081563	2.3229277075293364	3.2995614922187246	1.3923611605776436	-0.5321002589142969	3.031589738821191	3.2754664338383965	1.2722812858884456	2.61960076624381	1.8527440978002983	0.9027485228634488
60	0.24958753522800634	-0.43894320615572147	-0.12173390357753913	0.08107892403397719	1.0805960866348552	0.9236547327563444	-0.30611595434149613	-0.4684929239842528	-0.9481914019486982	1.1237310142755839	1.9509255836821744	0.6969934088275715	-0.3280392280879488	-0.25597986514312643	1.150084254222171	2.6122751170008307	1.4264233076321478	-0.7432748060534042	-0.42342156064895037	1.8357819272422324	2.462072843057545	1.0231204007066643	-0.6204200967383384	0.542175768437046	2.0255997129797243	2.680991166021675	1.159036633426253	-0.5538777098976747	2.9428417608348094	3.0722949427284303	1.3182969060038956	2.669469349797103	2.0190601297900583	1.0235027048972885
64	-0.5573289976353906	-1.0224467490131135	-0.3609662642902164	-0.5761558398959018	0.20677202887782264	0.20198817500138905	-0.8793421365471169	-0.6882477385310488	-1.3239679303120875	0.2454763197661648	1.1391787500230202	0.03720569228673139	-0.7443665843289985	-0.4861782478932302	0.3180890671328459	1.7258398489294164	0.7084273082013222	-1.0280637715132752	-0.7777202705774913	1.155406591359307	1.4724417887705399	0.4857055532590324	-0.6380751712901687	0.5974395856078515	1.4716865979231424	1.6743431049035493	0.8648599364379596	-0.4450781632153512	2.553137772789787	2.5281221802778715	1.4184949362227217	2.6680207185141396	2.1683030073734617	1.261553999576723
68	-1.4661266766725314	-1.56219279371667	-0.6952722651093829	-1.114326712655956	-0.509260712768348	-0.45910239103753314	-1.2255066602283418	-0.6399721487100007	-1.7887837841647853	-0.5472542629730216	0.32339569844612337	-0.7030829173456749	-0.829605577281668	-0.8002197126212105	-0.5907255396233685	0.7358035426636064	-0.1574656959372762	-1.0364022228777208	-1.0058571074839535	0.3066174976236924	0.33106294190744784	-0.11750978946819743	-0.3922072937123017	0.6803664547908763	0.7064080816553643	0.4286103833821267	0.5780515656181968	-0.16964960055434194	1.853623504727094	1.6609781938578858	1.5413620433038695	2.5697500640839044	2.204436773456549	1.542042370717618
72	-2.1205608791218062	-1.9086226176711203	-1.1234297724016495	-1.4562772475668446	-1.0060174439779945	-0.9581445431360324	-1.2962223258670627	-0.4632330823170059	-2.255259269742419	-1.1475002736683921	-0.367060958412402	-1.330466267087673	-0.6569398625000167	-1.2324702708598694	-1.3982518876059227	-0.19010183167145198	-0.8833537675489515	-0.8150510767385806	-1.11995923236372	-0.5620328769798987	-0.7322701793302422	-0.6039105638515542	0.056146126098736523	0.7162312847174162	-0.14044314587420542	-0.8105546811620117	0.4384109664815434	0.2843735508891578	0.9679316257834415	0.6365483983181017	1.68771326115794	2.3682560860922615	2.0811626858619023	1.7919826462325146
76	-2.3163886011768273	-2.012255425141101	-1.6153901774629746	-1.610005493867561	-1.3130409684408717	-1.276908036822809	-1.1474871606465746	-0.3484304836536075	-2.616590016434517	-1.5330089291968463	-0.8674676992449437	-1.7088690953025247	-0.4073771526064966	-1.7066128210848936	-1.9758512923899951	-0.9117506719457925	-1.2273138730533688	-0.5126634227206944	-1.134869572635218	-1.282041784864352	-1.5069594345192678	-0.7898740748490214	0.5677822813957722	0.6725727898783025	-0.879996655149743	-1.7678915217587319	0.6014820918156017	0.9064473486902918	0.13687530125392564	-0.26151764326825927	1.9080578040586547	2.1229619926258763	1.851508970354381	1.9910023162164885
80	-2.1061582512132233	-1.9611257265168343	-2.12366532743245	-1.653845067617045	-1.5175390205216097	-1.4895330629888632	-0.9282723045754356	-0.44890591388851786	-2.8011934686509328	-1.7591021016530546	-1.2059196203302847	-1.8233679486969145	-0.2747963361954729	-2.06704759075899	-2.283378595309242	-1.3697879279838787	-1.1164525719111476	-0.2876954965480375	-1.0483337614294446	-1.7167071060706995	-1.8759068203294034	-0.5877361878814957	1.008520719842951	0.5919907078101767	-1.3197448220311239	-2.2271749917066357	1.1471761436109218	1.6546028810688063	-0.35523539691882117	-0.7260358911303451	2.2784924449614707	1.9568279932208001	1.664804454414937	2.18466090604432
84	-1.754744525293817	-1.9426003645488357	-2.600171321026141	-1.6872900681811032	-1.7092684464215115	-1.722735400618773	-0.8332185724202511	-0.8120245913031064	-2.8111669946267286	-1.9137861680349757	-1.4821114502680381	-1.7815332367740335	-0.3666224172395743	-2.1620588248025565	-2.359453433755477	-1.6002269942889777	-0.685277460275456	-0.2203157985608444	-0.8405831434961702	-1.799013014066022	-1.8494367552793516	-0.06776198727665607	1.3142520156103605	0.5826043471885808	-1.3259875740905578	-2.10374020999008	2.0055127093225535	2.44297336915252	-0.2820538871319681	-0.5444421754442633	2.848903648813069	2.021575684211808	1.7088605122336986	2.453700059417796
88	-1.575968738391667	-2.14453267509705	-3.0057070179392733	-1.7722301438409787	-1.9281490992502386	-2.080773586741791	-1.0309400532442945	-1.3566971983034897	-2.7189104488391465	-2.057145113519587	-1.801765079717643	-1.7507706836366748	-0.6515119059326052	-1.9289147805150901	-2.272580379470416	-1.6988434748673267	-0.20350074716687405	-0.2801616780837059	-0.49212339396205196	-1.5415209492864395	-1.5408456286628394	0.5635079131204311	1.5006064138672779	0.7695021609905434	-0.8676063396483412	-1.466596957318622	2.957540504617889	3.143224708250644	0.439719854675184	0.31645968476505726	3.5976798443560627	2.441065066850209	2.124644512534348	2.858376495774016
92	-1.7483649209703245	-2.648458474148246	-3.311326256974788	-1.8995510291777886	-2.1435153430225924	-2.573993914781197	-1.5885320861764147	-1.9068392467039432	-2.6211929255110302	-2.180983061052385	-2.201567405864306	-1.866506691034899	-0.9812566017172063	-1.4317353927704084	-2.0677833504922396	-1.7546133950756422	0.06739070994528755	-0.36268365291579374	-0.0077715324973052936	-1.018012759499467	-1.0985820265689983	1.0638447973094725	1.6224263865516553	1.2325983016365236	-0.02434221090191024	-0.5014816509937072	3.726202240119221	3.613700857575501	1.7174916224032524	1.6990730719584217	4.425107944760294	3.257403365494109	2.937724106047315	3.3939313802861273
96	-2.215913051732628	-3.370120516851371	-3.4923865706961212	-1.9947258183662062	-2.266528123855203	-3.0873315256372442	-2.4172446666723126	-2.267472023007483	-2.5761084491539106	-2.2068455163551306	-2.604908936599507	-2.1521165316605444	-1.1737378806044068	-0.8226335623952484	-1.7403123334815	-1.787566299693677	0.01607483062559938	-0.36609345582085057	0.5732663855384204	-0.32810720718514347	-0.6307486279775201	1.2856460777248198	1.7174850658923437	1.9627784441029934	1.0425591442488946	0.5674374685266171	4.115934838393664	3.753191938461113	3.313720933177238	3.319584838115436	5.193421350718438	4.402125347467245	4.040720929434391	3.9848709005836995
100	-2.72723960187903	-4.0838966266520424	-3.5260400683070774	-1.9589680383814128	-2.1913351957308382	-3.4162678632314423	-3.276882401776106	-2.307922357454306	-2.5616412098105537	-2.027714962608173	-2.8422744202378873	-2.4994330343084346	-1.1112275095540394	-0.2614809566094926	-1.2547253338606266	-1.7320282415529524	-0.26035040551256977	-0.2621175640164089	1.1847345799098337	0.43312144170127326	-0.16589185553628724	1.2609816757790349	1.7717847779363414	2.8574860023833195	2.1399536078783865	1.554754134067482	4.1209854975606	3.5508887678140426	4.92079924294727	4.869781958682766	5.787577614477127	5.704567894838073	5.231009470130373	4.517445552864566
104	-2.981273405177476	-4.521075237303644	-3.397995463375232	-1.7261863903332657	-1.849448914626855	-3.3586084757885173	-3.844989051647927	-2.0163404890651133	-2.4856493410296365	-1.574351068336547	-2.7326507499366577	-2.7162699630822633	-0.8010423759263234	0.159258097008114	-0.5959964975568379	-1.4793800078234571	-0.5129525052471252	-0.1130076420434223	1.7525813535310901	1.1874623268664477	0.3277142635654538	1.18172549903059	1.7318183139945835	3.753937234937503	3.089676849193945	2.3499596059596226	3.9267492195170637	3.101701728619151	6.242799743149579	6.101867660375515	6.156529411030965	6.932658177992326	6.280518515942531	4.888757216508393
108	-2.7915084291551215	-4.4903263932345485	-3.1119947354901365	-1.302836057234642	-1.251002427757355	-2.8198726106020637	-3.8369336031361603	-1.4999608955659902	-2.245990509084668	-0.8706645347547558	-2.1881759111471397	-2.6193923884062014	-0.36699506547776917	0.44200485833152425	0.17990419223186652	-0.9613227223920768	-0.4842100429230713	-0.028565378787518518	2.21189879812643	1.863983626427927	0.8756548144166866	1.2755602565985507	1.5466661414197505	4.4784517175137974	3.7528648281714116	2.8970177100471837	3.78865360257141	2.562795632567649	7.049389821374365	6.856715661857158	6.302316172900437	7.845841864804191	6.997179013705892	5.036088930766543
112	-2.179032797080258	-3.959099998015098	-2.691245787501522	-0.7659123520587193	-0.4876096534338972	-1.8749104690898535	-3.1308934609520653	-0.9274126267860107	-1.8053605510907065	-0.04121967767202857	-1.2818195787491904	-2.1281495040568705	0.025371104414780177	0.6504856331614536	0.9362977123463111	-0.22170267943197666	-0.05856363460536827	-0.09127176529967035	2.5147709783004717	2.384810680090382	1.430880542957198	1.6468489128495525	1.2092061012256126	4.891372191477377	4.033443440744269	3.1447935024971714	3.854223480030374	2.0688011594038542	7.195431214285675	7.0423574269829405	6.227374537957811	8.245511034174761	7.256210308828267	4.933583247126419
116	-1.3466846908901091	-3.057254545122361	-2.16751503397152	-0.22293475213985686	0.30100479646026607	-0.7503434996734053	-1.8416558457607275	-0.43856742867368376	-1.2337360350931237	0.7334347348769236	-0.23671148657639507	-1.3156932559173906	0.26788222722130645	0.8459510781864444	1.4973353109702632	0.5710781798249509	0.6603704674260475	-0.2989639632306317	2.6304728918419706	2.662317030860693	1.8558834744326917	2.1781134550415637	0.7637549023418764	4.911794650074497	3.8721306226243226	3.0138204021656154	4.03303955967229	1.6483300882684813	6.61830900428647	6.599666578796428	5.878521904408648	8.009886721415164	6.999362451047791	4.56469677726309
120	-0.5552045688916697	-2.003100390145294	-1.5608773192097984	0.24512851176361733	0.9839489435149132	0.2705200307691815	-0.2994776956626537	-0.06737538410103837	-0.6841853243719939	1.2960972753226396	0.6671639664018156	-0.38923472067789083	0.37738683724489797	1.040701505894515	1.726081128530858	1.1906361549834346	1.3910708392308038	-0.5601450190706941	2.5448892052294356	2.622691624695479	1.9778023908271467	2.5583770210523156	0.27581235696774903	4.523519027733265	3.250794640916678	2.416857951737986	4.00256155910837	1.1888297766234324	5.337147699232517	5.499536023560075	5.134266840369742	7.112735253495927	6.221492274789068	3.896992196734527
124	0.02133535588361433	-0.9951564048437338	-0.8609764554220686	0.6285163148270282	1.498575564415618	0.9813600753802751	1.0760558816444872	0.2750885479657465	-0.3074780098781421	1.592093106064885	1.2317880360974927	0.40252771871981446	0.48767992730991	1.2015014856521082	1.6027487475937683	1.476039525120099	1.8228415204755875	-0.7492266874470686	2.2673551979040183	2.2518184128175127	1.699276919843039	2.4446735320358006	-0.21387383287791292	3.7714013958125996	2.2158479634606976	1.337710377176805	3.36904644115523	0.48043990013893456	3.469536772551297	3.7913172149304075	3.8630163572054395	5.632866368377257	4.9716515415554525	2.8913705275968415
128	0.3760401299042429	-0.1268526610509589	-0.03237158424429843	0.9939512585340629	1.8789279413468611	1.3534839119117612	1.9527727316191001	0.7438742499643969	-0.15238366982610654	1.7024764971665038	1.4496104680655493	0.885997531561289	0.767110882252837	1.2961004939734493	1.2566288677913673	1.4418330156163133	1.7879716112771264	-0.7885441760181505	1.8432868672562432	1.637783642448551	1.0990763874915173	1.6689319568459222	-0.7218156438723233	2.7548651625697804	0.9072436667424805	-0.0812064034676687	1.8978887748484892	-0.6810078007670403	1.2521984545563982	1.6687277513334373	2.0216259905318714	3.753362884581897	3.3685302649327786	1.5409353932576444
132	0.6522437913639544	0.6355780347036083	0.9511122679538969	1.4491405450473265	2.240973228518722	1.5525354107759646	2.2359454575353226	1.4565384351195911	-0.11352518172211976	1.8153400375309647	1.5236912927305029	1.049640056821044	1.3084849086150334	1.3469932045306876	0.9330288148211475	1.3098994460412716	1.3663486207797324	-0.7019922119536838	1.3636996711633125	0.9811666583084674	0.45812579873767645	0.371959685340189	-1.313735958597198	1.618051167217609	-0.4317789960927089	-1.505862947476748	-0.31488153258932366	-2.3803553521139595	-0.9614481305643676	-0.5015737401696527	-0.2621428363857299	1.7447800592240041	1.6150912005655362	-0.08162675777330525
136	1.0487526628718684	1.40349459293784	2.058632607030846	2.081284994592673	2.7250888278823853	1.8544539166360081	2.1102135128149233	2.3996629654380155	0.03357291213142307	2.141380543070707	1.7773835614152478	1.0530288192865482	2.0556392617777832	1.4478874169987326	0.9004954672966274	1.4282947742640806	0.8551307895051259	-0.6085832103622788	0.9536210274461592	0.5494599924520108	0.17421813265206806	-1.0291274760012512	-2.061913008252422	0.5286250697140865	-1.4915221891892856	-2.4796705183366017	-2.8426949906103607	-4.5236072426073095	-2.7547037531921363	-2.2385902348266185	-2.6856400898838393	-0.07648793588638864	-0.016495997044518946	-1.807277317252554
140	1.7079055266175185	2.2772719802581314	3.1776578346132935	2.905346624668489	3.427667847562401	2.502861970304416	1.9463204096291653	3.403967133510912	0.5171115385351172	2.8187110352876137	2.4946865972476644	1.1492168874335893	2.812216990046441	1.7235974029893384	1.3457148041127727	2.108770841996422	0.6180810316693233	-0.657219169864729	0.7360720019829969	0.5912367686603163	0.5956829175214664	-2.0318717905243138	-2.995920412129021	-0.35623481779756927	-1.9769804427777693	-2.582014315761924	-5.110179888221083	-6.865041238618365	-3.751025428838287	-3.0907127779175254	-4.862480151297636	-1.4143694603496537	-1.2431536881531478	-3.4061193380190278
144	2.6486098699455933	3.2683403409456218	4.136900414512606	3.8471729658269833	4.3531107792621375	3.580569735070038	2.115663046263689	4.207381714688662	1.4317010604951046	3.84999560337784	3.7706751728224894	1.5573359688540545	3.330862513715625	2.2570850792165693	2.298389190592999	3.4627668770148	0.8946666694941134	-0.9380027032058065	0.7851319293226641	1.2372983662837758	1.8528605652758952	-2.2982613982349234	-4.074089516844039	-0.93311184409111	-1.7117427544291806	-1.6078296859201735	-6.660672647825752	-9.10417077626955	-3.7359626198858384	-2.8070070672690677	-6.467636568906383	-2.070701355474496	-1.8571608019670034	-4.66230248227789
148	3.764405717882264	4.272436131180909	4.774559962615805	4.768311965347644	5.405886636436898	4.956992136837825	2.798766367521807	4.579143035771539	2.6557381086055747	5.098482595922735	5.446007714826813	2.345178121367813	3.4386408242192674	3.0285701675244936	3.6176283268191254	5.3203410967969225	1.6679093795627373	-1.4246573412212011	1.0866550179702659	2.432779782828769	3.7738342189876093	-1.8304921342410614	-5.1920466291948095	-1.187667605262536	-0.7196129542302101	0.32162427821019357	-7.365175228597103	-11.001022311092276	-2.7442107131337896	-1.4522855245163149	-7.363175373560648	-2.0079431483117784	-1.8034905149702447	-5.4528126578943485
152	4.875540244190688	5.104917036519282	5.017414557186982	5.519320950878287	6.42704485224251	6.3368730385053285	3.8810162446264247	4.444067943796897	3.8744034669331593	6.343068106849062	7.159423333212035	3.3749766264582512	3.130933515273253	3.900314082788762	5.045438753740984	7.279749375083535	2.6589331559760483	-1.9818620631725488	1.5292218884959585	3.940447082107602	5.935996517453235	-0.9716027950551785	-6.222447379614538	-1.2023600309532854	0.7638079504755925	2.783528797751318	-7.453570823924463	-12.447267500922303	-1.0609791252051963	0.6030002817188426	-7.632783393662424	-1.3641233409773064	-1.2033179968016967	-5.783494457901742
156	5.798588261269396	5.57892559550319	4.922144400567165	5.99406431592113	7.253105622099046	7.3860096744978705	4.998655306593475	3.9270524879489153	4.708590018782119	7.3614978604423245	8.49609945059531	4.350826252442954	2.5725817615407442	4.665290820740804	6.299062236141074	8.870424248234215	3.461318722568994	-2.4392893252775436	1.939310068956252	5.418307290702414	7.834979037530591	-0.2236206674890391	-7.063518506336252	-1.1235480280165855	2.364730828990566	5.211661802485129	-7.353109341176395	-13.463743175846183	0.8740605689869043	2.823742859386848	-7.507925491450805	-0.40477523105468566	-0.30574291867311115	-5.7636880729114655
160	6.38948772724578	5.586849675378203	4.647148597428455	6.158714755721492	7.766827086866477	7.870007495083755	5.711621270064406	3.291194430624859	4.8896365042259	8.001491526429035	9.16015908789577	4.9491658085799966	2.0095531889723866	5.138213621518225	7.161489468613313	9.75089738291309	3.7446586991180335	-2.6849987439076752	2.1492700522518375	6.540055258451327	9.09056851952899	0.018455808935656636	-7.665660361963207	-1.0997521849522744	3.704568138306166	7.116652470740676	-7.42801616700656	-14.133598291952813	2.625157826471479	4.719690787797061	-7.226867180698006	0.5742725119396886	0.6148569568369177	-5.532352433541918
164	6.5587038828244095	5.146851526617265	4.3627228626729275	6.0481309738046445	7.923762301466591	7.740848044878845	5.714577183600644	2.8053920198183113	4.391188610434311	8.214681604626133	9.089390731751202	4.966611849643128	1.645772095339759	5.234775053159196	7.5376920509764815	9.844533895433027	3.4165522965955923	-2.719199412156288	2.0660614915183153	7.109720688989378	9.589121794332275	-0.33193492805598784	-8.024060229069809	-1.2181707589864872	4.538490760788727	8.263453462718328	-7.771387557436017	-14.516599618500477	3.91405486072343	6.023932918598405	-6.907243234361425	1.3547215427527526	1.3671566213422677	-5.179930197035459
168	6.2753228982798674	4.395831096994855	4.149536122335928	5.737768158731301	7.748572806822232	7.1358237086378296	4.982644068535755	2.6103169852156136	3.445551625135657	8.048061350530208	8.462024667356145	4.413929451288761	1.5477352103257427	4.991579043183608	7.462813835375735	9.348524070025176	2.659805767973357	-2.6436836652766345	1.7055990652891133	7.122495156425387	9.494552588333246	-1.0265526745627447	-8.154978731546889	-1.4699516259274008	4.836654174037402	8.722005822095262	-8.171424845091792	-14.605564080556135	4.698809611854908	6.754703027837372	-6.508189184923382	1.8645640564572843	1.900469417542169	-4.7162575602666665
172	5.575108037224254	3.535156956330324	3.9526085753782887	5.310383306447307	7.31376360000376	6.301483615224316	3.7802278900072337	2.658580534898447	2.4353303847815577	7.609625320295599	7.601593952060262	3.5115210921321864	1.6305646855194504	4.525520790118348	7.071056348114095	8.619715668850104	1.8305859519517012	-2.5931732589100203	1.1763838499885955	6.749722463732515	9.132276511977398	-1.6372964340833869	-8.076952913872791	-1.7622706845613143	4.773993003236133	8.777973152886576	-8.26193425953613	-14.346416437167452	5.1475901473734575	7.142292004672524	-5.895439133064666	2.180299276569248	2.2895812930474877	-4.09768055834942
176	4.570619571590178	2.755814545349366	3.62624978103625	4.83576916427401	6.718616945469984	5.488160119505544	2.5354294712903065	2.7612643172167104	1.7192846493228588	7.030529481303574	6.8333678073018485	2.592225783479063	1.728437657760748	3.9648294348750217	6.5425205065530125	8.00199125176957	1.2786916462085647	-2.6516148977090026	0.6265944226657428	6.258270247871262	8.814917542136563	-1.7968795254163181	-7.809936503719306	-1.9675439546500437	4.635630119063982	8.761523224644417	-7.758252124272159	-13.700133289079922	5.527050958030401	7.472140293329484	-4.961572157730803	2.4642634329567996	2.663139336537938	-3.2903711712733
180	3.4473156841979757	2.1765115206126247	3.0418023986312224	4.36645840496086	6.074310764235372	4.862895476461383	1.6418224531683343	2.7100119522338053	1.473356124019086	6.436953051527797	6.358547194639571	1.953501815632152	1.7003714995369308	3.38740634062975	6.048875793443877	7.680487136522941	1.1804574698208399	-2.8065571714114386	0.17727512076442897	5.901798710227564	8.699406601876442	-1.3932230437389197	-7.392282944135352	-1.986337418309565	4.683868396377494	8.884420372466456	-6.642337782301975	-12.70625588070055	6.062674507093121	7.930438975338895	-3.7273795510598524	2.8683862613737436	3.117398254153252	-2.3276755751015776
184	2.426268809868523	1.8136925651535325	2.1955180112720356	3.941327085080844	5.488916383236545	4.472151268158366	1.287308808891276	2.400206798215573	1.628740187347482	5.929440006544495	6.19703958854099	1.7295359329426068	1.5065818987002138	2.807950728002769	5.7086353157872765	7.62837121944871	1.4701586924628276	-2.9699578210233057	-0.12056834220247972	5.828956112450048	8.742615677695083	-0.6096537097797421	-6.897074205151259	-1.7907376244155897	5.04971073783054	9.16500756810814	-5.18506096484477	-11.500246972612617	6.840915662659989	8.53147790662171	-2.359199994806532	3.4576215656722002	3.665640344901642	-1.3206609454190086
188	1.6888669686592996	1.588567014498165	1.2435436217382838	3.5819773583574994	5.041061388639731	4.254726876007115	1.3889841998317751	1.8762649250343097	1.9282320689155565	5.561610207821077	6.21178768496982	1.8453440619608272	1.2089315622324701	2.2125084344316535	5.556920037544833	7.6584420010805525	1.8990768146251529	-3.0447344703096104	-0.2871844761273459	6.041369422918395	8.764195420072241	0.19721619735039697	-6.421485884666213	-1.4292435609972198	5.694320187497003	9.46483514303474	-3.800065984668451	-10.267477963273887	7.794878463138427	9.152143455286614	-1.0908542843933797	4.189064492139694	4.247063149219823	-0.410313247598397
192	1.2931928601993574	1.3662989105061154	0.43149196992651767	3.284128419213866	4.751701819820733	4.087050427608435	1.6583833652587854	1.285611864658805	2.0669343419342026	5.3248796328572405	6.191835387809501	2.070002312202335	0.9095704532547029	1.6144137341747296	5.541886792496118	7.540910701786226	2.177756304010971	-2.989674560628067	-0.3729851534486381	6.416647894871299	8.570571877775448	0.7001298648323786	-6.04631374739932	-0.9884397362548873	6.454963667784814	9.600784277518162	-2.821911804703971	-9.160162902593028	8.771753289010679	9.638683294756461	-0.09860116218468026	4.954242216953411	4.78317497953131	0.3105895809438183
196	1.1380196781036442	1.0120804284292397	-0.04599732894013088	3.012075655008155	4.5667991522883	3.8361282251779887	1.7557505324857963	0.771735964257151	1.8448245478782765	5.145987020851626	5.9497728197561	2.1384689753900696	0.6705494506118654	1.0925539704395033	5.546548829380099	7.121071320674588	2.123234505061101	-2.8430836128933152	-0.40417489307402366	6.774161798540196	8.066445330281155	0.7676482181241304	-5.789347634003907	-0.5390192256670003	7.140060883614925	9.460144972758496	-2.3380393922903773	-8.228932359900213	9.63327596139609	9.912528012998175	0.5918006882031125	5.6523337221489065	5.238266454822744	0.8522308447301904
200	1.0043543551836704	0.44312906153379455	-0.16875068800759263	2.7055954864856786	4.36792658656726	3.4016501817650524	1.4512006007748524	0.3777268221378384	1.248988625234058	4.908594119076718	5.3918661935096495	1.8785645914332278	0.46944463134497866	0.7727166394751644	5.433620915999444	6.37965296088267	1.7334890321834195	-2.69059943473521	-0.35511642604814986	6.951140386197616	7.295375805555556	0.5025687205023762	-5.582396970006144	-0.10110325340732504	7.618863563375303	9.053594566375269	-2.1709065382506774	-7.410310249692865	10.32667920366397	10.0101899847975	1.10834169107988	6.24458883616264	5.640912995401618	1.3216692175874833
204	0.6699058992638504	-0.3401570609564478	-0.11417979718229333	2.3070692957804346	4.020914544444114	2.7448501517613257	0.7223982792735317	0.026401907138923257	0.4402199674459092	4.503144729689002	4.543960082979508	1.28849363001713	0.22306446674772182	0.7711994628508821	5.1045741906034	5.4223184448670905	1.1653075188779496	-2.5995335513286544	-0.1564314659460672	6.863194448309307	6.403540118262547	0.15251329502700453	-5.293889509186704	0.3595683267575062	7.868072966737809	8.492482163922313	-2.004424328511703	-6.574090941043617	10.894425364645098	10.046033833889133	1.6496018129661982	6.765292627420011	6.058754905662587	1.8597897244228294
208	0.04349219043002966	-1.2504233090301795	-0.16118632216289078	1.7988330080392547	3.4474420460445807	1.9019355725906524	-0.2553628080596471	-0.4077567745881126	-0.3427448264051603	3.8880922696177147	3.5316965490819805	0.5236653076302037	-0.1357679363637619	1.119871971163989	4.550870883895898	4.416030395802499	0.6317581518435321	-2.5645320350748615	0.2549561255693714	6.528954966273542	5.5568952420126685	-0.0486881284676581	-4.794463145548953	0.8986257291993888	7.958108405048089	7.914080122993722	-1.5775243004070876	-5.6080722667247676	11.42145821548732	10.12611577338421	2.361031049489409	7.280666809773601	6.540594561275893	2.5515296394778066
212	-0.7641154508372124	-2.138841862046843	-0.5227718340072764	1.2297750680392203	2.683869116682744	0.9815663074506773	-1.2078731029532213	-0.9858640407467114	-0.901872453796752	3.1309683243857145	2.532187693878447	-0.19119237315067036	-0.5841265306030116	1.7186580852985618	3.8729679486720134	3.5155832678726626	0.2896287433941239	-2.5045218404479304	0.8741776921135922	6.056330665556403	4.866395938030914	-0.0016383477445305714	-4.03299044544512	1.5454630812726413	7.997819880320141	7.4091110042430115	-0.822543857405088	-4.48827313243651	11.959726303422757	10.27389237670984	3.247371188548002	7.827069739607445	7.066703778545007	3.3652913485438614
216	-1.4795989952878092	-2.841024391630814	-1.2088291614530047	0.7102555018612572	1.8897767019243292	0.1438239660208134	-1.8868294906662062	-1.62974953239956	-1.1603486508637362	2.4000041424238483	1.718982692193189	-0.6681849939642401	-0.992899772998235	2.349582904605593	3.2510402120525326	2.817389957944147	0.18060491933523803	-2.313617223620348	1.5969569642755663	5.5991282321709335	4.360544670539755	0.24034568606730353	-3.076785318235892	2.2688960971768615	8.073001841189896	6.993909818157505	0.12401245503109878	-3.2959728157751482	12.479061095202384	10.41460416071737	4.170984734494911	8.369799592820923	7.541524868044441	4.1585950746446
220	-1.8039040519946523	-3.2280983843364073	-2.0111017176397414	0.3701149811936928	1.2912772861304023	-0.4426741588860173	-2.165049070614099	-2.13875173982417	-1.1733598679481956	1.9003194522562927	1.2148859470212088	-0.8329276421498369	-1.1844248741763628	2.7495706011970396	2.8743553089050597	2.35162853600912	0.2439822548428358	-1.9341999243539802	2.241215938631635	5.301836000408096	4.008451928508782	0.5455432520444191	-2.090142483202512	2.9773087426356057	8.211750009784902	6.634085161625789	1.0286107037323533	-2.173643345113274	12.875990835105995	10.425034496689571	4.935039984641052	8.811293579743369	7.838273505448299	4.751021850034852
224	-1.5806050260691704	-3.2459130205218982	-2.620706551610891	0.29760783835612586	1.0798369618809125	-0.6559768898614567	-2.062352175274018	-2.295254939960043	-1.0726848813630812	1.7794407561198318	1.0630689832550346	-0.7357336264154614	-1.0329176161436595	2.7212090423544613	2.856314651907151	2.102152580675851	0.3826946904533902	-1.403327580723601	2.6179313593571556	5.2491803036721425	3.7673466110480565	0.8113884309310249	-1.2591582504906698	3.554573050107597	8.387633302492695	6.295589431126649	1.7092838244198247	-1.2499879567058392	13.034269299977376	10.215215657192457	5.398208127697739	9.04437635045616	7.868903140228144	5.021882521348065
228	-0.8996387697394337	-2.9286453649966284	-2.8064720559789142	0.4915187644469769	1.3190215792732451	-0.46645808102140324	-1.7041984753497172	-1.997991199217337	-0.9843041275922331	2.052296633307219	1.223681446800638	-0.49992677443169964	-0.5488641248196956	2.2259333077498096	3.1785316387034945	2.034222120871163	0.534249125562314	-0.8452283122657229	2.619019978586585	5.439283834075966	3.620306005874254	1.0327178213748769	-0.7048659306849842	3.913125028267282	8.55115030037087	5.98569963851305	2.132888311723129	-0.5792464003243476	12.900342908713945	9.791273092344841	5.552136407185817	9.017154670837389	7.6369013593502695	4.9763984554533796
232	-0.06653840823063491	-2.382073396390628	-2.5443236763612345	0.857919690827125	1.9130825948098233	0.05192646371129025	-1.2413154809129157	-1.3413660492409398	-0.961573598341303	2.5906689101614604	1.5982089002312678	-0.23917050599271777	0.10454672548601437	1.4170654976353272	3.6959674265053715	2.1152687019348506	0.7078666669139804	-0.4122273017489142	2.281882041892	5.789549812958476	3.5839309601897256	1.2938768831010727	-0.43134158740812906	4.039575089746122	8.666247345978716	5.758630738024332	2.4106070934468833	-0.12575720218855896	12.529008833723738	9.263196921803106	5.51880548991157	8.770388581067346	7.242238026453876	4.742513644642515
236	0.5544577822991643	-1.7454674199858187	-2.014626736322858	1.2556018797644803	2.6549057893480326	0.7533484082275252	-0.7761723975612271	-0.5838787540953059	-0.9666703915031785	3.1855780997910506	2.071593517795242	0.007078837585458265	0.6836738569164675	0.5977483376670085	4.202758778451554	2.3212494791552776	0.9648530458885652	-0.20679235406163973	1.7909028484904899	6.171955093059889	3.685758342974018	1.6919463830192005	-0.3407140663604675	4.005477418323421	8.729121186152005	5.6845135545261565	2.701366894577409	0.19732315788517638	12.069903343244684	8.793430306167863	5.470898614422172	8.421490647988268	6.832571489249659	4.498159874049732
240	0.7344954591326683	-1.1480482787710735	-1.4728625975615919	1.5655120571665415	3.328143111409258	1.4805253706745694	-0.33701455508021133	-0.018447043327606487	-0.9018403268932991	3.651919832546146	2.5552017624238577	0.27996668148881554	0.9868239139437508	0.10784189375829638	4.53100584793531	2.6328947477623696	1.359520551110082	-0.23072346986692688	1.4074112141361423	6.468868716120069	3.9331877132294455	2.251964086568976	-0.3015408806340224	3.939061393329362	8.766441323081708	5.805855259542064	3.096920005608763	0.4658825385729052	11.704041451468202	8.51996991867469	5.529102311479812	8.107242563759696	6.531245215138609	4.373910416050443
244	0.49925535791232245	-0.6769386512831428	-1.080970523012389	1.7444205240076267	3.8053686522728607	2.122910017375763	0.09666971837909374	0.1814528252073496	-0.6715559346410016	3.9162320991822885	3.010613433866217	0.6499191506189386	0.9589660143482527	0.1810380066830826	4.630722034206988	3.028351776106588	1.8817121935065797	-0.3859562268049426	1.3556590046034132	6.625765306910466	4.296243656755567	2.891402237267782	-0.22408068123509295	3.968694915288236	8.818659760144692	6.109118446184845	3.5634210019742962	0.7006425243807974	11.563219994914563	8.496950128083396	5.698442444719261	7.918133715665372	6.3830718832983555	4.386729706179211
248	0.11070120306675878	-0.36584371235987223	-0.8116139153016408	1.8313854886546996	4.0869121448329055	2.642600768093089	0.5420224056864261	0.05117661865545752	-0.24445040462288095	4.037230958282313	3.442767849813096	1.1433153123599884	0.7205376010822762	0.8357807376740972	4.585709083423418	3.476923933787529	2.43824433664798	-0.5216966258228878	1.7156711773471187	6.672828657469133	4.713995444793862	3.457046023223702	-0.09584189182164018	4.160387982354917	8.917498566047492	6.527286989898358	3.973610152702584	0.8682293273939607	11.672575921152138	8.681789376273949	5.880410179550364	7.859035472101202	6.345967753600775	4.442885864484696
252	-0.0834758503117619	-0.20390702732579857	-0.4939844595834976	1.9048800420351226	4.263256539071517	3.0562260073747134	0.9686790680270377	-0.19544555197484728	0.31449365536442714	4.148872841850542	3.8671224019643597	1.6935532050289988	0.5017667400089482	1.8516478491763568	4.557350147185203	3.9358887573052677	2.88780974612695	-0.5016589748114663	2.380939716049862	6.705356580970992	5.118922220657507	3.8106465243451066	0.04217833269914349	4.485998619197624	9.07233712766828	6.97001598505743	4.203983773107885	0.9234727001716599	11.94780155980052	8.971811271904018	5.951631054156926	7.862117747484045	6.333207114442318	4.40912913162925
256	0.14803287349519517	-0.15499381681887567	0.03283046177681412	2.020175690318858	4.431918609873714	3.3906483564601877	1.2945237127045421	-0.29894456191880625	0.8584543444894105	4.364071358152922	4.273079384505701	2.155395740789228	0.5177533613484381	2.851155989124155	4.6903409839466015	4.353154648280581	3.1140181939658627	-0.257276832407842	3.1036150377116107	6.83416841688845	5.463818059477891	3.9120817085677673	0.1562840338575875	4.838640200796303	9.271549201445104	7.362979870326279	4.232408989710923	0.8644338824381808	12.245718925076185	9.265353179427056	5.859788879858775	7.841277102700237	6.279586776137755	4.210874070026524
260	0.7847945074294425	-0.17462003186961264	0.7618270497161285	2.168986076600863	4.624943244701314	3.6442026999972708	1.430567022526471	-0.11317948968445647	1.213569876467891	4.697904098093766	4.607866752434858	2.382472747509615	0.8501284101003362	3.459803572502629	5.030218111689568	4.675361144659471	3.097490779685691	0.19545502911334264	3.608667841383374	7.125593644271568	5.734333500689436	3.849245061692723	0.27301937272759297	5.086643206151601	9.490840887903165	7.672584037482835	4.171483982998288	0.7620775084328423	12.43647190768784	9.508576369120593	5.674637303330389	7.750166873438081	6.187488540286297	3.8958606621609677
264	1.5627162417057658	-0.22107815686675808	1.4666185341999762	2.2860014380913163	4.792196738541736	3.7792959117838785	1.3480523790656722	0.3009779147655402	1.2497112719454904	5.056190477957003	4.792919146834589	2.3212032259510487	1.3959145510716018	3.4761757762881973	5.4976091246086405	4.8600001212440835	2.942388288698503	0.7698776106470356	3.7262608910895323	7.561105709059457	5.941291794081711	3.7959971332077767	0.47935667512984387	5.141892897021631	9.702238058389947	7.904564837525802	4.215604294623956	0.7402076702502959	12.461144415865295	9.704730963046737	5.561505780483694	7.611370544290216	6.126690372257424	3.6240281967217904
268	2.123721594216976	-0.25875449115273796	1.8070411636505503	2.299994462882037	4.849159705316863	3.752228012148239	1.1228023739123278	0.7077493649733585	0.9424811577843432	5.295820699672551	4.766506183034088	2.063687796150773	1.9170668076751303	2.971629135258588	5.932359203619645	4.889200198227245	2.836060516826452	1.3417261805037635	3.474779835511082	8.039080599515284	6.099914535380446	3.920769919986872	0.8638412334566753	5.0071639888229695	9.879709218830547	8.080319384201205	4.529057491311811	0.9107450819863258	12.346277205767123	9.884512876350156	5.688222393933296	7.496802311089484	6.18507097590031	3.58308004428306
272	2.214035743845522	-0.262297272019953	1.5330628117955871	2.1926314775421405	4.752242076319614	3.5563433080529565	0.9222192144951982	0.8354727008706757	0.3937984397005635	5.318395601196365	4.527065265669869	1.8200149490181852	2.1629188006152047	2.2598211708234306	6.183398231153557	4.779994952531283	2.957825414819196	1.78753244425553	3.0493504924079415	8.42153642435534	6.212367995789888	4.2979516874519375	1.4394321405308224	4.778640258168247	10.003774617687233	8.210236528648586	5.144304739361733	1.3055536714016698	12.175904243245613	10.06315800987129	6.121892913620854	7.478350620462241	6.404355032963859	3.879600038270137
276	1.817605848491736	-0.22414965871008513	0.6623914225066996	2.022070879599352	4.542808521245354	3.2437460340619153	0.9293943024058549	0.5397899137220004	-0.19931054064974335	5.132970796977018	4.145166386629188	1.8101766063763987	1.9984499165623701	1.7422242120624885	6.187530501956112	4.580232131838125	3.3775956545430694	2.0164370485894056	2.7194664409642075	8.597472169150404	6.260386451174024	4.862745749594085	2.1023054069846694	4.596663940268319	10.061145757068752	8.276904085242963	5.9238505213901504	1.8414667798279771	12.035878151069848	10.209213231060152	6.769995195462337	7.575721721595798	6.7351250478452975	4.4608406907943445
280	1.1581265897121198	-0.16086484451210634	-0.48772001143342025	1.8931809615974358	4.327789295714007	2.906270973497332	1.2370072571994277	-0.09608773862897618	-0.6194810851669177	4.848555075801788	3.7330608273669195	2.129045242656294	1.4813624583036815	1.7024099783831024	5.992246135841492	4.34907578323961	3.9959943193635987	1.9924994656801769	2.6869013241641024	8.52839181654161	6.211632236056638	5.431127057668338	2.6571724347738286	4.569374072936096	10.040086720867038	8.237771967116664	6.608979208472623	2.3413188398376397	11.960896461806033	10.244990322949803	7.402525883104852	7.733170966651158	7.040187817918594	5.11450098653781
284	0.5691481814319965	-0.11510980100179512	-1.442353483373178	1.8911005210814482	4.21039627919521	2.6253952913756646	1.769201512638298	-0.7875983695172426	-0.7221282106287363	4.604491222200461	3.3877987776099605	2.6658027104783573	0.8441287853863273	2.15173744612073	5.7160925720855875	4.131964673100507	4.568254459291461	1.7493286088646198	2.9763822480395565	8.256466844693977	6.03801105882165	5.778298363401921	2.911610834399988	4.711697089697126	9.927060102194883	8.047645548529305	6.935228330268552	2.612228863796602	11.913187950573947	10.081908200558813	7.751229266623875	7.84305475162153	7.15202091318678	5.5571050503617485
288	0.31051847260278076	-0.14283914827999844	-1.810055012901364	2.02294825996823	4.218709935027492	2.424121373731977	2.2911803664534847	-1.1900054186340139	-0.5018811809266279	4.484317291382045	3.1422214428723176	3.137772552197515	0.38915637037253137	2.8156883645493953	5.4731149535279044	3.9441709418851874	4.811202037108254	1.3872114384913412	3.419504157015996	7.872769812734251	5.736597046673712	5.7385568473889785	2.782769911415954	4.932456004087273	9.706092809967128	7.689264278071826	6.754006845588153	2.53766464546374	11.80044457317305	9.670491194151252	7.632895927231476	7.798470954279259	6.951985818476976	5.56422375227859
292	0.43732419499609754	-0.28723221944769045	-1.4884905777543738	2.2059488240813936	4.280907620112157	2.254697078734317	2.513643258424169	-1.0755856009983966	-0.09539372449870555	4.466672409224445	2.9542050287046795	3.23122834343495	0.348194836691083	3.2788212216564645	5.3076920375332035	3.7728087806814825	4.544229495973212	1.0442806455949512	3.744574537359823	7.466756324989805	5.343596921780931	5.280741678256764	2.3487894475763462	5.080016123343626	9.364013648233138	7.197594624466981	6.102534278721	2.136566633552221	11.524774522294344	9.04008767706611	7.037301999444434	7.547997455613548	6.4327940778444495	5.0794486871267965
296	0.7901282886583466	-0.5504331574848016	-0.7100192886546087	2.316193336361036	4.273013104140878	2.0364918657384794	2.2476127090927793	-0.45681306604445754	0.28182187605276565	4.450093258112739	2.7443106105181814	2.782884590752212	0.7706738690945798	3.213959924212802	5.184994684479948	3.5988962559435675	3.798487892097362	0.8477838614040156	3.7245097066304527	7.09365032312419	4.935297953542989	4.529283988961386	1.8163273288645316	5.0247549883818285	8.905499435828764	6.665431959489761	5.190873132951434	1.560054894323264	11.039309473776372	8.307181337363785	6.13747595191159	7.123124104635469	5.712792382121996	4.248187531236027
300	1.102241513330389	-0.8821043349883242	0.09317051595768011	2.2676744403806293	4.105728615885252	1.7178486542245557	1.5263434609977327	0.41133940116025935	0.4355983127086611	4.330025661980334	2.4559571681004515	1.8966878604685866	1.493455525442339	2.574497693237567	5.034744726820962	3.4232597264645217	2.8281907963873367	0.8575925805374236	3.3054587757579124	6.773092729634204	4.611464488784417	3.7221193219624156	1.4150851929223094	4.736312854252897	8.370829561080042	6.224082454225888	4.316325653622589	1.0259689066732884	10.385501835351395	7.645363788375534	5.217865453897689	6.626175863702643	4.993437277584433	3.357103816139606
304	1.1504049272102528	-1.1952868669849372	0.5219371305639493	2.069413418313441	3.789880504576369	1.3195590939584727	0.6154056175906899	1.1561058730500464	0.28549125718516394	4.073378552642954	2.097264761398031	0.916323242258192	2.2121882382807283	1.6393996435736213	4.813372123009757	3.275024882631015	2.0052857348358217	1.0351828310579845	2.6436445646297604	6.5103125407835	4.461411464871273	3.1180026452497485	1.2823550668765005	4.30906199321002	7.841356734505456	6.000287517657127	3.743498554315054	0.7231447678428141	9.690037702890963	7.225197296974195	4.554970729771777	6.185535415291228	4.47767256559926	2.7075800827331094
308	0.8727380015273223	-1.400325890820291	0.40937566653844726	1.8261243058829486	3.438214054963753	0.9319003200844642	-0.10087694947284544	1.4669545851863715	-0.09831622218105092	3.74519156464098	1.7392021373707165	0.2639682286273675	2.617846720761788	0.8753055908038293	4.545203197447805	3.1956646361730554	1.648658748278943	1.2559115854979512	2.029705042482909	6.321896060241139	4.52548550416873	2.892377607672424	1.3993215525583613	3.9195732971413824	7.423691730829734	6.063746437022055	3.6012854485187122	0.7287154179294575	9.117750144826573	7.146114808160187	4.30412625179792	5.897769436250921	4.284392346055507	2.4820649561204733
312	0.3885036399092441	-1.4447554313422724	-0.1236705404377886	1.6755299525873204	3.1940479197922493	0.659441767458147	-0.3141634754355275	1.2416206566933952	-0.5341250286922049	3.4637255581189472	1.4656951390454471	0.21728399341083754	2.5379488404093116	0.6891605240588345	4.307188976857327	3.2025697150435612	1.8657796335797645	1.3684537376185948	1.7404215291904528	6.234340651984413	4.765988337881587	3.0654017847868498	1.618098970142598	3.7337517644074114	7.20658395855073	6.385345919700084	3.8419859312331455	0.9807046627079797	8.796590782844454	7.38787363094458	4.444019306406883	5.783617481888248	4.398125637394335	2.668231480537533
316	-0.08244632908747825	-1.3385642733157015	-0.7700480799306629	1.7016098456336577	3.134169809057807	0.5493819103675521	0.03692957749579681	0.6308386905955483	-0.8241030553038308	3.315921298238211	1.3088842597340202	0.7468910794474417	2.0207834192754537	1.2015291422072143	4.168723095859264	3.25587295663872	2.489202016267859	1.278654095282451	1.8918762159265967	6.253508552021467	5.062512384984498	3.4880046756418768	1.7610046819094813	3.811430206212635	7.206721287651946	6.824686986858677	4.269541729637924	1.3154535260367093	8.746653534740553	7.800958136890167	4.796435820867458	5.776712879854899	4.674351680398104	3.0732111853256043
320	-0.3384648254909022	-1.1470344037660039	-1.2196054427826086	1.8804886293617198	3.212541333670729	0.5536846504537347	0.7223808747173013	-0.03839027499400672	-0.8529586770457052	3.292365542682449	1.2166157930175128	1.5142761430655531	1.3189877238350982	2.171666139841777	4.12955998331776	3.257411471725778	3.150041095409948	1.0084522937109217	2.377226346689731	6.329758151285743	5.244560228457977	3.8991973301670697	1.7285462574232549	4.063725461236661	7.335251789646773	7.1636128244734305	4.6232147100071925	1.5461245736186886	8.850406624383387	8.14717958300701	5.1059579720330115	5.747024044785813	4.89681099609011	3.414953938445331
324	-0.28759753631459645	-0.9559165811245981	-1.3139284815993364	2.0921575970279904	3.2838251507820146	0.553673146757322	1.3380106653764254	-0.4213835288376134	-0.639717875296031	3.2859005845078535	1.0775567265961423	2.0432195611865813	0.7757200579131687	3.1151084821253416	4.10018156923788	3.0910139005821704	3.457898369641838	0.695761976869621	2.919316761275674	6.348647101585953	5.154618727067626	4.035891522708303	1.5554649790592787	4.289105881352445	7.411676864984824	7.181325417507324	4.68396757850615	1.5470509490054487	8.886670090173178	8.182355860078841	5.146673666357705	5.552246079731926	4.865227686996266	3.4504043968824383
328	0.028118226606187638	-0.8300574400925693	-1.0919285985080989	2.1906037275320016	3.1935362735227892	0.433707057334713	1.5280936917824983	-0.31576135674863187	-0.31991901912979737	3.156809083597816	0.7909594754276409	1.9751417587003801	0.6642042381683214	3.54735826550362	3.9438414474097008	2.6845109394960653	3.1939520755236925	0.5268740044642961	3.2051758685251404	6.167214378045003	4.713579165955802	3.7433493042849135	1.379928227755335	4.271281708423814	7.230639916284184	6.739790422589378	4.354513634178029	1.3023441997071972	8.619681336574798	7.7479800982360825	4.808032500525679	5.097885595802172	4.476481903218233	3.0793023031691127
332	0.47738581775299915	-0.7872801999242348	-0.7226482611530887	2.0901267475763308	2.879503481270602	0.15737605055176035	1.1865644424998183	0.2557847493389468	-0.07142867874946568	2.826580040470993	0.33835577879356094	1.2624034849719172	1.059086916156934	3.222146502942743	3.562645426338437	2.0602090306718854	2.4136485992528027	0.6348676665489686	3.035605184520282	5.690283284125847	3.96123527480414	3.040045968963416	1.3496148552198695	3.891438474366957	6.661157591214421	5.847840294378689	3.689213505013634	0.9020338631743962	7.911049822860992	6.840041620151209	4.13049267679685	4.383713711161191	3.767765274071902	2.379873985003969
336	0.9140802598763123	-0.8011395911017066	-0.3855121722024871	1.814316983410623	2.418627971264767	-0.20221158811060436	0.5265725241717834	1.0661555501722908	-0.026302505218140364	2.3382861555191243	-0.1898618335698698	0.19780753502972065	1.7956430866682191	2.238747114251271	2.9730293675701165	1.341224905442468	1.412724729785874	1.0179896328973526	2.414479487998874	4.94318722430554	3.0492992324135644	2.112174267204504	1.5246441325794766	3.1964616694809798	5.72934483035291	4.672193992262682	2.8683395313323574	0.49511226886676774	6.802230340949799	5.624704823598058	3.284640542320483	3.5184736162998136	2.90620612364398	1.5686027964089213
340	1.234778401118324	-0.8281598666262909	-0.1799228484856341	1.479039665302649	1.9879955003137406	-0.5025510179229226	-0.03232230982964508	1.795501704451169	-0.21671491806628126	1.843302006835978	-0.6359193308987305	-0.7423748355242128	2.54292439772402	0.9651860570380846	2.319409126147839	0.7012985927041837	0.5734301194972049	1.5272449216430397	1.535070773063711	4.090084542438421	2.1829445306977013	1.2352924315735692	1.8384909583404343	2.3847148358218253	4.632508743034264	3.4809965999454593	2.126351589556405	0.2237956369233355	5.519517884624127	4.385229099646134	2.504052155848286	2.69158934867314	2.126096720095989	0.9048291421933703
344	1.394101258572823	-0.8408511855830485	-0.11238675536152584	1.2224895923267185	1.76360141785721	-0.6203481539322762	-0.10176443282898794	2.1761331503285457	-0.5806670174243376	1.5211300811509707	-0.8623970725220585	-1.15366768545702	2.959376327672336	-0.16467818576243495	1.8116712524450127	0.28369083928962413	0.1759826685515437	1.9333556841675132	0.6798251850130376	3.375765315115928	1.538750048567117	0.6615645868764629	2.1353290027112295	1.7161953405919501	3.667165031711147	2.5437843735366683	1.666561599338479	0.16957507984739967	4.391824711201748	3.419840088793102	2.0002019354864746	2.1089281982582317	1.6392259556391844	0.5847607240218206
348	1.3846051658004725	-0.8444601872104418	-0.142517000076962	1.1271127433930224	1.8178793146012748	-0.531656740753643	0.44903415328142837	2.097133154342699	-1.006916758856095	1.476900335397772	-0.8334434011397762	-0.9108590460668486	2.8512947487368416	-0.8551355578766958	1.6140631396550458	0.13370972838021936	0.27982026267929444	2.0406150766350515	0.09562963968213091	3.0096597595522185	1.197574016408484	0.5267323838286674	2.2611653747690115	1.3938019240475168	3.097546092795903	2.029730791689387	1.5950152833722655	0.33238115822797215	3.7122292424890944	2.929692499393399	1.8891996097550707	1.9136729192101885	1.5535227021095315	0.668713210324906
352	1.2081376283660665	-0.8693084098802499	-0.24036896168102953	1.179405328633921	2.0755834527064327	-0.3383478215735035	1.398574587151922	1.6306043822127705	-1.3910770381138446	1.674830551687292	-0.6451846940917378	-0.22496034148162844	2.260255569473457	-1.0505824062525637	1.744843359356596	0.17646276906283614	0.7200846057831269	1.7853875115140583	-0.09769095455777452	3.0479884070689733	1.1178604336171878	0.8038031438560597	2.1500225012855823	1.4715194664996143	3.0238556785532427	1.9433752249289595	1.8860670280521643	0.6392964108538882	3.6021106152188995	2.9384655878264487	2.1491122191528707	2.119394773854365	1.8279743148428163	1.0631818744519543
356	0.8660954811163892	-0.9451993679978173	-0.40777909652752464	1.2888154950981046	2.3539099633867826	-0.21828448717318885	2.275806898093251	0.9742715930182585	-1.6685619312120907	1.9493538092034157	-0.48013880727661185	0.48707154270222364	1.4352995121003993	-0.8890306927169611	2.0502865262718886	0.25895640188640484	1.2194899289813257	1.2682155338692915	0.07160658371250986	3.3473796759969208	1.167574879559481	1.3278832402082081	1.8573033762769462	1.8369554234856076	3.3261272823280437	2.1337084716331676	2.3975803791548214	0.9791450475767245	3.95137046770014	3.286869517610876	2.6281454496786574	2.593572610029007	2.2890610637092017	1.5648080071042323
360	0.37463989759271465	-1.0766611072060084	-0.6517423374887251	1.3503425087214502	2.4625623163992048	-0.32615479744581016	2.6063275271415796	0.3519558897669144	-1.8124526693360452	2.089722628085774	-0.5096142279156183	0.8369361737101509	0.7094591242044239	-0.5660629258169223	2.2757110538246943	0.23404005110779036	1.5418626031094294	0.704990385182961	0.47319733977056255	3.6271786598180844	1.1974941461846869	1.8757468414632301	1.5254299602142114	2.27400040052396	3.7212378884777024	2.3726599156557278	2.927127830744478	1.2456518380186667	4.4698305017152515	3.707626571831159	3.102118722712947	3.1057734411027678	2.7047290733714107	1.945727224205858
364	-0.20712885208286963	-1.2357287375722235	-0.9442368125917697	1.307255980052157	2.299700492774747	-0.7070938926964184	2.1650922243768074	-0.07994090745531507	-1.814188595006101	1.9466336916413136	-0.8036760071490747	0.6659120900507587	0.3411947778193674	-0.21108499116055834	2.1955690328478346	0.03496944895498456	1.5962206084958703	0.32044142403761233	0.9446382498733185	3.6115493683231206	1.1123276920845258	2.2523717823382103	1.3032314744470836	2.5661127502503143	3.9045257469779577	2.4594912466895513	3.280835620226208	1.36770128858485	4.823744284848805	3.9426722427007386	3.3562984381814345	3.4197244557825295	2.8797776626358766	2.0397388883590657
368	-0.7630488853262943	-1.3767746652175206	-1.2114056318215607	1.176522013554836	1.89372217177063	-1.27041184581443	1.0970246764142388	-0.27731579472144524	-1.672477956363947	1.5071973762606103	-1.2956008878422034	0.10646813335956218	0.4029715945083361	0.14660946987806903	1.7384219125725766	-0.29513496085992785	1.447727795760427	0.24273008046855585	1.347729679519673	3.183006993840511	0.9088204480113876	2.3557381570467175	1.2686799732602088	2.592359059464444	3.708018055137056	2.3062865675872204	3.3396482383333352	1.3265682425384935	4.795338141732047	3.8541631601300135	3.2685124791592983	3.395858040818983	2.737345688584472	1.8030313207880546
372	-1.1381748885982474	-1.460998889095451	-1.366756912595413	1.027782556799935	1.3754720653138879	-1.8368271542903747	-0.16131010610861554	-0.289452581866935	-1.4034275973172816	0.9001669861000996	-1.8192596389614986	-0.5209671841819682	0.7738006691469576	0.5228474126966608	1.0340477202057479	-0.6341456754886272	1.2412682740343728	0.4539417016966198	1.5948860605027186	2.45740508412768	0.662352739092338	2.195110315502801	1.3965766394640953	2.3689787328036935	3.185941926541841	1.9620139549310345	3.0939085405437345	1.1534455985511476	4.379826534657333	3.4738156707796293	2.8547480034278303	3.050292245793015	2.3445589483194493	1.3214998211874596
376	-1.1846888035427618	-1.473702546213646	-1.3656132186743504	0.9366464591220114	0.9082518197016661	-2.2273483220132047	-1.10843860823204	-0.19989047894078252	-1.0622851821782173	0.3344764104981491	-2.1938371602936133	-0.9019591785546811	1.2296518056341361	0.8853957034645114	0.3552421918483084	-0.8503890612112809	1.100069758498836	0.8192639330206687	1.6427463251600203	1.7334241823300676	0.4747603225642391	1.8666102839072571	1.587418432996243	2.0190596529529015	2.5785598689780436	1.568688031050735	2.6386325292725417	0.9131490565133374	3.769905557651093	2.969680778635089	2.2589569034763697	2.53901218726942	1.8713519525964575	0.7666544298842994
380	-0.822494743177917	-1.425411697603574	-1.2409098117015986	0.9424728131340957	0.6181437357554687	-2.3443019330918267	-1.4279510938831734	-0.06733378005909019	-0.7549677472126946	0.0053356820582740935	-2.3082098902599766	-0.8962429739258637	1.5757534464152818	1.113465902378283	-0.017017913939306045	-0.8704717137293942	1.0627008649698313	1.1725079983672164	1.4807106219100636	1.3395101990258989	0.41512650146579183	1.5060408077363088	1.7335513786416972	1.696043367872138	2.1744172518190843	1.277774092309209	2.134836191509471	0.6829979402464211	3.239979735777357	2.551413768048656	1.6919327931602262	2.0765986390136844	1.5057011804712361	0.32260203280062044
384	-0.08942717291188289	-1.3389432396462266	-1.0874752970895938	1.0343838904014322	0.5566526041281872	-2.2037758771569482	-1.12698280526774	0.09561055874527036	-0.6145974382142209	0.010947649339513487	-2.163159841798068	-0.5889772757918754	1.740393515007479	1.055187580305573	0.0589493772389292	-0.7118790131715503	1.0872266265122188	1.403979417117219	1.133184072494515	1.45149969688158	0.48266789195269116	1.2367047040233117	1.7799477532270112	1.504230853097629	2.142274135902923	1.1689743966152737	1.7465896562348162	0.5276859985380212	2.9912261887369422	2.36061143279125	1.340275284244304	1.826683755077398	1.363330003157349	0.11079519959133224
388	0.8463466146081753	-1.2331569163659482	-0.9983777378624867	1.1694480151214632	0.7068920117650739	-1.907624597501521	-0.49600008004845564	0.3022713355539006	-0.7432334404300345	0.31948524632853964	-1.8538594199105194	-0.20965604431148205	1.784138913418456	0.6450988037988333	0.5083502518217026	-0.4653110492402416	1.1071864338577602	1.5035315714068895	0.66769242118106	1.9857937047412968	0.6108902677371303	1.1304583520958182	1.7465500787507853	1.455282922885212	2.4297687946008972	1.2141524522644547	1.5787086446957845	0.48059302447097596	3.0436167640136045	2.40292929996346	1.2870271173407788	1.8204843951992509	1.4367541038478253	0.1454570885800523
392	1.7202231840571225	-1.117312666933085	-1.0016297076685767	1.301735636285577	1.009423968627597	-1.5831353624427869	0.07405874114412012	0.5547811374962545	-1.1484003038022281	0.7908815721571161	-1.5135275087290643	0.015789482702683377	1.8311023665927313	-0.004622174880904679	1.0725080939871237	-0.24466708240725363	1.085307833792454	1.5431251486918742	0.19418077121822913	2.6299612455725105	0.7049618941628303	1.1854128807656652	1.7059578852497552	1.4784581623896884	2.7875385214045245	1.3006087508742985	1.6355977017115773	0.535476027567273	3.234069100797773	2.554651492344681	1.4799107275791974	1.9482166717932619	1.608917470684578	0.3380830577420797
396	2.2508811893854306	-0.9997971032649395	-1.0408655378765228	1.4002958500794	1.383536335313059	-1.328601833803806	0.30224576516135654	0.8135136345351258	-1.7185200409416106	1.236498233534331	-1.2543296782296063	-0.014323008210557717	1.9655797431910746	-0.6183820947293237	1.4340999090226785	-0.13537052239572533	1.0285639736909673	1.609588380564476	-0.16189335245743136	2.99671196180964	0.6881264430792371	1.3266895975949498	1.7291010574554233	1.4711850844432686	2.9052388594710075	1.2961151567160272	1.8187776758050616	0.6487961395095607	3.317138186662873	2.635385029814798	1.7604292586702726	2.025672192227588	1.720255847402377	0.5443482981289791
400	2.244978660637516	-0.8988725520327805	-1.0172910664623487	1.45080053440013	1.7407426790156917	-1.1866133183084107	0.14448240362882356	0.9990246270706008	-2.2590722980683635	1.4939101896715377	-1.130149003990215	-0.24403527317422966	2.163903946181565	-0.8866977669263424	1.3762813771786049	-0.1624090369415649	0.9670364832304646	1.7351946786940058	-0.30663421672650965	2.826841347233029	0.5373063073897699	1.437762733644168	1.8399108601846887	1.3616238798096056	2.5886585647075515	1.123368021989818	1.9713368366061048	0.7580615858965948	3.113439790494423	2.5100212033796026	1.9437915037670197	1.9025603484756106	1.656394239058363	0.6350237711132413
404	1.6858898358695749	-0.8406712987655706	-0.8697146751380133	1.4483979903845894	1.9969001958021226	-1.148671266516693	-0.2230440521569378	1.0308845017155042	-2.5763561660569714	1.4872670136095136	-1.1316654653587617	-0.5181885944634891	2.3063011111205087	-0.643679199977802	0.8936622716275392	-0.28904485629537835	0.9190033651037508	1.868624920895579	-0.22271281424559605	2.1314001029561345	0.29208567664788476	1.4110178911823954	1.9995899149954661	1.1499286860996998	1.8782051754261397	0.8039024451940048	1.9496258448014838	0.8056021312401285	2.6208918028463852	2.1643702929211104	1.9087237071484042	1.5528715809716491	1.4094566071210906	0.5555058703702486
408	0.7612926344724216	-0.8446378686560686	-0.6345816834640584	1.3907756770306212	2.08828043410443	-1.177135702975894	-0.5405718670548344	0.8717900492592078	-2.571289294426698	1.2498038975632375	-1.2060980766362916	-0.6843469721682166	2.2519352379209776	0.014466679618490614	0.1970460558923152	-0.4403218913882178	0.8773406721852574	1.898261423086684	0.012419972537392965	1.1953031986575646	0.035462334662549035	1.201715585535601	2.124089474083601	0.9070000625598985	1.0404794189886426	0.4499762940966919	1.6929646687679725	0.760262547004014	2.02454375709555	1.7157518820359408	1.6543109375194334	1.0981078120163625	1.0823318930956218	0.3475146582889459
412	-0.18918661725439775	-0.9023876167402449	-0.44184633977914434	1.2837415901197649	1.9983578869910694	-1.2230160205480456	-0.625472067207456	0.5534598217342096	-2.289854759157027	0.9072717405300988	-1.282432672123802	-0.6687470061584084	1.9352681587949478	0.750959156047736	-0.38708192012332854	-0.5341762290819377	0.8290791490603409	1.7210837559162169	0.2554482811200392	0.4419409323501641	-0.1405422832993778	0.8592817165614487	2.1287565177577306	0.737385986373753	0.4386093605411774	0.21189741736795692	1.2573469845498082	0.6292455180493693	1.6021864373763768	1.3567168678362158	1.2982587781553172	0.751274583827091	0.8371369221532476	0.12556289104708176
416	-0.7952763418145995	-0.9681749319428004	-0.44186633713741597	1.1539260119868244	1.7800056889415865	-1.233977076275987	-0.46387973310654146	0.16366659063502223	-1.9038546037289958	0.6290121658656628	-1.291171785909416	-0.4866749333968895	1.417726751562796	1.1496969432413982	-0.5722004160739486	-0.5071965443203429	0.7928035835276908	1.3083803620683612	0.3608466973730988	0.22520032468204945	-0.1685456331289218	0.5203642235969427	1.969024772441105	0.7256712299145298	0.3478404870787879	0.20852982945245566	0.7972021082777855	0.4538502383694429	1.5764696558250946	1.261515256557717	1.017643449121371	0.7093349081250255	0.8147112110549294	0.019428491543355
420	-0.8072509149197425	-0.9781619285682813	-0.7093384247990585	1.047048804500621	1.5417293271240482	-1.1636242837137425	-0.1936859036562309	-0.1986594642153444	-1.6242761570929445	0.555441616563343	-1.182503339642945	-0.20665274508276704	0.8629361965326908	0.9398126578444863	-0.25116392906672347	-0.33323886906412453	0.8289126732879034	0.7354210596590485	0.2529791587164526	0.6539507491767224	-0.02884200208057755	0.3526464393772162	1.6632757144895973	0.8961454607272573	0.8144736269414545	0.474564402097357	0.49805050962587466	0.2937799386713476	1.9957337329068134	1.5041136703662963	0.9637559031949546	1.0528558466078468	1.0683339807240417	0.1133927849052467
424	-0.21048372930790463	-0.8888452030628884	-1.1856545179949745	1.0082654927546673	1.3993306124643443	-0.9875687335829836	-0.0017382099714948064	-0.4692593801094844	-1.5929450948551533	0.733482180174045	-0.9443296766280953	0.09496755128963748	0.4560953367162068	0.15141199490943136	0.449461906013579	-0.034315891477253065	1.0032104228440293	0.16103196103447343	-0.03290731824076764	1.538019057205437	0.2427865707704991	0.4665562796734228	1.2885024515045345	1.2040342062115097	1.6313185650646662	0.9459266042668858	0.485982506240282	0.20455296285959865	2.7056450775500065	2.0251641222368058	1.1910966604678066	1.7014607148128063	1.540895100517878	0.409006415764996
428	0.7527570705482015	-0.7141183000654633	-1.6984744029078094	1.053335544787788	1.4145002329399607	-0.7247651797115867	-0.006584767235581863	-0.6387372000780174	-1.8147745086627638	1.0905638905647672	-0.6166611298250688	0.3561363509246489	0.311558543849163	-0.885713575034296	1.2279636828890697	0.31892129698342114	1.3239331211996266	-0.24175755618569475	-0.36743780877804294	2.481145614081779	0.5650666937866616	0.8448008277544731	0.9480333900357976	1.5569765528469661	2.440040582218396	1.488526578959727	0.7621927242109022	0.2162877911828992	3.4248387727099248	2.661523812250025	1.6338058668848634	2.447039359590252	2.0932652897437	0.8266965726007496
432	1.677677150305288	-0.5344181643344702	-2.051083797998391	1.1488335103593619	1.5562623699950706	-0.44610056168460216	-0.19328607570008705	-0.7396914940278443	-2.164037937422682	1.4628859721442755	-0.28853043840994314	0.5256192670902973	0.420422135722136	-1.7053781704761333	1.7486350492197644	0.6245371683565143	1.6991057353036763	-0.36320882943958377	-0.5930131062794277	3.07213925539667	0.8394539335037515	1.3327145542829242	0.733228562411166	1.855715150916271	2.906354896836964	1.9572832534964453	1.1977918117799435	0.3235269180712651	3.885574092591602	3.2231454767866565	2.1408989375421377	3.050112716603405	2.5694477493263665	1.2456734149000208
436	2.175046676866323	-0.46222218754416755	-2.1270379966439052	1.2220520942351718	1.7167364315558549	-0.2539156966951214	-0.435895412059794	-0.8064621070527767	-2.4580855307507177	1.6722385841111334	-0.0688249094536714	0.5518214092627602	0.671173213217865	-1.9407632301922069	1.7983871652974606	0.7847648839210639	1.9541501949563818	-0.2025004769219401	-0.6028152689019269	3.0786757391448156	0.9879726742596066	1.700906630036373	0.6914450508780179	2.0354258962740075	2.878014080410715	2.256631845498841	1.5925531347121	0.4877219783866929	3.9638242621480675	3.5766780286131885	2.548393004659066	3.3474852954271963	2.8628439830979415	1.558570857881393
440	2.048482889725539	-0.5787275418928879	-1.9493718098060926	1.2008866041381578	1.7773705676027196	-0.2333225601981181	-0.5813016280756589	-0.8434902408284607	-2.55585288356174	1.6169151026910582	-0.03594861543043102	0.39356377621467525	0.9173197723116757	-1.5033327303124209	1.383918162666526	0.7511200289835785	1.9195679377728805	0.13268886473056746	-0.3903816332497632	2.5497748787400494	0.9894190405660744	1.760068173733135	0.8077056387535859	2.0894753880198698	2.448408359067997	2.3779425560995437	1.773923392585483	0.650864718701268	3.734512081254247	3.6980428602312103	2.7525088717584687	3.321162453849368	2.9543783590112485	1.714216824018271
444	1.3843919003820047	-0.8758797623455009	-1.6598598915154334	1.0616718503850269	1.6890422063144968	-0.395632116987804	-0.5379036651382006	-0.8295408466376053	-2.4285283027369635	1.331967588876485	-0.18739376914872527	0.05666574821470557	1.0465404960912597	-0.6161161049546188	0.7267151456604904	0.5600073323416106	1.5440202912448509	0.4726280260074278	-0.04739225643828749	1.7836567118434403	0.8984854198659418	1.4711196385434704	1.0084553931524423	2.0669019170075265	1.9011561822575371	2.399009936951505	1.6861662822113452	0.7554954867362035	3.4277143391852087	3.672427644994369	2.750269406050622	3.0972280424121843	2.9089047835340174	1.7303136543456723
448	0.5098363744261353	-1.2436528174472368	-1.4331029617366822	0.8528606274052971	1.513313528054861	-0.6520864351021447	-0.32123961963610675	-0.7508903126831942	-2.1690368597580836	0.9819831823351839	-0.4224444021049697	-0.37380793596304024	1.01574790221301	0.309917210750127	0.15944665630138485	0.3336018315475679	0.9571722125682662	0.6549763662967831	0.2866907410535955	1.1824578016944516	0.8328198769523552	0.9826161240564558	1.1857513159378452	2.046409840185485	1.569573279232704	2.4457940993547487	1.4195936882417373	0.762889085274055	3.312118045073985	3.644876947737268	2.629670851743898	2.878464453105501	2.8358282971309934	1.6734508233735146
452	-0.16561841922907047	-1.5172488651115756	-1.3818688357750326	0.6756309253800723	1.3950288260524757	-0.8436872937835906	-0.035846885203217466	-0.6366000755449915	-1.941241378651388	0.7846842984415311	-0.5777493700699485	-0.7404794078251409	0.8446172454490284	0.8842596389379608	-0.025917276674639323	0.2357148969182667	0.43132400403796467	0.5902022704482065	0.49569368237276135	1.0659861537722668	0.9268958545171128	0.5648726806684076	1.2383391825882157	2.101014370382094	1.6822160439934744	2.63325547507164	1.1619349688757834	0.666036484944091	3.5664892106610075	3.747723093107489	2.5192713673882303	2.8478479313474727	2.8368632721802602	1.6215102631637706
456	-0.3467489472217721	-1.563374753819582	-1.509883399965987	0.6287510975222057	1.4773771725547713	-0.8201325515067874	0.18699940991872577	-0.5655854926134768	-1.8966618728435303	0.9012408233776619	-0.5056934343921922	-0.8746181108327256	0.5828713759965004	0.9189536548301336	0.2944753460601864	0.39752721686133047	0.2494479411502948	0.2941536001885012	0.5418702350286987	1.534586902558646	1.269651648176884	0.4728300559503839	1.1150795193175684	2.269531482688563	2.2686154785099673	3.0114908142350956	1.0990107031731406	0.49547040337399645	4.201260079267105	4.039865006737577	2.5259404118660216	3.090517274683156	2.966146938464568	1.6292068917148952
460	0.012802273934049379	-1.3565697635732816	-1.7347036556315858	0.7487897854019679	1.8064738466430104	-0.5292781578052417	0.25752282077620897	-0.6331010444869312	-2.1022953934043724	1.3469202484456668	-0.1591152544772704	-0.685192762075444	0.2784669094207637	0.4932800816956428	1.0267698738877578	0.8450173714283954	0.5476369247915135	-0.12626633016178374	0.4761257159609841	2.4363985000132358	1.8501882506387823	0.8046120384882642	0.8388555028717175	2.541917317648438	3.1582961002719183	3.5360419660937144	1.310384031802072	0.3074704996929194	5.058110701188238	4.479372490063962	2.685177081004393	3.563018551413789	3.212428084845942	1.7080399946957923
464	0.702985642565647	-0.9993244980377087	-1.9558762262554297	0.9839219426108982	2.288688892308164	-0.062185823760384805	0.16707871812121947	-0.8877716638085493	-2.513742678971403	1.974048371099381	0.3690111031752396	-0.22179248873026522	-0.027310231631587883	-0.11694411903896537	1.907231922102732	1.4710887633375547	1.2255876033357425	-0.5194317089317861	0.40084245699768994	3.445069542769931	2.543444627062306	1.4365913831679993	0.5031592237166751	2.8614468502279338	4.0628414051475845	4.0775594608355235	1.720556016392708	0.1633877750086281	5.880821690016854	4.940814482612312	2.9480326101259027	4.1177120104778	3.5078751952297704	1.828024263535012
468	1.3721168006586628	-0.6737948639070468	-2.1190447753811275	1.2185300557842862	2.7294416358700526	0.37765037918110694	-0.021490156596285784	-1.2813496557309676	-2.998060457289634	2.538722031859386	0.879170832798465	0.3299113205686501	-0.2849906079726371	-0.5974496587927931	2.621823304232583	2.0738491959664267	1.982228154899835	-0.7492954712069657	0.409622012534682	4.206871498930672	3.150381080302888	2.07461142016189	0.23664180874682855	3.1468942085923315	4.699907767827477	4.469896305242917	2.1321804469635635	0.10616099807639064	6.423475726122371	5.2694840298171695	3.2088675417946284	4.572107780357173	3.7597246075120023	1.9384638022118674
472	1.7027366118356468	-0.5457043633988402	-2.231640810100512	1.337256905040499	2.9365868494278717	0.5754854664578055	-0.21241301244512348	-1.6721085267765619	-3.39083551504431	2.820033543142551	1.1640837163145112	0.7363244276529834	-0.4316219676564446	-0.7499883752007301	2.941523544514285	2.4494316516069174	2.470861428698198	-0.7497183661605794	0.5361128435904454	4.488656986347895	3.480342617784635	2.404322618136212	0.14623378180299826	3.321644774633673	4.901743876479267	4.577710140114756	2.3273930490860555	0.14146260881470862	6.544447882341603	5.346244798513748	3.3551096831490352	4.784811484654131	3.88637207957384	1.9912562320025906
476	1.5603303869907204	-0.6748535616048744	-2.3299846590343463	1.2904590335689916	2.827707045091561	0.4227483261879121	-0.3280293635192634	-1.8846765709023547	-3.5617608934122034	2.7302474906653815	1.120938894302775	0.8359673598164178	-0.40308329361236317	-0.5732041582894319	2.814232580709077	2.4937894281367705	2.4818403658195267	-0.543119190752169	0.7343700509603776	4.26468132849663	3.439335814375594	2.2547373714740835	0.2690977447391421	3.3403069888657297	4.668401706353067	4.3567108997974815	2.1793231909088706	0.232639520773039	6.2522902330853345	5.137762533567703	3.315774909231012	4.708990085156842	3.8475606344356237	1.9580880354081707
480	1.0420225832379812	-0.9816641186725068	-2.42606114728665	1.1207870216682707	2.47537564606351	-0.016782356383748427	-0.34205180320210654	-1.8037275030372735	-3.4561185749533387	2.354391092078195	0.8131443241570299	0.6255493744315345	-0.17069268183527775	-0.23379896522144378	2.3720252453997617	2.257971042654274	2.0522038884801823	-0.22617983760949278	0.903002259835617	3.7091526891521354	3.0790364664540855	1.6877254205054435	0.5499552474441991	3.2018186965212876	4.150491703998555	3.878093471272598	1.714689250431568	0.31122052590949517	5.688933358134382	4.7094778895684515	3.0865018289840656	4.400876034115907	3.6555516627524307	1.8346637441090692
484	0.4139428128281859	-1.2898735967494857	-2.477277987901358	0.9358139610505354	2.0653314538309493	-0.5321734534178963	-0.285595803731836	-1.444866415190564	-3.1086013238623513	1.9010834645910948	0.4430982161302012	0.2581649118104308	0.22129799369729586	0.03786838045096135	1.8576942635363964	1.9240207623542287	1.4391263687038964	0.06974519771609933	0.936013934633252	3.1043655793967275	2.5778789455178486	0.964004216144462	0.8577967860499085	2.9439277574598752	3.5739860444433496	3.302273265130579	1.0945668192884863	0.29978203697810846	5.060984598733473	4.19481419457879	2.7205240657784318	3.9821035761430545	3.3627154742217518	1.6319543082042354
488	-0.02217038901513206	-1.4208689892181317	-2.4034817158098436	0.8465206005658354	1.7944830610745293	-0.8691849686612318	-0.2224538022623785	-0.9583439802769472	-2.6236269407789328	1.5956441123730583	0.25013992127206763	-0.043453197816574106	0.6529405696596196	0.07162526976859976	1.5124896726568555	1.7147219137768224	0.9757767295043266	0.22916592599707236	0.7787693123228895	2.7138647964623592	2.163177484772877	0.40561386840455804	1.0390849087229983	2.6260194712141764	3.1462161461550786	2.815053932712008	0.5269239531564919	0.14003267848899603	4.55501793665032	3.738909950353251	2.2971939982589804	3.581173410910799	3.036712638817413	1.366130229361827
492	-0.06666952354764853	-1.2863819566673589	-2.14499353820929	0.9076264477702616	1.7693239405783576	-0.8584214427255775	-0.20752772636469946	-0.5628094062900719	-2.136851543753528	1.572726126514783	0.3871720423460014	-0.10455220911331986	0.9680446361896503	-0.15935254056752216	1.475897189228735	1.783492322233565	0.8961831308626603	0.19248583864251423	0.4593434620227186	2.67579578677759	2.0103869387413997	0.23251537919944648	0.9827203129752601	2.3056423605881142	2.979547254669139	2.5534832413100323	0.16263486403888747	-0.18233844591834755	4.271396149341494	3.4421117218850648	1.8882678699502944	3.28176330691515	2.7348658969494974	1.0557664606141701
496	0.30154037399454314	-0.9322558021850071	-1.7242388681747916	1.0935202809381623	1.9614803741523523	-0.5018456565584315	-0.2608362727732297	-0.43363159785461786	-1.775198931980456	1.8228849126568742	0.8397023060579035	0.1102478650409029	1.0468726131711097	-0.538610576223452	1.7398253635349146	2.1398370211935003	1.219659921427796	-0.02585433975785086	0.07832698504222597	2.9583458825760607	2.167137855780334	0.4585467863426621	0.6685567481327657	2.0205352255352356	3.058968297864616	2.553464883079488	0.030295545158787324	-0.6281967743271941	4.199804772263944	3.3269932186051543	1.5368767937958456	3.09948038272327	2.488223308003118	0.7252688389586671
500	0.9304156279915026	-0.5111450540035196	-1.2629536358418052	1.321609851361437	2.241672271790883	0.02989138096474701	-0.36086729077781676	-0.6089885815503728	-1.6194310147406754	2.2163350526165724	1.4329559766830373	0.4883638608046585	0.8745455123755724	-0.8736738540525779	2.1720976774688614	2.6502597265088106	1.7576130584210352	-0.34618523629523207	-0.23309756756582023	3.392121783275315	2.540917151711632	0.9007766820099677	0.17638848677447236	1.7851637556781366	3.2648370183531483	2.745223038418099	0.04404686007703814	-1.1156002254930115	4.2447180640817015	3.3446936522915443	1.2589451042814912	2.994727365562209	2.3022351206827762	0.41175228253357604
504	1.5674238165382408	-0.20392717369568178	-0.9381563639796495	1.5022619924763791	2.462769025306764	0.4848841416514566	-0.4617692816519852	-0.9717579459451371	-1.6782503085680012	2.581356280485265	1.9216779421926022	0.8424274900147987	0.556425868060034	-0.9906722878239577	2.5904831820888092	3.111994973908715	2.2320136967572854	-0.6562449319483349	-0.36817738320854876	3.7603213692139867	2.9554111882933087	1.294471141407983	-0.34713071497059456	1.6018507440178493	3.43981312836975	2.999216787395357	0.07736089061040381	-1.543331261552987	4.288338173529676	3.41644143195659	1.0635328265995057	2.913350813185878	2.1739928667493547	0.17010144846408218
508	1.9638947198875287	-0.13353991474768298	-0.8975989795910803	1.5842813213403453	2.540619366907086	0.6545154435798987	-0.5235246406688889	-1.3164873089930835	-1.8859745216437065	2.792003862961244	2.113855356601505	1.0162209246727532	0.2663115852307956	-0.8115823844446343	2.8498921322395283	3.3582467948049333	2.429321521347632	-0.8541624524485496	-0.2854422919696046	3.9035141369493838	3.244288913165159	1.4440803491372507	-0.7467124443275008	1.479939218599328	3.469730606855617	3.1978986182535967	0.05437781648019807	-1.8191628410186276	4.259538162921237	3.4856622131081183	0.9735413765169588	2.8289127278430337	2.1117634719937493	0.06631702912991744
512	1.967600817481016	-0.31443920652156226	-1.180514809488969	1.5714741905590814	2.486484282891542	0.47054397941044035	-0.5333378897552884	-1.4611965380970273	-2.12695621907148	2.8193962502822214	1.9630986402539186	0.9646232699835362	0.15726330836645233	-0.3825153102753916	2.9022703097501084	3.3391640102004025	2.3031222762133736	-0.8860100485366603	-0.02010833839465636	3.789600362746632	3.3331603919752038	1.321992155552061	-0.9200807786599905	1.4462342225754163	3.341183177141716	3.2956447518111327	-0.0006914172536932034	-1.8886951160429657	4.174615372608303	3.5511181264865592	1.0279798481736433	2.7612597872637186	2.1408503001521235	0.15550106724579477
516	1.5740065534906151	-0.6590908153105955	-1.689669843222397	1.5042135677506878	2.3773693978368304	0.027026299318981723	-0.5092784749524462	-1.3424029316388346	-2.279167646375782	2.7244965961333922	1.5823268850430945	0.7627199868972542	0.28140121627332537	0.15285280308278798	2.8052768636448957	3.137246362394766	1.9739849517575	-0.7611709813927422	0.33315524374771577	3.5210819155485993	3.2674703515526766	1.0643131706069349	-0.8511248805491753	1.5355048140858696	3.1492142597797113	3.335005274935634	0.014177807570961164	-1.7526498988724086	4.1283707514482035	3.662188282303546	1.2605948416354191	2.761492722214913	2.2894627990139735	0.4535351980202779
520	0.9256009436126367	-1.0299626562817354	-2.2334721032019673	1.4243406021396645	2.2925460280711305	-0.4752046155852731	-0.4813797163730577	-1.045279381020286	-2.2650113048587888	2.606345170116388	1.1783832281878932	0.5512137399108094	0.5593028650467888	0.6198382361975101	2.6804540089643156	2.9150595591379846	1.6433961349957211	-0.5454735742148527	0.6594262106458999	3.2776391423442637	3.1762294689095025	0.8775120951431985	-0.6058191641770881	1.7637580588632842	3.0480341834360454	3.4130854520456295	0.20401008375635502	-1.4654251300052963	4.23833512189811	3.8804008862753174	1.6686050849747993	2.872626058955202	2.5626318390042195	0.9181348062222767
524	0.2602157288180398	-1.3041940894577757	-2.612789624293233	1.3501512970214935	2.261689657223132	-0.825422404112603	-0.4579036224248371	-0.7545229177498589	-2.085957998731265	2.5419778759673766	0.9484326815501398	0.4621058094755374	0.8169490674373714	0.8860465265791707	2.645288937565672	2.8286869454491943	1.4850219450650721	-0.3380994490193515	0.8648002125840454	3.2224707522095026	3.1948203959865884	0.91616147525268	-0.2996327571456454	2.0974860138388784	3.166023723238248	3.6165947822813296	0.5968947395513352	-1.117207643549256	4.568487632661234	4.228650559239455	2.190272802545044	3.089829198665606	2.9197370932295685	1.4499009811034511
