time	FP1	FPZ	FP2	F7	F3	FZ	F4	F8	FT7	FC3	FCZ	FC4	FT8	T7	C3	CZ	C4	T8	TP7	CP3	CPZ	CP4	TP8	P7	P3	PZ	P4	P8	PO3	POZ	PO4	O1	OZ	O2
-200	1.1247106762146388	0.4554519641821256	0.060186680254375256	-0.3477527788442224	-0.21672880594847888	0.719796178907787	0.23541356563736549	-0.4304901648619846	-1.3225083317745128	0.19319322656492258	0.5475718961242277	0.44493341333587966	-0.7949707488016077	-1.4796106777981557	0.507497011333897	0.26607087187347794	0.15314906796889607	-0.7130433302996532	-0.7873385528713226	0.7715312223028644	-0.01545323706987057	0.11237483443260085	-0.8408852198351293	0.4536160517207116	0.5858657345285216	-0.4611397970001016	-0.0569571627728573	-0.3860231330185341	0.48683726664652544	-0.14319951796140062	-0.5218389021096075	0.19159290146138855	-0.22801987769254703	-0.5801050648348139
-196	0.9924045180060467	0.17470791891811205	0.04200122122293088	-0.32348591007576316	-0.3931413282958962	0.4016539444319357	0.16735036628909747	-0.1875791544946699	-1.2376860348924161	-0.06837411207579268	0.1069128734154309	0.26914700797792457	-0.7302177529972282	-0.8728173949139627	0.2151512051157081	-0.1566082682231858	0.03484457349920509	-0.6600918157124261	-0.21477623229637283	0.45529007796732435	-0.3841221918898344	0.0022310111615358556	-0.8116656521331753	0.5813212380037405	0.3895202269256441	-0.8137068727929997	-0.10169102225855178	-0.19036067974189677	0.29783639236594006	-0.4074135412420401	-0.5160267936075885	0.22884917201437446	-0.1593281473667094	-0.5275422321351859
-192	0.4732929754228632	-0.22950072528593043	0.03591184681527804	-0.4395551968444077	-0.6362747533946288	-0.1436594572016487	-0.36568674352825253	-0.15359100660646743	-1.11803173736584	-0.4300920952428572	-0.4292790580878512	-0.09180152393051591	-0.7121357899805945	-0.2280269408429351	-0.2063765520607364	-0.5794020280514632	-0.20085883089851986	-0.39004453918208704	0.2891457967610506	0.0069632693018047255	-0.6552994234706501	-0.19129392456395006	-0.5162492381413286	0.49358770126655194	0.05641661942662492	-1.0129221652206326	-0.11772823304016714	0.027963099930615895	0.07653740029084673	-0.5808539375898812	-0.41983535779812614	0.21743719224868469	-0.06046985819569788	-0.39472278852940645
-188	-0.31298398892536755	-0.6531870348651435	0.028671987282365592	-0.6671671254479807	-0.8725213982487554	-0.7469545583939672	-1.1894006699096495	-0.27555698086785363	-1.0269334290326086	-0.7710497359835844	-0.8803114272780072	-0.5727536067807123	-0.7198951822225089	0.2310405516751702	-0.5984745606571183	-0.8783851243730195	-0.5176208602234369	-0.03986840685076941	0.5077116476591913	-0.3923315097917	-0.7705725411987174	-0.42297461522123053	-0.09677795296315199	0.22158506456697055	-0.27891197730217787	-1.0220777962628853	-0.11640408605750259	0.17720159843528413	-0.10550750765388435	-0.6226759537234571	-0.26943626931828923	0.18001712813226955	0.04812763991721811	-0.21655809824627315
-184	-1.1372152538197864	-0.9814280246751476	0.0002005482523993833	-0.9319097972229596	-1.036864397292142	-1.2037794559603827	-1.9814764211218256	-0.4143793572454187	-1.0009332870007794	-0.9789580082018916	-1.0909210415953596	-1.03892576432185	-0.7009308916514927	0.3636274626611068	-0.8174958208425156	-0.9700123047180076	-0.8352055528534669	0.21506622379363413	0.35938227085930957	-0.5935764297757776	-0.731708643973231	-0.6326357706309892	0.24412195322867541	-0.129823252230936	-0.4966248261310916	-0.8847299195840512	-0.11396535457209409	0.18496385170014068	-0.20540419169064805	-0.5461332188169165	-0.11964625835013247	0.1470744457107879	0.14544685148233796	-0.04813132422931398
-180	-1.7437357858501759	-1.1300491066058236	-0.06431889517757622	-1.1438217134207216	-1.097643730253313	-1.3640251125229645	-2.4124972759372283	-0.4358013559305759	-1.0218182776401885	-0.9972762440298185	-0.9979598496990215	-1.330908175922922	-0.6040417536743735	0.17127843157916783	-0.795326469320729	-0.8432595112491177	-1.0544996234973123	0.25781339341875537	-0.06092444046851029	-0.5421606884619559	-0.5902730211613763	-0.767392275780111	0.3538041403897657	-0.420403151642823	-0.5389286266071704	-0.692076204459951	-0.11672659188840678	0.045331228409996135	-0.22108761910409228	-0.40392601388039234	-0.014053202198727658	0.14047659898100115	0.21703818385640444	0.06234940125697727
-176	-1.9468358705958813	-1.0735942098214786	-0.16879498915971008	-1.2299627034604996	-1.059044835277829	-1.1969332664787664	-2.2971820773300555	-0.29247701094216955	-1.0203980181680663	-0.8416370132177832	-0.6542324407272196	-1.3331282105166211	-0.4131398488581215	-0.20870441145656202	-0.5595422372996024	-0.5574200139277328	-1.0975412102645583	0.09512114500825528	-0.5292686806667463	-0.290229468804976	-0.41338676109848016	-0.8004869798477086	0.21266569143484962	-0.5311211334170437	-0.422676204567916	-0.5268124924710432	-0.11499994964175142	-0.16795809524569297	-0.17961320235680772	-0.25442507798808583	0.03658451875748267	0.16690878527939387	0.2619167559686676	0.09776522194497715
-172	-1.6911083417157744	-0.8485365488563389	-0.30484124941154794	-1.154236909813188	-0.9434372758887712	-0.7949938754037221	-1.6736310678188604	-0.049125857527202804	-0.9121531225062999	-0.5794447645816593	-0.19593156824711874	-1.0258588764993108	-0.16296701092105975	-0.5662655220040023	-0.20780096895682118	-0.20684960432280194	-0.9384363269954527	-0.1505789007915091	-0.8006156066708091	0.04174024601173103	-0.24453569886933918	-0.7354865055588465	-0.06399535371597166	-0.41280689731324677	-0.21626152043578079	-0.4156139482495343	-0.08929567761525978	-0.336397497996732	-0.11112803937749828	-0.12878954378036744	0.055376387992760234	0.22207398656566749	0.29454398080847194	0.07951564321707753
-168	-1.06347810953574	-0.5352698551015154	-0.4512787151863907	-0.9240942574058084	-0.7709078173247325	-0.31941038289489077	-0.7754110674354332	0.15970414836616445	-0.6513503773456717	-0.29025107548865253	0.2265965038777432	-0.49561729902067453	0.0680602116654562	-0.7174118739135016	0.14381036126067778	0.12596152691033313	-0.6108962282015928	-0.3271537712897235	-0.7296037059483025	0.3274475327807574	-0.08323289432969021	-0.5923690780942557	-0.3057400874524915	-0.1083018478997056	0.00021642997980888173	-0.31898605742980607	-0.0210755317871138	-0.36085447577922236	-0.027906661782736687	-0.01910184132700423	0.0806837377895335	0.2993329755855044	0.33888602171214405	0.05438575134851376
-164	-0.2547006600625091	-0.22472348752505023	-0.5753186330575004	-0.585560737561976	-0.5498638735239891	0.0807588694440832	0.08412799217918354	0.21612709706099048	-0.27405321528861193	-0.030469749045929327	0.516463695652689	0.09943241600919975	0.19286130320016767	-0.5915635809267946	0.40828606383238175	0.4011786569956967	-0.1957714552704951	-0.34949368150210425	-0.34335908207034227	0.4868557440863592	0.10159394864419956	-0.3958809365767907	-0.3911156346459966	0.25825655395154157	0.16664203959353627	-0.16807439880851732	0.08864632971555492	-0.22271864059960814	0.07425890099135111	0.10252356503351127	0.13414847816930325	0.38864174387083994	0.41054552689850027	0.0625520048946379
-160	0.5120190965122993	0.015391756741585126	-0.6366642697472525	-0.21058835036038248	-0.2845788292852459	0.3330461076434076	0.6589322669558934	0.09152582264680342	0.10135501597564005	0.1790324743042273	0.6629372222375298	0.5994313940172818	0.15844984312583915	-0.26620480350995007	0.547994850682486	0.622157452919865	0.20993532187387204	-0.24879021879802016	0.17059220330560132	0.5032423125912823	0.3344524792333322	-0.1716628666358373	-0.31537073771008256	0.5270577655836748	0.2521381073784729	0.07510129343383488	0.2069320673486405	-0.004763809486372034	0.1950029129827016	0.2476968162958598	0.1963777537156196	0.46843299151408246	0.4973778414089603	0.10618171814097836
-156	1.0462975475597687	0.16109302599289163	-0.5961920007912076	0.12207230894739703	0.011963603056564387	0.45907682064498906	0.8699472524613396	-0.13619488443321007	0.32497611559835266	0.3450385025372935	0.7279596310356138	0.9087792612019518	-0.025575740198293482	0.07207291555089394	0.5712655768276516	0.8134393671479232	0.5274186717068785	-0.14827138148066174	0.5569301829582053	0.41053402320208765	0.6019621476234107	0.05516817779321458	-0.18228894426098657	0.5692866430214601	0.25038409169877357	0.37783375287029547	0.2788855426422867	0.14918370507245166	0.31083300631246635	0.3881551911567669	0.21100962108743015	0.5028424250304937	0.5552856908130043	0.14174778723691647
-152	1.2344776360815468	0.23138543905013104	-0.4329560686147615	0.3471159926233722	0.30807998698653133	0.5376937375798317	0.8121655562876444	-0.3332447401216201	0.29607626721016667	0.48086637137122573	0.7957755903179777	1.0271400187308783	-0.28765070365760187	0.2231713974801789	0.513345657483071	0.9918708180180753	0.7200806122719371	-0.17550001994169356	0.6187353118533708	0.2661248736815081	0.8490895011445241	0.2588461630961711	-0.1275032904505232	0.34642460854804563	0.17289686159350667	0.6452603323857669	0.25562927062344276	0.11626994580477425	0.3770219674128266	0.4641467023098164	0.11804930835960033	0.451917617372125	0.5261823521680687	0.10340684626220772
-148	1.0587942573518259	0.26690003208485497	-0.1647748495948554	0.4308647204488075	0.5568063245066748	0.6388689263426385	0.6720488054474049	-0.38970774313763407	0.0296246390041797	0.5891978129769876	0.9151840186854763	1.0310116980271338	-0.518806277395737	0.08101711401750117	0.4181344200544653	1.1493147582600634	0.799538252719214	-0.3661410501295836	0.31724885025989097	0.12752032247772474	1.00753569348588	0.4170615960558616	-0.22213394883816015	-0.06304762496527455	0.04881260531737663	0.7757279853309038	0.12970524993573984	-0.12527859179338213	0.3547748914344492	0.42377814543541886	-0.09969986204963169	0.29663556739300445	0.37381714488063483	-0.0518312676432437
-144	0.5911841377591125	0.2988420419300514	0.14203453028104573	0.3812492182165917	0.7109906059434161	0.767696259467698	0.6043272599221269	-0.2827237539305851	-0.3331367067032375	0.6586594564974452	1.0648288699922297	1.0130478118115018	-0.6161984785734903	-0.29886814876439716	0.3301132313023169	1.254806276968027	0.8074809888479947	-0.6275970323929784	-0.20297484048618739	0.043994165845899436	1.0388848755356372	0.5169519172968117	-0.42004305018232163	-0.4852180766729676	-0.0690731329962118	0.7300649266884099	-0.046800732494449375	-0.4691922950819591	0.24908317562635157	0.26920872858743367	-0.38741865656313695	0.06565716101043628	0.11747260362053208	-0.3050118379044644
-140	-0.031217653225521457	0.32531240500332637	0.3850856413655513	0.24282048581329066	0.7391464691573941	0.8520004727787152	0.6451406462593601	-0.0890640167133445	-0.5858482107630019	0.6708610636939645	1.1597236365601995	1.0208440993284391	-0.532172380534293	-0.7135614138707329	0.2895394556364758	1.2714546886767875	0.7880318740975994	-0.792103884604439	-0.6775673610746462	0.05455412329370825	0.962563571883878	0.5592633471674026	-0.5876494631235665	-0.7181632500636431	-0.10771954777462318	0.5675083980537208	-0.17721500948032476	-0.7286098581038268	0.12640282479797474	0.07450754176640391	-0.6293743236864038	-0.1593443151265639	-0.1605136241436541	-0.568422852511556
-136	-0.6385331733794664	0.30889207046722333	0.4633242476209597	0.0794792694826952	0.6372092946177026	0.7825415114672658	0.7050265652022483	0.0656003428829476	-0.5643628821429307	0.614086209177273	1.0959356995569418	1.0289128992806016	-0.29565492197731325	-0.9086949206298076	0.32598888791749675	1.1763892144066117	0.7635637502465643	-0.7218704801453782	-0.8476333000716931	0.18230035855043225	0.8471555092403799	0.5551958070089099	-0.5929150566390197	-0.6213658436346017	0.0024794882566465644	0.4197387684715115	-0.1672533299276481	-0.7363996487145	0.0914308575467548	-0.044155899323798826	-0.7009077054447336	-0.2724416249072438	-0.3448170414801897	-0.7212417703538748
-132	-1.0669276687387617	0.19876609692457833	0.32845681822819084	-0.049299742902025094	0.4287905086181832	0.4838681208791805	0.6413863881130158	0.08041196296178568	-0.2391087406797252	0.4925701307735156	0.8099604228551014	0.959993598421586	-0.0039121229102783645	-0.7047100645392901	0.44568455106744265	0.9719431971806313	0.7253571134373566	-0.40540534155533786	-0.5833236560399141	0.42013117564939956	0.7678651790305651	0.516540287621032	-0.3945140232616077	-0.18468418670756065	0.28811189459538705	0.41289561882677095	0.017265219197790203	-0.4452871669017284	0.22875566722811916	0.004822818084550688	-0.537665246559701	-0.19667775879317792	-0.34470337542289003	-0.6739355308683616
-128	-1.2026808231506565	-0.03191711000490441	0.01922270091985209	-0.1105131876658701	0.1553131785047759	-0.02617626630611511	0.36463874486413517	-0.06605476124298729	0.2583394640122148	0.32538339413507467	0.32115068950632636	0.7435279469791262	0.21521104817891148	-0.09748646592322763	0.6179788097037916	0.6833350641164196	0.6434206946340638	0.018194122194011578	0.052207603918824765	0.7150247078962743	0.7550381999026412	0.4447473276353607	-0.07754528502913152	0.45663133148299623	0.69716608348305	0.5817782268140796	0.3173095277881191	0.033473107879288956	0.5382935391186922	0.2215055966745244	-0.18228208972685472	0.06374108030200183	-0.14966052732828974	-0.42386421454225726
-124	-1.0194463704119852	-0.35480043202467093	-0.3420758238738904	-0.10644648197240218	-0.13299153711597272	-0.6217832549609099	-0.09165815985903186	-0.30899184864232543	0.6940806490540418	0.1423383202535377	-0.2624038451245423	0.37297651077516747	0.2598936253184868	0.7219347339522839	0.779018400132777	0.35101306349823763	0.49022143955439357	0.33221638118790664	0.8262514451146907	0.9719116663236248	0.7716841082163273	0.33125644838622254	0.19627678344762503	1.0722142430891228	1.098332759945177	0.8353190400968327	0.5993205293782796	0.4809359597938253	0.9109359360584147	0.4952267991914145	0.22439953628151388	0.4084643413244548	0.15254403612246983	-0.06753330660697206
-120	-0.5954910501704188	-0.6814324838599927	-0.5978850111171334	-0.06736998988069982	-0.3848774423418765	-1.1140429945475414	-0.5783969149291535	-0.5358189926924447	0.8502013065807125	-0.02362022170421393	-0.7816240767771993	-0.07473615538086271	0.10420473638689841	1.4464319907862817	0.8530153610627433	0.020990202150397815	0.2629421346701498	0.36897721793477034	1.4368907176933057	1.0814074250574894	0.733816979462903	0.16941757457397835	0.2899260215591906	1.432387467582605	1.324022051329407	0.9967238877880795	0.7201205473838357	0.6843473297960844	1.165040013232873	0.6500098688880577	0.506848214777155	0.6759765131096075	0.40850865737773345	0.24026483236686982
-116	-0.09311400330399514	-0.8915120340726959	-0.6276903136618164	-0.03085264742035456	-0.5530343041762323	-1.3324521746372855	-0.9077869630782365	-0.6452697499196176	0.6407086236989861	-0.14176222646207684	-1.088969943158208	-0.46670099975057205	-0.18319173110963652	1.7936303570285255	0.7897080163090964	-0.26134720378695436	-0.004732906806440451	0.11365444929515002	1.6487406450606577	0.969864306385404	0.5650648460426783	-0.02857368059692768	0.17843356683503628	1.4071510994669993	1.247311231325024	0.901182649244508	0.6065494998876771	0.5542861209226446	1.1335908145894353	0.5362479673198101	0.5431057201024837	0.7177464347837812	0.471617757083358	0.3631512811551984
-112	0.3008376054320932	-0.8843064285839913	-0.4079143394661785	-0.019711755166354275	-0.5998926147573894	-1.2019546001605468	-0.9530901288764851	-0.5948888644457734	0.15991111059346327	-0.18774360370919	-1.1070811720553526	-0.6737175566829683	-0.4666918504376221	1.6379873711238788	0.5968733414839149	-0.45512378100882084	-0.24638043281815764	-0.28266411948363784	1.3961347306288463	0.6461994035618321	0.2534288161555029	-0.21995502654809101	-0.03572167447131199	1.0220563385908203	0.8550084807743555	0.4979537414853261	0.30437093896313516	0.17493551925361225	0.7593311648271053	0.12059690027783564	0.32851999915149327	0.4759998607538586	0.2776272289896104	0.2523221963233969
-108	0.45119139438201517	-0.6285070761071114	-0.02685033895746843	-0.029372498318900347	-0.5062214719389242	-0.7781369070434193	-0.7134549599754327	-0.40740746156828833	-0.36343860534461275	-0.14822827242143677	-0.8594291188476061	-0.6327099784135471	-0.6007943734259196	1.0692601176922234	0.34622788341846117	-0.5321947322760274	-0.38696390292697125	-0.5885995611588875	0.8082404712298052	0.21447271054478165	-0.12896662917954804	-0.3403742304791387	-0.18754032206869675	0.4433294523490235	0.27223950555732074	-0.10645887228790359	-0.03661641469293757	-0.24053408144780167	0.14092448318187384	-0.4801503705776691	-0.02049350174557734	0.019826393524419412	-0.1182985302799382	-0.02852337241421912
-104	0.33526351963274326	-0.1853118832201055	0.35695046096325816	-0.032339077361236125	-0.2834313504692496	-0.22233881000173594	-0.30729687136312706	-0.14395447039021964	-0.6800798160548751	-0.028073048148207106	-0.45902740839459505	-0.3761901845970861	-0.49594861143782204	0.3459455064145507	0.14425800704297195	-0.4890097069314916	-0.37586307430738464	-0.6259084328107548	0.1458154764070207	-0.16171014268101558	-0.45760175470213427	-0.33437576805569996	-0.15801420767943689	-0.10121640537456483	-0.2817666523495207	-0.6923227292701195	-0.23923312067189623	-0.4682434487441753	-0.5005521761654265	-1.0451203558284268	-0.32777321255898784	-0.4815685140849071	-0.564543365006855	-0.3380890778111868
-100	0.06110980718800345	0.31217241208415486	0.5911662563657251	0.004511150054419929	0.020514741488160397	0.2725256674561649	0.09820009743216045	0.13171593811635518	-0.6412610991500143	0.144824772707549	-0.05904907345764493	-0.01194248624856087	-0.16237656731140546	-0.23065300227581909	0.07973980883493122	-0.35380709081967465	-0.20896846003225034	-0.3708330681498113	-0.32133534469537434	-0.33151897704347294	-0.6198242887106679	-0.1870881463334111	0.04687616962280276	-0.42556235086762073	-0.5906786307680487	-1.033733365309996	-0.19441300581484894	-0.39660605688097494	-0.9215450263598459	-1.3524190153308926	-0.4491580415352812	-0.8368071296545381	-0.8842191673842604	-0.5321004377282308
-96	-0.18287806166729798	0.7123709899082843	0.6044461711881535	0.09903400366336573	0.32878595507580954	0.564581333165481	0.37494525218712804	0.3804770698477984	-0.26480355791946325	0.3223164073435779	0.20874467439400612	0.3267589501237282	0.29497575685413474	-0.45817178372100453	0.17501588121572778	-0.1844815160146748	0.06262421592160097	0.03713349616092947	-0.4370921839168951	-0.23278973937865494	-0.5765845761046887	0.05680323005282319	0.2998969845352676	-0.46401229383618725	-0.546196995786665	-1.0123950217435698	0.07490294407768436	-0.08648002870898512	-0.9748476719085583	-1.2875930038368477	-0.34658735903019394	-0.9243437624482083	-0.9604470705578924	-0.5382301793814559
-92	-0.22402393761341005	0.9075144506430114	0.43811651953709635	0.24028502344023653	0.5581501708243878	0.6155980809881837	0.48984297986334774	0.5882866963792514	0.28635382579985325	0.4490318585026103	0.2830465726858735	0.5366458283226813	0.7214857321643245	-0.31675094286101685	0.3693799367161785	-0.050447884819692874	0.3458206644863838	0.38387611411450046	-0.22141674105054984	0.06988602859018682	-0.3835830678792021	0.30137738509381634	0.4333093751457756	-0.2882084839220017	-0.20532827027455708	-0.6743009073399122	0.4179782856878703	0.2638075941101034	-0.6833349449071303	-0.8983839131561456	-0.10383448723564967	-0.7489657979175454	-0.7898466567124939	-0.38887986442611644
-88	0.003758004857052382	0.8786177613009905	0.2153174871730504	0.39137938519846177	0.6506560428404362	0.4915861474977254	0.4960937487474837	0.7499273400446342	0.795975444691405	0.48359414813016216	0.18925145220658848	0.5761446938273569	0.9825968121515973	0.04514786589667849	0.5469555840988062	-0.0036460983009223413	0.5354205356431272	0.5109308349107378	0.15155632755639056	0.40954369203164487	-0.15850387473619162	0.4349937427982308	0.34802275808205085	-0.06029172598994607	0.23327985347024435	-0.19853229770603714	0.6293932779633944	0.43003496419098425	-0.22830860259111008	-0.3667405238428985	0.123246460841863	-0.43453779706917256	-0.4779139149043758	-0.1961116934831752
-84	0.4187903095639177	0.6978190523649157	0.07464033346404761	0.5082506524605344	0.6017869099682135	0.31953257241637184	0.4804390358715875	0.8550486543048327	1.1010789843416249	0.4214429248659821	0.0216508078773562	0.4683282661534765	1.0216411326363635	0.4062812616104231	0.5994505867128511	-0.04928199189379774	0.556586681391232	0.4037235965072462	0.44952794795982337	0.5989478811400847	-0.011036197627039215	0.38449409506997145	0.08033992329817591	0.05627619088388864	0.5280642496128108	0.20458896406495208	0.557602702163508	0.2871797077557759	0.14486932717940612	0.08792282618735611	0.1952238375980038	-0.15542650183536902	-0.1787734921233321	-0.08328276106549952
-80	0.829183516793079	0.48852613444964976	0.1010886949728754	0.563358245857778	0.4679449784862161	0.2233675414644783	0.49960908167584894	0.8886026121592651	1.1564607591041431	0.30411937756049573	-0.10127450500191296	0.27711668540607576	0.8795977212632685	0.5945581778773944	0.4874128090950235	-0.13719248737029707	0.39649385113746854	0.18806894076071387	0.5038449751530846	0.5268411027004632	0.019858591208387726	0.15343332251911224	-0.21857914273389206	-0.02077478165149769	0.516944705134812	0.4045215834894844	0.1855257595861808	-0.12341132728889548	0.2529707246592382	0.31897661009363304	0.0647354645882791	-0.04465201113275363	-0.014275837653595113	-0.11402620346367554
-76	1.0355000469766782	0.36655527260740434	0.28797474430810516	0.5613667354715708	0.34668528946131266	0.2733468406451622	0.5507411346835784	0.8415594079704816	1.0302022669531274	0.20725662953978427	-0.08620744176795428	0.0770889071663998	0.6648262126349822	0.565395234587834	0.2654893093558727	-0.18113122834727594	0.11377285392169738	0.04035726924482171	0.2926879815818194	0.2181410187935767	-0.01459185775410606	-0.17329706207867945	-0.37543794417959747	-0.25779625708342574	0.1998542691191729	0.4096630503325063	-0.35761183410001607	-0.6182466729767359	0.06653658283839327	0.3181582979275777	-0.20004002699414639	-0.12661513654212866	-0.01466456145070986	-0.25705769593187855
-72	0.9467228627144298	0.3912164261000573	0.5494607077077462	0.5389620052081604	0.3370956173969012	0.470627783540783	0.5941289052268058	0.7231987100461996	0.844805119288886	0.21072106010163982	0.1026486602814178	-0.06558409316670673	0.4920660840962451	0.40178629654532527	0.05751499891661148	-0.09790319924670322	-0.17605151191608548	0.07225651275749981	-0.0537786184383645	-0.17387218729466514	-0.0061486465701194514	-0.45786806825431836	-0.3003675035999366	-0.5287243710520316	-0.26033866339757866	0.3471018663225961	-0.8543955066090331	-0.9678801869751301	-0.2791435115442233	0.2061034435790651	-0.45219081526076327	-0.30932721417530745	-0.1099465412105823	-0.40384897487721466
-68	0.6396848543229088	0.5477315769671779	0.768258152452577	0.5452282414975765	0.4937834131171778	0.7626627068337696	0.601731358439423	0.5640632495944014	0.7036918979998075	0.35992711691582585	0.4348559070575357	-0.10192918751731174	0.4255862523301153	0.24170592366228844	-0.008924961998877103	0.14894513748234048	-0.3403612068642881	0.26400083236797733	-0.32959711468450986	-0.443645118546957	0.14305870198847428	-0.5627675638295452	-0.041093181714973365	-0.6845421177747185	-0.6205843671389246	0.37776172065726626	-1.098332759945177	-1.013009664838942	-0.5585684166157208	0.15588320752364618	-0.5427516685134118	-0.4393945623271435	-0.17567756727686998	-0.42963310967692314
-64	0.3202581993600354	0.764812467551456	0.8503431656349197	0.6134356244811922	0.798052487742649	1.074209448963297	0.5946884736305444	0.40666526453341906	0.6472778303970306	0.6381789429764606	0.8287838080462244	-0.006338079909624403	0.45568305138933635	0.18398681236544925	0.12704889444222522	0.5236380087029655	-0.28334942388521267	0.48518201586296955	-0.36890134122216284	-0.43825122603394867	0.45806959155779514	-0.4068453599671532	0.2504794591301734	-0.6304479225453875	-0.6801280958170213	0.5982249960100738	-0.9832015012713169	-0.7366897445198894	-0.5742404446408805	0.2948974959557423	-0.394064127403979	-0.38696092269474	-0.10432272378093341	-0.26122486525386174
-60	0.20667864330085656	0.9537560319662346	0.7615666966284069	0.7404390554807297	1.161851760791887	1.3356791700972777	0.6395182593411821	0.2904695563135251	0.6563548429130233	0.9662758683604062	1.1822841137600146	0.2185533935274141	0.521741090887778	0.23664323925829955	0.4231932152553924	0.926703391119619	0.011715436324700885	0.590435145794756	-0.13286812569927686	-0.1364085521830292	0.8701711275065508	0.0004222526902847917	0.4197257448566609	-0.3696406176294455	-0.3792254617176424	0.9853175257601456	-0.5421006069801739	-0.25664052302414886	-0.2559704178069534	0.6387194974985638	-0.03284012517982393	-0.11498707503851245	0.1361977603573132	0.08493331053271061
-56	0.3953122486624245	1.046587464551224	0.5314711318902811	0.8819728471422816	1.4588186704043613	1.4938628635837055	0.7973980287446676	0.23871368109515134	0.6886617523926134	1.2278133599753256	1.4022568428875593	0.5313454256947672	0.5609192237997269	0.3279369167154501	0.748412547606137	1.2312748401072722	0.4653068471127955	0.5220553265742405	0.27004072001943036	0.33598294769336584	1.2450695006406813	0.555907367256442	0.40744522111065823	0.0006511253870416803	0.1711754049509337	1.4071809017893118	0.07243232410740154	0.2448001646775399	0.3036834291897092	1.0839807959845251	0.4247673739199361	0.29741826578389635	0.48134410259789434	0.5073106872147997
-52	0.7877967933791988	1.0161799166772512	0.2286228531787337	0.9682146882407651	1.570666547624414	1.507989402778386	1.0575530502321568	0.25531619722755045	0.7150518876142232	1.3120373454346776	1.4245204889571423	0.8414382913326037	0.5526478872651291	0.3673003306652156	0.9427250003855037	1.3300862278735446	0.9156221128234693	0.3511332562641238	0.6422395689961767	0.764565048671618	1.4425301515398463	1.0888360711263805	0.281093090062937	0.3377107075271079	0.7437906246479881	1.6892291264800405	0.6500945670880697	0.6072661265300023	0.8933876134251076	1.4586974345571944	0.8231763222892028	0.6893934590100287	0.7963773588101107	0.8617634155450512
-48	1.1306289405887346	0.8711684324204148	-0.06640506519002842	0.9353524422872048	1.4331370555934078	1.3488478626528362	1.3093142476403443	0.33024048721859106	0.730458376947579	1.1593416899974431	1.2270618646158948	1.023289677897399	0.5289219008443186	0.30879190486193114	0.8944544173546042	1.1764844626287223	1.1733667820869722	0.228250890393952	0.8000137189693868	0.9507421231107763	1.3789375985616692	1.41576361298743	0.18135477556694163	0.5203107582307142	1.105044600557809	1.6995677905088085	1.0016558145029226	0.7552353124624158	1.2832241025951314	1.6041405160457598	1.0312050554942969	0.8947395659744898	0.9395146346213618	1.0251992915018917
-44	1.150305745081597	0.6372117980127769	-0.27987486053377086	0.7570953946072252	1.0595791313122467	1.007037994703262	1.3793784345133149	0.4435826528793901	0.7395766954822967	0.7859910706702874	0.8338993766711568	0.9579830741537435	0.5439248071289191	0.1770746405422331	0.5915068969097563	0.7989414314125848	1.0968723269425777	0.2794120602705808	0.6656107289675353	0.8044320920661416	1.0585288974739557	1.403553720745308	0.22111475411855777	0.4990259694374835	1.12054240420673	1.4058154785902446	1.0192447875038637	0.7068498116766795	1.3260176148314486	1.443413373163898	0.9871924494614666	0.8185330608682782	0.8265666344754673	0.9450414752942059
-40	0.7159553152128029	0.3431432536521555	-0.3588555744170816	0.4615734803943924	0.5350341783366686	0.5081732856318112	1.1200474472377648	0.5673472866992997	0.7327842097854873	0.27849671174307616	0.310265540293315	0.5885375127238329	0.6286709292751852	0.0408326200109956	0.12242836474264446	0.2852048568677413	0.6556137783664018	0.5159935342158878	0.2991767518119426	0.3792970468958369	0.5615940675861701	1.0187106106787354	0.4021625806668423	0.30840459388115854	0.804600475187207	0.8787305332886208	0.7013110500749103	0.5360235558327974	1.0119383309564538	1.007064220746897	0.7106750589547719	0.47661676882572634	0.46691530825032085	0.6537860615436237
-36	-0.06924157572192179	0.01855475078308883	-0.2817140512506392	0.12346590279163015	-0.015392406804740567	-0.07586912791647346	0.5081773983522904	0.6578694565375867	0.6759877783874416	-0.23993125497322657	-0.2494302087685189	-0.034872911782433944	0.7510477881542932	-0.04671219352014937	-0.37041014339387535	-0.252355396110453	-0.04236630712183899	0.8110542872932577	-0.14630308710353587	-0.1630325909313083	0.003738188641021032	0.35082191140292557	0.6033586248423275	0.038941271504790195	0.2966106228492289	0.25152137812053904	0.1468043621648313	0.32240331091544105	0.45787545923025186	0.41268283024546004	0.28631755637359896	-0.016392469364740925	-0.04126423959446626	0.24954147573887245
-32	-0.9049820281068331	-0.3015173666017179	-0.06786378455909484	-0.1669549937801393	-0.47165953993924004	-0.6344035847859192	-0.3067030600910514	0.6523972137192189	0.5269675837563572	-0.6572033150292588	-0.7421154957154498	-0.7491301279227762	0.8130494931674317	-0.09160645282981976	-0.7607722859248461	-0.7143798452460774	-0.7773579339428164	0.9672237014192314	-0.5127195702959311	-0.638577400025778	-0.5102918135157142	-0.4046232690132145	0.657446084746816	-0.21234671717913944	-0.21771967356072328	-0.33806928906917133	-0.47610434769588605	0.12078663676283785	-0.15493942758065546	-0.1842048759578095	-0.16534149605014317	-0.49929496519867567	-0.5488445744962587	-0.1413314189918892
-28	-1.4399342500571424	-0.5729413614112807	0.2133268410541902	-0.342521130173883	-0.758755026332161	-1.0507277223761593	-1.0484313938373402	0.4906495201120896	0.2692123644707558	-0.9138326621825404	-1.0846337052617463	-1.3310444321405346	0.701558826582616	-0.15364402493786128	-0.9960809920911553	-1.0425364944839373	-1.3014917340797718	0.8367860296103409	-0.7135351878270979	-0.9312080717417907	-0.9181186533635833	-1.0100603078136123	0.46666788937048287	-0.3839705874762309	-0.5970679506486152	-0.7950702885581312	-0.979146239669617	-0.03775949394110252	-0.6615919454083458	-0.6456183774860287	-0.5203190432763171	-0.8312229493135648	-0.9104193426034507	-0.40380123155687014
-24	-1.455984469552447	-0.7479146104049406	0.4483030427104593	-0.3869699527984007	-0.8653265215960833	-1.2467850415222754	-1.437457915491556	0.1476731147614004	-0.06087156742343771	-1.018336293510491	-1.2391879527276743	-1.5905181129353165	0.3578124335315012	-0.2923024587403855	-1.1107259960741653	-1.227018949271765	-1.4427409135632399	0.41632205142767814	-0.7584289293214181	-1.0371607515852173	-1.2044301002611082	-1.2735933033259288	0.0797163916601742	-0.464914678353486	-0.7980471233246328	-1.084910390022095	-1.2099642723052413	-0.12808139589874012	-0.9717173551821475	-0.8911991692930598	-0.681546686359094	-0.9400301551927226	-1.0325839493430493	-0.46487170340471146
-20	-0.9827595924360679	-0.7922471145654727	0.5118638264130514	-0.33818876657932195	-0.8353502729306161	-1.2170442312030765	-1.3305762972616504	-0.33506792699140664	-0.3792931427916139	-1.0309497091967237	-1.2242342202748895	-1.460651990063734	-0.1715396787365588	-0.5082541095299226	-1.1925673454692816	-1.2945286002854015	-1.1835974424996798	-0.13842399383405335	-0.7221829872971466	-1.046212312917955	-1.3844681943271246	-1.129044768343894	-0.3183262638161307	-0.48231294629394983	-0.8719945527949159	-1.2225851981766969	-1.1044216128121893	-0.12119666456379315	-1.0853760215059047	-0.9132660604307361	-0.6041354521757238	-0.8372594096979518	-0.9004728771363145	-0.30974227111815295
-16	-0.27419087221537314	-0.704056976448135	0.3223729125466823	-0.26261916690324977	-0.7357169967196111	-1.0288617584955133	-0.8013922551902716	-0.8393116572170318	-0.590982256827768	-1.0217094395591035	-1.1010527582979899	-1.0377885077024067	-0.7330214958757391	-0.7229443174229405	-1.3198672499711834	-1.283255335428915	-0.6746825558794455	-0.588381467764205	-0.6818932277629433	-1.0721709701171251	-1.4790350161403683	-0.6697148663778276	-0.505561410104348	-0.47299107789783806	-0.9124553180545482	-1.2462586133009481	-0.714030800447154	0.005109382314746067	-1.0666148635637702	-0.7667663078022603	-0.3102064720904917	-0.5976141676119578	-0.5753025398034517	0.017984960182797067
-12	0.3319884828291833	-0.5208622800074284	-0.10355120871148923	-0.2138108307685444	-0.6156039818480016	-0.7856106142236466	-0.1142597717142188	-1.1929159134310479	-0.6326235516788411	-1.0241633627783109	-0.9393592453128247	-0.5443867431247621	-1.1156837912047757	-0.8094884136743168	-1.50362205125743	-1.2166117399016783	-0.16982486801186147	-0.7309381943368094	-0.65957635474571	-1.173695442097434	-1.4940720758863388	-0.11278551788464701	-0.35082271606562804	-0.45490828041617953	-0.9858685706997029	-1.1900299757475994	-0.19091042828043342	0.2434786552004	-0.9932373141007458	-0.5393909202308812	0.11479079694376264	-0.31631171623477594	-0.16495194989519713	0.43198546658168957
-8	0.5929117783835653	-0.3061246864219337	-0.6308635457323569	-0.19848005423502343	-0.47914624093199565	-0.571108995426222	0.4051131595873866	-1.231969949472888	-0.5031852709463762	-1.010448095631542	-0.7788702825908841	-0.22278062943001803	-1.138434764848812	-0.6676125509572626	-1.6696959691807243	-1.0892775031244724	0.09497514343124658	-0.4988672720711697	-0.6156106575681995	-1.3142009940345616	-1.4154654705550163	0.29786351247924436	0.10298374269233784	-0.4226430047808599	-1.0895677777437958	-1.0690565082261847	0.2693907909744404	0.5378562794457239	-0.9152367091913246	-0.3160024873384619	0.5449546561787482	-0.07274098675959159	0.21483460014462175	0.8263577798007016
-4	0.47936865566341347	-0.11968164115729793	-1.043141004789723	-0.16974595146237811	-0.28656765746244506	-0.4058063914066965	0.5382797704457838	-0.8753485657526038	-0.25830370122543983	-0.9036949850154476	-0.6083841308492316	-0.20999562687307127	-0.7334605436880461	-0.2957707039994971	-1.6923826890178548	-0.8727464057822144	0.020132465237213435	0.015440016014634707	-0.4913958894720827	-1.3822683061033088	-1.2204993932426929	0.40536948936159595	0.6506574733519073	-0.364200918947043	-1.1569753856058345	-0.8804126955692249	0.5062851296993836	0.7882968763476018	-0.8394863584304274	-0.14883227608774324	0.8527817704604584	0.08687327035189792	0.47560468195999545	1.1027255030447431
0	0.16503578382786205	0.00874164325772035	-1.1305617065495979	-0.05419522137667997	0.014131518976474492	-0.24377097127880168	0.2900844805069259	-0.17023721294337657	0.026990091360017236	-0.6253469570583883	-0.37930062317451435	-0.46239733579239783	0.021979186628401093	0.19299791704564795	-1.4645529948451448	-0.5409896360090104	-0.30474549454995803	0.619891165121937	-0.26470524005815443	-1.2604676453237897	-0.8998860098053377	0.2137452358571347	1.0299781534893377	-0.28178530860328826	-1.103331920699157	-0.6160378440562262	0.46323853614198907	0.8906033016607445	-0.7420361023288095	-0.042704813074534685	0.9552971100530114	0.14969724378937868	0.5799880013127706	1.1993828981635608
4	-0.09980247889593404	0.08831302054281245	-0.7921873907115585	0.20023576864709458	0.4398105729443031	-0.01536833304757011	-0.11410965741673097	0.7108863574199672	0.2998976997910031	-0.1556035872345496	-0.05031397553496245	-0.7744166235445114	0.9311072802877299	0.6240549667814989	-0.9699188446352357	-0.10554896268422097	-0.6447980387620561	1.1180076570894113	0.018561597866640116	-0.9059915519728451	-0.4812780904539723	-0.11681750387262092	1.0560406419794446	-0.2045454824766982	-0.8866043068435705	-0.2832348637582436	0.21107160991784005	0.7884438614012468	-0.5993600472576659	0.03570670625493056	0.845353362810146	0.12294256656124293	0.5447634444787915	1.110926267680105
8	-0.14298737013001941	0.15429530998851643	-0.09996912603172468	0.5822342619501047	0.9369333958812357	0.31037631552535033	-0.353461652101751	1.526444788893595	0.5528228865017478	0.4288547028204442	0.3630971303355567	-0.8877257682321881	1.7510721639291875	0.855003175960984	-0.3146597139043521	0.36106762198840103	-0.7440427522947515	1.3926951850061215	0.263098388246034	-0.3930565406889173	-0.04105176021224935	-0.3578808894658529	0.7156062108092348	-0.17799316301706403	-0.5448539243293321	0.07725325207279181	-0.09244106686617996	0.5079252111008824	-0.4167870868650416	0.12794052032116918	0.5901481494308871	0.021075360423760504	0.42428359282183803	0.8876914359568842
12	0.038539998136014185	0.2400634580750046	0.7178713065142703	1.005605337465058	1.381674763052134	0.6825102550441002	-0.19383290361103706	2.057751888801868	0.8130161145664417	0.9644230579822411	0.766729650945816	-0.6403392537162456	2.2836642207662847	0.8527946450636974	0.30021729989548185	0.731055853905299	-0.47131612777923365	1.4371240102723675	0.3810309460079753	0.10737618776868085	0.30385893506580725	-0.3436875930691924	0.16934944646517208	-0.23651201963315782	-0.19017584573891494	0.3836012174934904	-0.290460675221476	0.14995592794705076	-0.2393873029863797	0.24504217443587814	0.29404205009608564	-0.14012849295523055	0.2804278128219561	0.6117334350399942
16	0.3020044259552703	0.3540191045406054	1.3719409669570195	1.3415435518726326	1.6263596970504528	0.9764538382672655	0.3745135059437876	2.194023603622	1.1064922781664586	1.2636467186495035	1.0154015992277392	-0.07159659248395461	2.4420008597708196	0.7094951254097773	0.659836648228787	0.8631070234441858	0.0932854411630975	1.3249895539209584	0.3499929300054824	0.40293848412824695	0.4277606595683541	-0.07143072765912466	-0.338308571915018	-0.3759471168563057	0.03872061138509851	0.5250353203869071	-0.31630346099149537	-0.16112256009430329	-0.1393661644516392	0.3417343786671566	0.04258455325342336	-0.3436123720076758	0.151570006822332	0.3580815186996603
20	0.47083613157606935	0.4772757577766993	1.6454656082570978	1.4807921610639105	1.5743559559174063	1.0591331693611632	1.1272143097074632	1.9691740224712457	1.4237936699205864	1.2069641321226914	0.9871019100062813	0.5858813509454134	2.2646002712294555	0.5845292195820975	0.6349453314009149	0.6705445630310062	0.6901695710876895	1.1507215470825003	0.23204123915261654	0.37401452566131016	0.24792909559596304	0.29373451993214345	-0.6065336450522069	-0.546022532991848	0.04265733424980066	0.4004386355303562	-0.2285010957909262	-0.3410631707640356	-0.18384902132823763	0.3258028320193001	-0.13941425049869036	-0.5700662717731538	0.036181729195559016	0.16151457984200127
24	0.46025484684135565	0.5805010780937019	1.4983823261577442	1.3910716736958284	1.241860982620523	0.8731843807109182	1.727488871027609	1.5374171695040149	1.7088645653495331	0.8128291347962534	0.6618734581449092	1.0228730414314708	1.8797337961421898	0.605051992796121	0.2474119209957139	0.17975912942801064	1.0134314273043077	0.9796739195884813	0.13440228964727724	0.035505209028485786	-0.22787223698781114	0.5096319900997165	-0.5717403874267335	-0.673395035950903	-0.18868823301836662	-0.030120816005714562	-0.17363825396567353	-0.3875428130378906	-0.39995261925808473	0.10372237089911023	-0.2937681667540342	-0.8009811619562937	-0.10137420122062869	0.005192739410253994
28	0.33380961333873027	0.6483768208346246	1.0867861481884407	1.1416794032836133	0.774194834661862	0.4916235792145498	1.9130284737925038	1.103202101783164	1.8805146169867761	0.2506720715392788	0.15896855254568737	1.021222469612518	1.4472457133947008	0.791638789562431	-0.3282341054735499	-0.45448428277664027	0.876603720359115	0.8367146828507248	0.14185243809171663	-0.46265873196140034	-0.8806557633100052	0.3950646807709749	-0.3195499769726023	-0.7006524783564498	-0.5656745419525464	-0.7015660983492603	-0.29638454243216666	-0.37590458894236584	-0.7508215289232971	-0.3542455127832131	-0.4930696773001169	-1.0218026612232969	-0.302552460860274	-0.16067136783565392
32	0.2549783879041388	0.691616950673116	0.6804348809229057	0.8754752256224317	0.3940431167667487	0.10180956099554957	1.643628473900469	0.8332270958844324	1.875651831659698	-0.22300644162617947	-0.2992860369278623	0.58186715694386	1.0994760962383718	1.0473166677735652	-0.8358813503142241	-0.9953517888688143	0.3252045205965553	0.7247489672482487	0.2588182979248089	-0.9004938579712225	-1.5034018717001858	-0.055175781110694544	-0.016005855013252353	-0.6213356836844215	-0.9335916614803405	-1.4340068065677742	-0.6406404359855352	-0.40557429092052716	-1.1361790866776271	-0.9635527705660729	-0.7780655602838032	-1.2209733693767502	-0.5750570878768863	-0.37429442907246874
36	0.36971685196992077	0.7346740942526091	0.5199023472057444	0.7397965174116733	0.30023914499773685	-0.084330722476714	1.1213430137933318	0.797701774013676	1.6877983765904643	-0.3802088489469863	-0.49033191676320587	-0.0670523269271714	0.911085424507134	1.2210698096917534	-1.0493953201502142	-1.2216664521844485	-0.3756645908407837	0.6555370671887696	0.401971219955274	-1.0853422852770471	-1.8702716780172757	-0.6523091180544633	0.19549435327763393	-0.4874324488254274	-1.136343595496792	-1.977095360532606	-1.104215261532498	-0.5299372659655038	-1.4210617506388485	-1.526657219847038	-1.107577678745078	-1.3828852141751764	-0.8642609097594793	-0.6188925489058913
40	0.6960089785169467	0.7874362448838629	0.6881352645666415	0.8125969151007948	0.5665352926255746	0.05143743367917494	0.6698296053187305	0.961010274844953	1.3802058661899979	-0.13215012815012528	-0.3098245553300576	-0.5925098642648596	0.8993340707961112	1.2100255458799156	-0.8720514752305326	-1.0325983736670485	-0.8790766574599577	0.6595011336841934	0.4553618121571304	-0.9345295405635133	-1.8272466613412355	-1.1084893913892606	0.2678078704271369	-0.38160639904950644	-1.0801416608242351	-2.101295465886145	-1.4789411984297287	-0.7154699545916222	-1.4838240109174008	-1.799135203587503	-1.3553092445487542	-1.4779279194711052	-1.0558038923309945	-0.809510944229985
44	1.0916841002558475	0.8201003053940453	1.065114972286429	1.0612198087601916	1.0930901738225491	0.45283436660877835	0.5439795837973295	1.2157758443654587	1.0614879104517145	0.4210048605303114	0.15979252715298203	-0.7392528634480496	1.0388478014466804	1.0258659098473766	-0.37791317605925817	-0.505445240651974	-0.9393494701511061	0.7647712807420202	0.34743726165790045	-0.5071937429020456	-1.3643715347175245	-1.186203119144102	0.2579960816545307	-0.3702891757676091	-0.7721384148176582	-1.7019138293212448	-1.5514264067580736	-0.8514859058816684	-1.2678900925096397	-1.5992314775144527	-1.3599708045955785	-1.4604470692955136	-1.0159090731720757	-0.8216991403814637
48	1.3214377131477604	0.7640307526372004	1.3958940470738508	1.3568452562407378	1.6424971777454882	0.897656378863854	0.7786389569650949	1.4449818097825577	0.8387466051859878	1.0307059262002078	0.674031434741563	-0.4740217316103696	1.2833385435128113	0.7910605649049247	0.22415168526800236	0.12690350381282395	-0.5451791272704056	0.9670649146459507	0.10399667892425461	0.02627647847753587	-0.6348561032479114	-0.8264062383767816	0.27221348812994195	-0.46390941621956466	-0.31923374453054487	-0.8686477519992275	-1.2143722741938314	-0.80820315872227	-0.8169822076197828	-0.9120911932805346	-1.0086468432709774	-1.2855343786207927	-0.6582431180547401	-0.5550588355355618
52	1.1882885664502383	0.5453519211351732	1.4344211780572067	1.5380262097627921	1.9466812561477245	1.100115534865908	1.1676328152740565	1.574686046439339	0.7710827569567066	1.4126745426751	0.9390547847880807	-0.005764073212048	1.5783631761755386	0.6638481004166876	0.6829009038849718	0.5734962806527386	0.0751319898258167	1.211558934967536	-0.16076439578475224	0.4566884923371915	0.0928702799121239	-0.17976368918332444	0.38638844988544013	-0.6124939307007633	0.10862909229985747	0.11932278394375312	-0.5253640400020135	-0.5100826608177254	-0.2776481502198737	0.06693675352124372	-0.30902680676639793	-0.9425160861060934	-0.0061227627875298	0.0012009363823983227
56	0.6454331858551791	0.13330164518079493	1.0818259688720455	1.4868415556561811	1.828706736715967	0.8553870894770129	1.3863344157503303	1.5916420181143638	0.8445712902680226	1.372617479673512	0.7551192622193311	0.33456125770977263	1.8614063215943462	0.7371060233579498	0.8056164959594831	0.6116412862594041	0.581384418927043	1.4059231245784372	-0.3118664614432953	0.6129672511837297	0.5330439196479984	0.4765626478084069	0.5949368461846964	-0.7381816487748508	0.33491048132262996	0.8826433993943118	0.3210341326237624	0.02074438700802928	0.1387757953477907	0.9830265616393429	0.592602609091896	-0.486733256541655	0.7863244394476745	0.7393355946947889
60	-0.17597550109302756	-0.42619690191429743	0.4457672525118597	1.1791683405668925	1.2809331384743288	0.14997036717221113	1.1817887991631817	1.5244194230692407	0.977579591190296	0.884299156817347	0.11477576912273658	0.28109040785392886	2.061480278532445	0.9760687922629886	0.5218932615455053	0.17935432448404062	0.706216810350763	1.462704893233905	-0.279188215027692	0.4118308116528694	0.4887701260624218	0.8849028922627526	0.8203386643679004	-0.7844194154008179	0.23289808572142184	1.0841636630342342	1.0901442738666078	0.6760261041739355	0.22687892558513714	1.4548106156812044	1.4631718360198964	-0.045916456613245754	1.474034782502785	1.4632672034512963
64	-1.0252231333597415	-1.0139105294378026	-0.21299181824791477	0.6886587721603821	0.46206477167771315	-0.8218898752442635	0.525430379971481	1.4081261122437736	1.0563545200380393	0.08602135606743533	-0.7957021573957999	-0.21465189700768528	2.112868065267938	1.2304779260086374	-0.11124484957980194	-0.610004900345872	0.3966333260058908	1.353526350418734	-0.10679668906189581	-0.13174314763662645	-0.07883923480871298	0.934978184723605	0.9786707138147995	-0.7517003398036467	-0.23477557242246166	0.5640308246677254	1.6177995164080026	1.3209789958027272	-0.13363024558661205	1.2340590922669907	2.0820491261367637	0.21474118476533338	1.8135032608022037	1.969390387331234
68	-1.6467457968143513	-1.4814487658290985	-0.622878728724471	0.14509415589893127	-0.3852927377033005	-1.7498298839259152	-0.365866868764309	1.2560676304575793	0.9850436424180942	-0.7990817407460318	-1.694286342157885	-0.960333821733105	1.979957217939626	1.316346761241058	-0.9561872458158397	-1.5365040263483614	-0.17247731940115316	1.1369259328747772	0.06780254823732332	-0.927864012759755	-1.0486615869748817	0.6983870250235464	1.0509313318421978	-0.6969684940861184	-1.004910108890153	-0.5951390847439088	1.870113844918309	1.8624463034337615	-0.9221738553606387	0.3170254222495145	2.334873908823638	0.16082699556276953	1.6680722194518525	2.1367652362281113
72	-1.8871937942541535	-1.7166745619347343	-0.6510139687314088	-0.32604333676036157	-1.046690461377136	-2.3573634564963495	-1.153006193110973	1.0567167970680695	0.7257336359774521	-1.5672256906995077	-2.343939298433929	-1.6403862196514527	1.6817636447407713	1.1194888325083403	-1.856381292424599	-2.382609838192252	-0.7139598113154058	0.9375758743456475	0.0932311115295219	-1.8457801295409029	-2.1971719209510874	0.36167549995660814	1.1093707056646844	-0.692164240520062	-1.929077024357759	-2.1001570171738093	1.9278923224411946	2.2851698340895097	-1.9667277286465503	-1.0431008312592458	2.2560720386765243	-0.23510315954932015	1.0791157456809513	1.9828187177187786
76	-1.7423006252168975	-1.6922479825210026	-0.37691190743652675	-0.648108361515234	-1.4175050222847914	-2.5270624096964407	-1.5612331589382091	0.7996459583120512	0.318424343258861	-2.105813497948713	-2.6557202272121874	-1.9974399754638459	1.3045247760261547	0.6648092849159087	-2.67904543200254	-3.0202107353251404	-1.0001010869525266	0.8943728782007573	-0.10065765653468983	-2.7410745551522058	-3.283808223062941	0.10076642756054971	1.283713456727502	-0.7687752227446981	-2.8105535436242493	-3.5610747247432815	1.908215398739043	2.6343052320727733	-2.9891443177094836	-2.4312539039263714	1.9968044707428552	-0.8532958009157036	0.26352789931520104	1.6521501499424913
80	-1.3356958593977728	-1.4750422202062352	-0.05031422140412153	-0.8062545636801927	-1.5206870994321184	-2.338462108430057	-1.5251110753654682	0.5015625941011078	-0.1303436305808337	-2.405214542038379	-2.702739231915253	-1.9735799978019184	0.9781926249602632	0.10410580012740166	-3.3273909007940916	-3.434169760616664	-0.9887033675980633	1.0893343659554446	-0.4543620336505146	-3.47418426590199	-4.124846448020822	-0.02266864100335793	1.6735467868513607	-0.8842266775694831	-3.4547517212428005	-4.6349563481611415	1.8784398985166726	2.9585356637645464	-3.6926677133789365	-3.42928885547762	1.7395728782602833	-1.4507884942619158	-0.4649566102209796	1.3450853790655337
84	-0.8527846314834003	-1.1946904629108206	0.04680589202149971	-0.8308402874950729	-1.4606733285265099	-2.004148001379222	-1.212862726964061	0.21501116400316186	-0.49054521198399603	-2.5162315305123606	-2.6456315450629764	-1.7319548086307746	0.8222047069771722	-0.365870206624408	-3.730776062129158	-3.680306186920889	-0.8328825810385005	1.495587702789861	-0.8076748827569595	-3.9259359737458013	-4.628583419557847	-0.08137223849017634	2.2620558681597074	-0.9342293715731823	-3.7203497792727913	-5.136168466951855	1.817687983692029	3.2533945955152164	-3.8595957658597055	-3.76648639681683	1.6081590611863708	-1.7485929683406594	-0.81733065637226	1.2235770194632551
88	-0.4727925050242702	-0.9873364542828804	-0.2442545437606435	-0.7683616857202905	-1.348859664372472	-1.744451637632121	-0.9144870019712326	0.010428025360899302	-0.6615619046674548	-2.4912488397642782	-2.619338982644617	-1.5433564147130188	0.8875979162694677	-0.6044886096951264	-3.8365468882018336	-3.812973012834106	-0.769458530390678	1.9782627771022294	-0.9877330039835699	-4.017172803273141	-4.7870983956591	-0.21034714526474665	2.8908531592814977	-0.80845820699662	-3.556694260200508	-5.06914328248973	1.6500027138059454	3.4482617291174624	-3.4211947831561367	-3.3962597761237547	1.6247112709987064	-1.5462150534692292	-0.6375128610727773	1.3462020124779366
92	-0.3279392114942682	-0.9471653675961251	-0.8764113761709105	-0.6639164073394277	-1.2516511647094524	-1.6770502286531233	-0.8681105353372233	-0.06864114088371225	-0.6182684882766686	-2.3539328515703186	-2.6546537809105586	-1.6120033223460986	1.118344423331542	-0.5960549101085704	-3.6221885589700875	-3.835526695104434	-0.9586140489217427	2.3441729486408582	-0.9060342885030411	-3.7335591221959836	-4.644415843681692	-0.4930854427286202	3.3183848774098474	-0.45639365796255443	-3.0162444038532206	-4.582481849544847	1.3258117403889143	3.4484307678896187	-2.472891562894122	-2.4745786127555855	1.733970756921278	-0.8064846972130895	0.05291473479620317	1.664779182045616
96	-0.4823721039037401	-1.1055335970623117	-1.627794380846574	-0.5582007155630297	-1.1825536459630084	-1.7789839461234265	-1.1328182191858074	-0.04142620404036357	-0.42687338482846776	-2.110907310878357	-2.6785819462859366	-1.953107590512603	1.3666167224712553	-0.4474407423166708	-3.122970811588523	-3.7051727678212414	-1.376547690730789	2.4256172118934836	-0.6082771405121299	-3.1443884293323006	-4.2665018927620535	-0.8826600290901622	3.340975514559843	0.07274851929655607	-2.2384617272128073	-3.880167951324123	0.8945252276724186	3.2094216265710616	-1.2340855567292042	-1.2662154404142583	1.8723466349059579	0.32855805671708627	1.086624500392218	2.0772621579176485
100	-0.9250522232542199	-1.4377922975479018	-2.2202720586033364	-0.48960673685437694	-1.1284522981763225	-1.930872673881729	-1.5684465130307148	0.00769931588240679	-0.2164811486500624	-1.7866554215145194	-2.5842037135682863	-2.3854970871778822	1.4583196603195616	-0.3208461693769378	-2.4515581069085552	-3.383449307482392	-1.8198927594967043	2.1561918204228383	-0.2477332645360479	-2.3986937939164146	-3.728206863527246	-1.2063188522399821	2.9106831477110457	0.6416605694782904	-1.4100197518035067	-3.1408896366928185	0.51587718594958	2.793167822461479	0.025839731031982324	-0.0364636964175377	2.030194992661726	1.5961120088333638	2.2334210816261684	2.4973585542569094
104	-1.5706467588823985	-1.8810453367425162	-2.460051291930447	-0.4897825109513758	-1.081086990487986	-2.005532021227412	-1.92891323079433	-0.026417648353039665	-0.1158167046364659	-1.446272250338687	-2.3187799395191786	-2.6435818605436148	1.2838743892679891	-0.3413666478121433	-1.782862420349169	-2.8930573390397267	-2.0229260870404295	1.607769723647681	0.0002732197456148624	-1.6880354838667821	-3.1154720704575536	-1.2593424288425608	2.1813485567332247	1.0845317813194377	-0.7125800830016285	-2.481553309851013	0.39002865454429453	2.3604528844365475	1.0638599368892072	1.0179409955073386	2.259924406067921	2.714822523892192	3.286658040331747	2.8939311431299277
108	-2.2601420822300913	-2.3438200891446788	-2.3211283625174	-0.564294515615546	-1.0434852812170765	-1.9390947769798668	-2.004617209141709	-0.19829785773756625	-0.1812951113176721	-1.1781022518931314	-1.9275209855051814	-2.536358588490719	0.8696603157021154	-0.5283149467481032	-1.2963601318054354	-2.335183137719952	-1.814912553019715	0.971032557420052	0.03481099000724925	-1.1840869158413394	-2.527433627423165	-0.9330764389322028	1.4490988217960892	1.281222459419338	-0.27605804731289285	-1.968840594089214	0.638409136114002	2.091006750549573	1.7126505331668178	1.7757902100551348	2.6181209021270626	3.476535549923153	4.108204354404393	3.2733871854153014
112	-2.781567328106002	-2.7082269123365785	-1.9259036730779293	-0.6708415729751721	-1.0072399352392511	-1.7428971485003035	-1.7249642566998766	-0.45440143232061164	-0.35450601488254624	-1.0407131884048615	-1.522501703233079	-2.054055685579389	0.3903028359095691	-0.7864178995304464	-1.0976698370876588	-1.8477531624872765	-1.2224651544224223	0.4849092352068437	-0.11803595691920435	-0.9755412315534137	-2.0626223035234585	-0.29827991052659397	1.011301395723992	1.207713124087048	-0.15142720899497186	-1.6516003567004713	1.2064008682309861	2.07351970149094	1.8944182348105596	2.1575984900359857	3.079679004523142	3.790147771802867	4.622095096362559	3.621700754558477
116	-2.925444595580271	-2.837821953284407	-1.4440023862620814	-0.7175763231280218	-0.9253480411054933	-1.4590487443326134	-1.1708482474329915	-0.629753111202995	-0.47915524123333403	-1.0107940409889449	-1.1992397278071716	-1.3648333515040783	0.10370752934259862	-0.9576922034879739	-1.1620696753726356	-1.5275899133261286	-0.4604293692408174	0.340351848935082	-0.32570853747150347	-1.0339790556551398	-1.7883524849562795	0.40637928144850877	1.0134123538180277	0.9345199442157287	-0.3099955610554865	-1.5798711736845485	1.8476018858992185	2.2282838765152375	1.6075363118593298	2.0927698559375774	3.4832806499274858	3.6665418055469488	4.777739035941519	3.849745979126151
120	-2.5540518696197543	-2.6040174895344967	-0.9765863393922667	-0.591045497355715	-0.7087595444904614	-1.098768946734542	-0.503220735709928	-0.5131882416166167	-0.37474539781370075	-0.9712416505133962	-0.9568902825991905	-0.7086330038299227	0.23361776710178409	-0.9017135478141819	-1.3360770907047936	-1.3637816871543165	0.18242281629281412	0.5998237713928476	-0.426359771605735	-1.2274792163375583	-1.7068818764507303	0.8790986515738243	1.365496155152307	0.5769637808537923	-0.6659567339295828	-1.7898919537176516	2.2079677526041284	2.3122143687044563	0.9049367881815629	1.5241800508164272	3.5576636701406876	3.1680662552002543	4.522964466119675	3.790279855695356
124	-1.654461975688913	-1.9326460312686091	-0.5000992404709218	-0.206318139509004	-0.2599282258146916	-0.6113693698706253	0.1437385674662271	0.044073372968025354	0.07076886278404858	-0.7559026460636362	-0.6760228259184811	-0.25136589940503495	0.8572113492304028	-0.5608466253425738	-1.401527520455929	-1.2246156900004888	0.4996042536996343	1.1667888135061677	-0.31553247491327224	-1.3761876786772544	-1.7365038351085471	0.9031486488428158	1.7768881276091257	0.2307048434154816	-1.1073198290524306	-2.2586896362498714	1.9817737290892148	2.018375630051186	-0.11514188320176448	0.4597621548488862	3.0365283412562323	2.368637317399282	3.821666707880516	3.267443410253306
128	-0.3528943648965335	-0.8536676742935183	0.09806773786819027	0.4436028886562402	0.4704033720537702	0.08940538741427248	0.7332296948994138	1.0340217325806913	0.8343048074638953	-0.2328084701382283	-0.17454627112188933	0.007685231491146439	1.8539657545965302	0.01954869734775713	-1.1744204729946512	-0.9122859812591688	0.47566428660462035	1.8184936000687792	0.002556618529436334	-1.3247959580352167	-1.724349255976637	0.4608696985529839	1.894705648406941	-0.07363025080449226	-1.5237326583538726	-2.8613321708916755	1.0619457933317231	1.1230018110532427	-1.3062709536950858	-0.963333306264564	1.8067350341957567	1.348744746617635	2.7078664234458873	2.2049455587030673
132	1.1198588581421716	0.480301825979661	0.9218268371196324	1.2715867725692762	1.4400281869770712	1.0592021915396388	1.3203076090856722	2.266519302367799	1.7586498216096407	0.6210700853879729	0.6898661238419042	0.222121536170917	2.944430105404774	0.7213889938260983	-0.5892080053712184	-0.25760984355736133	0.28787025736607774	2.2933766783986234	0.42336723101537477	-0.9995143984354836	-1.4917457066066289	-0.24933127995960272	1.4732212983129445	-0.37527742887162263	-1.8247017814343307	-3.3689005289851885	-0.3971722712025892	-0.3995532383367756	-2.4749131140212204	-2.455225699901615	0.004158762273123353	0.21568217819118787	1.3342374529530905	0.7069326025280634
136	2.505456441275649	1.8299131347231752	1.9692360113016556	2.130091900215907	2.5194168027211155	2.26306771660686	1.9865117022904484	3.439620247739744	2.6259570055466095	1.7021795468269825	1.9315117548813971	0.5928297623925615	3.810865631018748	1.4100462162657201	0.28091287541991355	0.7968605140594401	0.2025906140457741	2.3963644444044734	0.799359796413207	-0.42053860319773306	-0.894898114329192	-0.9046715475129821	0.48851030941650186	-0.7456944566019521	-1.9435987423463028	-3.50290464470521	-2.040936464878869	-2.357418531187983	-3.399288407326435	-3.624300947575594	-2.005741114320756	-0.877117929628294	-0.027914056483960465	-0.9438206529629987
140	3.6017174629829536	2.9534223005114653	3.1015677373780344	2.880527727483836	3.5487654119539247	3.566680899198121	2.769299023312147	4.270470131582601	3.267305365896355	2.832476131917289	3.416815033869099	1.2432600228391586	4.23685406568847	1.9874467799553237	1.27459740316928	2.171709532023064	0.4338677216542994	2.077288622379862	1.0120531295020014	0.3295267812038525	0.12555400995503266	-1.2061228721684556	-0.8571447708423567	-1.2347937791166372	-1.8351162625710615	-3.029447309474794	-3.468210688417682	-4.426601875573172	-3.8731970689259514	-4.096091260105141	-3.7643766308156867	-1.7429587797028456	-1.0583988401393842	-2.3820183216989945
144	4.315444458556454	3.699691763120114	4.096804131654855	3.4563245686051625	4.410675514529398	4.783175933205624	3.6242463497211177	4.618438709042688	3.644714107848152	3.8457267187298045	4.919109808900021	2.142260784462527	4.19521139993057	2.4174232421876085	2.227582210638713	3.689140787347192	1.0346289847001298	1.4464181625087287	1.0182116005939357	1.1535723180256203	1.5218129119597936	-1.0155515645136155	-2.240488285130054	-1.8359947158235432	-1.4783296547758773	-1.8556195450662927	-4.405857075057921	-6.297092898682668	-3.766726484325379	-3.654762974094754	-4.9147367353331814	-2.2171740475943125	-1.5087526998574525	-3.312763682584562
148	4.6662340046373485	4.061152447937494	4.756185996445154	3.8847262761264574	5.07724426894999	5.749876007821825	4.4398498423060815	4.540696609477005	3.858854999336307	4.661410796794302	6.2163610301425996	3.1147739808597064	3.847042074027387	2.715686791239253	3.0494348925847303	5.1505946982997095	1.8713244152506407	0.7204979639936007	0.8552703239781927	1.9826277444374003	3.1517836968002015	-0.4175050844141932	-3.370482197834955	-2.4838583406679473	-0.8814749099410852	-0.07986526916128606	-4.817707049604037	-7.798663596490687	-3.0733652037273154	-2.33662795430566	-5.352612958745473	-2.2268295231863897	-1.3113806214602004	-3.639677515377348
152	4.748727786472529	4.153895367625215	5.0017032497010145	4.25209139704038	5.601778493089535	6.387497408952465	5.08452032712864	4.248055924180695	4.07522725030064	5.300755964247493	7.174480896955757	3.9251570602498433	3.452260485516058	2.916338674811635	3.745008459172692	6.407686217342655	2.689856999281762	0.12450228600062624	0.6093220695370491	2.788256638162965	4.819507109871709	0.32546377099835133	-4.109950532073324	-3.082924835050836	-0.08764943458362283	2.0309293218835047	-4.891592967081067	-8.940265632945577	-1.9187333535388427	-0.42538881194479533	-5.252363191695112	-1.8327248050194211	-0.6152272804939721	-3.496613970511498
156	4.676549422854713	4.132935036715001	4.9041728849570205	4.631103503932588	6.057277187313046	6.706667883152741	5.4506602149676535	3.9832599062487777	4.409071434333253	5.836680874393436	7.771876315521942	4.38029574241982	3.23605274337089	3.03486179539252	4.372944343970363	7.390253048358006	3.2306358732673788	-0.206349998191556	0.36748760845862705	3.5624158292473416	6.3248276550823705	0.8954305030149816	-4.504247654033141	-3.547485581024539	0.8249147513543327	4.128780354566066	-4.918202864627409	-9.848018621376378	-0.5205349312991484	1.6537086921901434	-4.953482138525154	-1.209687349126314	0.2791154675589273	-3.1635281959770927
160	4.535518157951993	4.094498147163606	4.6275448682299025	5.018810736382676	6.466058237916716	6.767679197390792	5.48072241353067	3.895358791053226	4.843937384773407	6.316996558452972	8.064292887354462	4.401459205958917	3.286034814167549	3.0520389002991033	4.975680815532096	8.088664034448692	3.334564438983988	-0.27656632591993174	0.1833574171205326	4.286381710674508	7.5071549226050935	1.0591700050315414	-4.715144622342231	-3.8288423918376187	1.7557547048109199	5.899178490049854	-5.127743708061993	-10.644429179973544	0.887293098116856	3.4943723590364444	-4.7692251085032975	-0.568209765907022	1.057919499587311	-2.910841696065748
164	4.367073048056231	4.023918618533209	4.326721657319486	5.325871454143799	6.7681879826373095	6.625572187861882	5.172559248262565	3.975655784106111	5.23209379782539	6.712957842090717	8.122515657898381	4.03787659579289	3.5282068163484817	2.9277985022057975	5.527671800008814	8.514862992723229	2.9986812992680467	-0.2054046834289662	0.06810702366322849	4.913619505874332	8.27456853684798	0.7660087923737224	-4.905927645694778	-3.9187064071899576	2.6082844668339042	7.155538064056806	-5.567697034130172	-11.346980066261297	2.1340739673140074	4.850750434072612	-4.822206485017482	-0.056349262452908486	1.5356124600740622	-2.858804695541001
168	4.174493302296111	3.8201475046983164	4.060247887850666	5.426801667817197	6.853490335327216	6.299458964655698	4.570827949427787	4.0848822490555605	5.381644235375057	6.92936657109756	7.985968569620082	3.425440302783479	3.7875854873397317	2.6351766519771895	5.939199432636799	8.674009301220348	2.361996406313754	-0.14868085048807367	0.005767652750354496	5.38353155684246	8.614834763711059	0.15970168967457368	-5.148043619509764	-3.8305549524869815	3.3226923858676	7.876905421396906	-6.0849823798090155	-11.846652001034903	3.162512771251263	5.6980995988033785	-4.994763361718048	0.30699846070981246	1.727046604564492	-2.926978342295759
172	3.939104785510649	3.379731408169269	3.7703764343436297	5.2399902211452964	6.635779364044607	5.78550337284418	3.7597882652724617	4.047984113009803	5.180230127607211	6.8674230402175755	7.6594662472937864	2.7228901317514618	3.8896105191256005	2.1937253419802967	6.110934242078699	8.566374757119542	1.6385344225522462	-0.21138083881415404	-0.023168217332281554	5.657276616118361	8.59009645200594	-0.4940474020882215	-5.398370252331119	-3.5791489987607585	3.8991341492437672	8.181489923801731	-6.413923247356205	-11.974153488444927	4.028287400565636	6.193408950427599	-5.015531527253993	0.6278640015962533	1.813885088155671	-2.89880274994441
176	3.633380403882016	2.68458008088383	3.3379838382368296	4.788392054866039	6.121344074053148	5.097560392861098	2.8601701187400685	3.7613222504065282	4.678443896879471	6.499326689523395	7.145478230555593	2.06044029669303	3.751423349445803	1.6838113027022152	6.003566249948653	8.211326578389487	1.031919476764771	-0.39335316320289315	-0.021553827395261193	5.75188396908995	8.315299966798854	-0.9316059327446619	-5.548047528564548	-3.169847480400225	4.39864300570968	8.254346826693958	-6.323338969478219	-11.6139840786487	4.853746878767196	6.5648999048424574	-4.629765498870047	1.0663210126657694	2.027388567574207	-2.5611991817660154
180	3.22859691758405	1.8360676719085642	2.67482327739589	4.19953678978171	5.42439220966288	4.300357807746156	2.0141086527517786	3.2412154592697204	4.078431595995674	5.903784260149309	6.481864912834083	1.5167709550709731	3.4064478788202	1.2305377690718406	5.677505001992582	7.670500259106749	0.6689341647425305	-0.6061528309776983	0.0318272112996489	5.749093041210033	7.926725844397342	-1.0019395326113372	-5.5066003660410185	-2.6061286860471107	4.918746458986388	8.267235735047647	-5.737890229043493	-10.790725680763849	5.761311039683824	6.993638974652329	-3.7511901760760304	1.740577216522213	2.516611569726489	-1.8344907714303678
184	2.700338833666919	1.0091203425678776	1.795265550849165	3.640056839335741	4.713856685181176	3.5031838328606333	1.3431025709574418	2.592754357467596	3.6255347637193296	5.236088739526728	5.751637921116938	1.1150585384826603	2.958196155708763	0.9602258181170447	5.274555192981857	7.045198422764342	0.5680566415749806	-0.7406564336196768	0.1737313415194165	5.7667088363010555	7.545664768241508	-0.7184464913349007	-5.261341081687094	-1.9083474826315319	5.550750718407577	8.323239305462891	-4.772099006048532	-9.673365568533642	6.817326528503237	7.5438680458339356	-2.5110213693164085	2.660062544782401	3.273612252553405	-0.8194097855860659
188	2.037254328352521	0.35339257031863075	0.8251466134219235	3.2246494211798318	4.124493588524643	2.813666575003719	0.896480796457917	1.9336436938103407	3.469053021255521	4.65030525940779	5.0550513139889315	0.8316847661001184	2.506038182607188	0.9489893889309364	4.949838625808523	6.443122370665053	0.6514816267731358	-0.7438740115458183	0.4372847963260005	5.904286846512786	7.246805172743615	-0.2305987024445658	-4.879417407114249	-1.1278295488492815	6.336527808403661	8.442902543686161	-3.6609110739785238	-8.494481065284454	8.00858590965087	8.167276361825898	-1.1798367470517162	3.7223217393355617	4.152914990430425	0.26309108667706743
192	1.2558258740189807	-0.09369087940641668	-0.05316250385332832	2.954964391877201	3.6884064581254132	2.283369058566102	0.6236857160080476	1.3253242936051717	3.575994005711473	4.22194718248636	4.464552868061584	0.613934455752058	2.0899114555999456	1.1876316040571826	4.793830382641615	5.933982834139227	0.7918034771955295	-0.6564546210881254	0.8309010842325902	6.192371829611125	7.041940194470566	0.263249664834092	-4.457838047216721	-0.34406018170274266	7.244531613179043	8.585641839285252	-2.6337163381838793	-7.436129074395745	9.255147910592958	8.762664772798272	-0.015888906975208006	4.769675719616662	4.964057432993083	1.1970324486074222
196	0.4133126725252114	-0.4231217492864871	-0.686056075748191	2.7278373172553287	3.3331897174603595	1.885015959748849	0.3947984566257578	0.7540529947316362	3.74991106040238	3.9218387504742855	3.9955356020185655	0.40265357392693996	1.6846739011192269	1.579893346612349	4.793409335431985	5.5237274030461165	0.8733190872077705	-0.5886989221014771	1.3230465617154756	6.5762033296491245	6.887508374944697	0.6189049466719734	-4.058656205420602	0.35876560120602036	8.178541162822848	8.688766457555161	-1.79968869231749	-6.547156317393359	10.44811436876265	9.247898078457942	0.8689468481059553	5.669282898894444	5.5783982136075485	1.8853247118080059
200	-0.38861530921094883	-0.7863378504927151	-1.0176302168902644	2.4097607074932097	2.9486646577775053	1.5405876597609027	0.07049408537232778	0.17453342632097266	3.7457897568544354	3.6564981845090743	3.612175217091682	0.15750339587500145	1.2472920386294548	1.9735655734779192	4.854287612103232	5.163687216119437	0.8414795377466843	-0.6456022246273353	1.8387979222602526	6.945838433848942	6.713213903644026	0.8118683675295446	-3.672763099934318	0.923797009043064	9.017282463195464	8.702819802246243	-1.1062316866601585	-5.740220055392592	11.491630525185641	9.601645445423703	1.5492086371408702	6.370060904632474	5.987506851338076	2.3862333237482893
204	-1.0224469874316922	-1.2849276033385113	-1.1036870451718321	1.9312467526313948	2.477352851335007	1.184311982979443	-0.4105914820795061	-0.4198870052226936	3.4156346234869472	3.345199814933699	3.2643237031536385	-0.12216952412278025	0.7780389766123006	2.216748232013112	4.86679075919691	4.789712416953769	0.7219909411321652	-0.8508339502787612	2.2747404517916223	7.195004445030161	6.459249480151923	0.9353457069623622	-3.235610476907773	1.3450474705115523	9.66486451569866	8.608921029289954	-0.3910330524108688	-4.868101584541501	12.329685180052177	9.856288885027372	2.2136571351428644	6.905760270803157	6.282548411719877	2.8556458877944597
208	-1.3776483500984325	-1.8895412635780608	-1.0695153447805072	1.3407342400079159	1.9682340572255108	0.8175492266040996	-0.9799829696708614	-0.9588038301102284	2.7963166166277236	2.9821412488032144	2.92827009415407	-0.3924581398592056	0.34600451501272933	2.2162187043502644	4.773407447207338	4.366490829887535	0.601988314062401	-1.1204251022661083	2.5315318043689947	7.276585083709688	6.105121120297721	1.1355007858217958	-2.6832659176791402	1.670629258706261	10.088520024577763	8.417208650318415	0.5067603575309779	-3.8281831644680673	12.951603856765676	10.056647275329622	3.03019475171839	7.351272564447633	6.57625482806208	3.435587397484423
212	-1.4080076182102592	-2.443013661892286	-1.0446311209053456	0.78462487261084	1.5563553532406855	0.5152937756879914	-1.4632242881071664	-1.3191524710728415	2.0871746487373484	2.6429178648024934	2.620726578771485	-0.584946571303761	0.06149723365277503	1.9671660612031219	4.597636688068597	3.907823791174343	0.5790584072752006	-1.3032624688622885	2.552159064525046	7.223255616070894	5.676040635083438	1.5177062711544271	-2.008656258280071	1.9796342799750484	10.32519814745433	8.153609255231986	1.638331528341943	-2.632877104787561	13.380233730866594	10.217361424398955	4.031495560957927	7.7650022310666404	6.920946580579268	4.158732880582972
216	-1.1628255814757686	-2.7503564288317746	-1.1083754273087378	0.42531120669749367	1.379351731632523	0.37706184292008066	-1.6738229947745524	-1.4006200993461595	1.5347034892435323	2.431857341348554	2.3784873425514155	-0.6462454183474826	0.008490825981816184	1.551371212857151	4.418843258191638	3.4632851990044586	0.7050346118292726	-1.267712232250079	2.3538851678546187	7.121774178644005	5.227715955886979	2.080483431331757	-1.2818965879500457	2.343260282322362	10.454058620761801	7.8477353851546345	2.9035057948238934	-1.4045703375640304	13.652883495192869	10.309775326448348	5.090649115107552	8.15246770707813	7.274935703983627	4.928004729226685
220	-0.7866814712689777	-2.703192942470138	-1.2723822561564402	0.34418138774758744	1.480769511298953	0.45038783436550456	-1.5282622537174975	-1.2054054706657502	1.2929724422235345	2.404067748675796	2.2182445470117758	-0.5760283455610491	0.18028430595180067	1.1053826781021214	4.312225807746709	3.0814998072071433	0.9531185602919712	-0.9805475448647485	2.0356001802548906	7.058638078034365	4.818613517039493	2.709657662226155	-0.6182551964409172	2.7906365324135485	10.551910373749612	7.527514915534646	4.09444521823918	-0.30473190469098355	13.805496180964786	10.285655949373012	5.996663078426776	8.472105004855107	7.536206703232429	5.57963274500702
224	-0.47712987540897983	-2.3594152867829172	-1.4981126747454612	0.49174791450323735	1.766624088595428	0.6799643618582367	-1.1066248388961044	-0.864699540339274	1.3439443077488347	2.516643994653165	2.1081035083952018	-0.433025269607171	0.46414530160066775	0.7705118636704893	4.2948799024865485	2.7762899328709127	1.2291221587619992	-0.5311946855485108	1.7502093270935974	7.06930778625938	4.48461674511664	3.234194032132907	-0.11569567740555503	3.29469966056596	10.654370281022665	7.218738060845483	4.997018801470654	0.554954885035336	13.862929309176714	10.118153546536638	6.57802341707739	8.671389557879795	7.615665416563309	5.9845523683133095
228	-0.414142458585357	-1.9242505978639022	-1.7272491411469275	0.7164037805589606	2.0491399713278837	0.9224336720065586	-0.61742049299759	-0.5846316799662077	1.5245957336080411	2.645965092654297	1.9779263684879664	-0.3047172419484058	0.6920920592954212	0.6475325210435128	4.314660538270347	2.5223503049109746	1.4235535824120373	-0.08275508114663525	1.6497740703891641	7.120827656887361	4.232047547145918	3.518422356305436	0.2009258116179171	3.7846281432920224	10.742816897925822	6.948236924748648	5.497510896154299	1.1663261622545893	13.83590027176937	9.832382177324059	6.799273950576404	8.724842049505094	7.499820213456132	6.123784049785513
232	-0.6815723759609273	-1.6391539532284773	-1.9079663705338001	0.8539273121255044	2.1537189429266403	1.0238600943464593	-0.2822566025283374	-0.5411943183586523	1.641138907103776	2.6628274850372606	1.7665703252059763	-0.2514246695846351	0.7298847418477089	0.7698749284380275	4.290607918396993	2.2849318923481667	1.4792835675084541	0.22375494185221786	1.8259979440363439	7.141715031712555	4.052489747306288	3.54146932661468	0.39758792419188094	4.1827230347887605	10.767743083470801	6.747800333152651	5.639541134900932	1.6154818494064078	13.726984943064863	9.507090544539384	6.776937944468246	8.652065255255245	7.265159588590829	6.095264896262547
236	-1.2169095247062243	-1.6457946258954272	-2.0043117949426508	0.8230538347444986	2.025163883818227	0.9128601528008405	-0.20809173531446262	-0.7777433971796057	1.5935820300876151	2.5176434453342353	1.473107453441711	-0.2638936632169418	0.5573825822109083	1.0980849238328267	4.175467957445018	2.058744425344162	1.4296921455526668	0.35125175029763805	2.2699370326905908	7.076539021745273	3.94367312389328	3.4131860646857564	0.594296692301425	4.443780410991226	10.69037720842199	6.651201708213433	5.599336133171385	2.019501204160283	13.538952793271044	9.242296195537515	6.706140024419942	8.5037631773826	7.032991868382318	6.0469050254739996
240	-1.8228605939618674	-1.905980701402766	-1.9924782464266904	0.6695942265771068	1.7671660140243577	0.6512226445922406	-0.3258849076149486	-1.1661460370185328	1.4355308973308332	2.281247371636034	1.176379796872761	-0.2669826441223051	0.2930552355996757	1.5388648471126645	3.9993593591805423	1.8876954269433168	1.3820550406848409	0.3904534568465362	2.8718078063937913	6.9316563431254705	3.921387185686607	3.3174686348126734	0.9004262066995733	4.576430786022527	10.518845531608973	6.684936506559658	5.594931588352183	2.4513223109344193	13.283728566010149	9.112987495302464	6.746430380000592	8.330209711023906	6.896245939009551	6.081651195430219
244	-2.2422170582427547	-2.2269625607531927	-1.8582164002233106	0.5324490056899972	1.586811419295383	0.4057353724726259	-0.4375106085221619	-1.4649387561051572	1.3315314020871198	2.1116514152618544	1.0031580899660486	-0.1688188459187212	0.1380185183378313	1.9742602060063779	3.864245881814762	1.8473684741108674	1.4545979463091827	0.5060819374658573	3.4635176571184956	6.7840132542038	4.013159741759836	3.4135348710661013	1.3552693094368555	4.6354913594512945	10.318427059824941	6.8573713129480325	5.779918656061405	2.8995940612064506	12.990021672830789	9.137217498598224	6.937743169434566	8.157129267124954	6.867817384546414	6.197345717995784
248	-2.2663428726197092	-2.377007716853247	-1.6048219163431117	0.5539296255431431	1.6735862451261023	0.3542182734606195	-0.3446538141608844	-1.4470058643047303	1.443007227115424	2.1633782332159734	1.0586978170368229	0.07152157258811359	0.2681033604528648	2.2954904975156007	3.890468349171042	1.9976187893977204	1.7046439604636439	0.8341615178982171	3.885561456406941	6.746428472651964	4.237545479566118	3.7531449700011486	1.9065753173375442	4.692550647332136	10.189368222260159	7.152987462104017	6.1794934116748905	3.2860844052318767	12.705903974878684	9.276897406998007	7.194650631859667	7.985337237224216	6.883289796616725	6.297121985749245
252	-1.833232517382336	-2.2231130543847377	-1.26349472680571	0.7902082184867886	2.0833260960432076	0.5801174029962514	0.02135838562818128	-1.0202668879498915	1.8174861623653291	2.4924223360076536	1.3590265478154309	0.4034215201682872	0.738872705024632	2.437100642726917	4.145484437012906	2.3332428873281224	2.0891005940144685	1.3961340153731108	4.051496018671102	6.907144529069925	4.581039893982082	4.255866516812343	2.4383845267721376	4.799492347043824	10.221775029124139	7.532826881463618	6.694677812839995	3.5223712832211254	12.491480795793585	9.467313742576822	7.376059513542767	7.81084154064329	6.854294282773917	6.2619089922163225
256	-1.066683528114378	-1.8086152031058047	-0.8946532584490728	1.173816201107444	2.6949248245863497	1.0183762286223896	0.5489829168764331	-0.28585001754116124	2.3480760991894756	3.0125210209127924	1.8069808437501897	0.7034956199050577	1.4448748790501007	2.396745437292916	4.5955653074585925	2.7661526133316876	2.4867486890950983	2.073685163984419	3.979479302849509	7.276744347320125	4.989095198432798	4.7599921106323215	2.8318834233311385	4.963936316355205	10.449934933028072	7.9413871564635965	7.170603257195039	3.5694177060607184	12.399395911382523	9.65456292575885	7.384004097415532	7.645713786848772	6.735092622918621	6.038348182691648
260	-0.22836892249147048	-1.3246437277728447	-0.5739132151418898	1.5517567356985849	3.2697496331631326	1.4879229031189662	1.0089967225349257	0.5048111664424543	2.8283634114381706	3.533210507055453	2.2321135941416768	0.8473739602629302	2.165083402889403	2.2331581059340833	5.1125440468454855	3.1567981163432055	2.771115057624579	2.6627631120210657	3.77466200829216	7.773989180964605	5.381408200982342	5.120178209729042	3.026308767307425	5.1500744689614235	10.83057400829996	8.319462755179458	7.490058403178043	3.4661059292066874	12.450686423337988	9.818965887074729	7.23218200764992	7.523721675950718	6.560026152260768	5.687799916212195
264	0.3970914473044778	-0.9953481529854922	-0.3612927487311493	1.7747394993796872	3.580080738565535	1.793156261685179	1.194512245023392	1.071210262455061	3.070375911590087	3.858893146308867	2.475716107793607	0.7930190543180098	2.6675980023744597	2.045535320839548	5.532420621255369	3.380976906823351	2.8911132739506407	2.973446600082491	3.5803263097013898	8.258135774743472	5.684259400321476	5.296130166987443	3.043555013601773	5.305211530642493	11.255241365626215	8.616848923862223	7.640043716214894	3.3113880073866193	12.615689245797371	9.969904874425579	7.0420789540832525	7.4827871133709625	6.424615843764756	5.36318682270193
268	0.6294755323729768	-0.9480980610752157	-0.2703967087594526	1.7798341467743561	3.5296878725581213	1.8333299113716532	1.0541536781399095	1.2332440583563897	3.0105059070873135	3.889106979087809	2.472923034146484	0.6235074981206191	2.8126931119477048	1.9358086537124064	5.730331406430741	3.393689147010372	2.909666292473745	2.9220304415361564	3.5162341505919668	8.58669088103065	5.859764084326612	5.378940091857714	2.972100488788282	5.391864762998178	11.587724656412753	8.798285462100429	7.715167979788651	3.2154958166954963	12.809628454292097	10.116294835298655	6.970475179239621	7.532681446130733	6.4202961759595	5.226446138537891
272	0.47714602826767316	-1.1426266402959921	-0.25876772338384474	1.6237374503148247	3.2049539008285572	1.657009358990892	0.7328953724477127	0.9919251178493286	2.7406473090595345	3.669041862761096	2.285353654813533	0.5130972849289192	2.612990134317751	1.9693273256172208	5.675636277174302	3.2521784223462897	2.967173807282166	2.570886367029033	3.632659664519212	8.672640778579762	5.914728626576755	5.529439912186967	2.9193437025750444	5.4077658516726315	11.71154686831937	8.841188408464278	7.851269702162313	3.244291774188101	12.911432233637118	10.23297784129068	7.109821778466662	7.631814937396559	6.563377840637316	5.352034555274033
276	0.12688042191419294	-1.4005171025202476	-0.2489449524554664	1.4458739721033034	2.8245673108312994	1.428611394136328	0.4877209651077343	0.5180828558239245	2.450462811958928	3.3594436560690015	2.063297981774926	0.6261447056220479	2.215772384771313	2.150757307344518	5.436566815955385	3.081495754091309	3.1873345294588575	2.0938966221395665	3.9006602665647434	8.511377313105564	5.883230194496858	5.8646492810000685	2.9573693200785263	5.384809480423217	11.566550225619045	8.728424050228472	8.128294924241212	3.3873479280780177	12.80255219088223	10.247315380927333	7.420279484134247	7.69244001353744	6.7647895642193765	5.673544392566547
280	-0.15784646530830124	-1.51418923949369	-0.17118249790364407	1.3856950963320835	2.6182320051846437	1.327950474247345	0.5324406014351052	0.0629555581410708	2.3170704783113365	3.145219079659793	1.9582303712995348	1.0097144816654986	1.826058740773861	2.42181515082215	5.136227594759323	3.000693313652005	3.582587948337037	1.6953145222776647	4.233187187951145	8.169059732793075	5.794588551196486	6.359035952725495	3.0917048376226623	5.365366445346575	11.16285035176036	8.444349267620497	8.499231317042481	3.565038672029416	12.412794081819888	10.060610745778598	7.735074023744741	7.616896133265524	6.864890558076753	6.007151588532131
284	-0.17139171020627747	-1.3678132261074556	-0.0009430857002207578	1.5066114626039475	2.7067751816120946	1.4450240098709521	0.9099225974951467	-0.16177271265671056	2.408320659279072	3.138168803874981	2.036759371383556	1.550867195982203	1.610005970704718	2.6873190335136337	4.888899790818336	3.0524136943045046	4.021978368141379	1.5208393296944904	4.526160705583041	7.745996455662966	5.648424611135828	6.823266012130819	3.2640874303423453	5.374074445507694	10.571824047100215	7.979840258478329	8.788207031950094	3.664429655360021	11.752843827138445	9.595800375553207	7.836473445180626	7.345665913155637	6.715301019880211	6.13858173727867
288	0.12931784954800027	-0.9993181799453784	0.23023025633381694	1.7686227515389903	3.049100629737674	1.731141443650223	1.4640942775001116	-0.06934846175089539	2.655120127650104	3.3277215873624706	2.24434708982307	2.0235626646450235	1.6308287340951386	2.852593414733929	4.752960193078054	3.1776118198276433	4.286229122784269	1.6037772853414156	4.697894084513469	7.337226372313907	5.416188703213866	6.986733418944667	3.382585040135331	5.403991685574983	9.902073835168125	7.348392468019358	8.770400025159114	3.587145081046479	10.918686839193219	8.84888074548099	7.564815025303754	6.892358762505694	6.263616546075537	5.9295697062512
292	0.6061083063081636	-0.5721518978932238	0.45582190040899007	2.060019011064821	3.4781238944931174	2.031996960278026	1.9337300013357577	0.28320798206351777	2.9007666037755113	3.6008336453124556	2.438115113778433	2.207604879527652	1.840751881720346	2.8572478222233983	4.720269191268501	3.250459185976729	4.1871943368099425	1.8666347218115533	4.709722983867149	7.007406693886368	5.069265352801922	6.644759161385217	3.3655052100087754	5.422091947217516	9.26899621530653	6.603858454243608	8.294425943414057	3.29012798432323	10.061802838671097	7.914619425818288	6.903153402065842	6.3433971244873915	5.591532216259935	5.387205587137139
296	1.0185043786083332	-0.2775902145052983	0.6127465351846837	2.2657303752915436	3.7995910548600795	2.179696554402801	2.109519953170068	0.7442834358497468	2.9953484459592006	3.8129556082778757	2.4686832365650258	2.012200112030889	2.1249809211486106	2.6917197636355796	4.738414275603793	3.153317205097111	3.6848788168379327	2.1677484457598712	4.56568049231798	6.7829437084606505	4.615612495213154	5.791213497799245	3.1793997207478117	5.389798150759743	8.763982750700219	5.845880493663422	7.3846640400408186	2.806807749337442	9.333299613276504	6.96775959163051	5.995089038971521	5.819889053909709	4.883101450989225	4.661468494090299
300	1.1533050507991223	-0.2285893255661322	0.6725898964113098	2.3268895090482644	3.890814771365602	2.0853085465234322	1.9543334196339588	1.1534048289742242	2.8751282619365557	3.8635198972432305	2.2609417381423786	1.5272430142944116	2.3693332612299227	2.3954951702672638	4.745752322612854	2.8460414337781814	2.9274737761018814	2.3695473611134155	4.301225651371895	6.655864221934572	4.118062008951037	4.654922473599013	2.856138937414797	5.2842464313607085	8.430178620988794	5.202054964283066	6.260122283389046	2.2395946922978376	8.825347878108763	6.202538474635506	5.0840840211299865	5.4204363686084145	4.336988914983993	3.9719881911130512
304	0.9340764856597195	-0.4074157168115689	0.6459540708445561	2.259086841601652	3.74474023827188	1.7766553118672208	1.614535566068343	1.4133163654884209	2.5851077968179568	3.732418289297863	1.8468655301195225	0.9717475747369724	2.5108191903618406	2.0410430379834583	4.695618617600269	2.388078445127298	2.1853139345308303	2.3915817677197713	3.9701249499220768	6.589957697442767	3.6770362761167665	3.6075289158338815	2.478943341672178	5.106341825944396	8.250350931318303	4.787197100950599	5.250138746357711	1.7262684063242695	8.536461808586665	5.755771145593807	4.4050149806386605	5.175002085017872	4.070007790780126	3.5046851546494455
308	0.45601633075975645	-0.692933021226434	0.5582421407910441	2.123856300713828	3.4409925850775878	1.3620179857198655	1.3143163886265554	1.515748258578499	2.2395269814215437	3.461613407932019	1.3335565294928957	0.567107437609329	2.549598925829117	1.709850903008786	4.55771445077315	1.9002238464063144	1.7114778713884675	2.2321708146005164	3.6334993747526876	6.52399585984075	3.3818671617954683	2.9854085370029733	2.1491770690062224	4.870147215945027	8.150104502128043	4.65400456207179	4.643104541499945	1.3898355925755972	8.375299432589753	5.647656903313059	4.079767693709586	5.033144461322073	4.062361230130486	3.328987113177147
312	-0.06842397136102141	-0.9416468119688838	0.41992655290440223	1.9787626216520537	3.073904268133303	0.9506406164009801	1.2027829855115437	1.5148342809578208	1.9504561375011087	3.105636827257287	0.8312795141213137	0.4113388051138131	2.52428650218697	1.4729717932705446	4.308282841295483	1.4910697899365826	1.6051810939316213	1.959801788150426	3.3512954627301985	6.38023947058578	3.257569543243323	2.9151992724249856	1.9497042845138102	4.585614669666333	8.021463373912791	4.759738433264798	4.539534080488241	1.2857991424522166	8.20271203831114	5.768978581168372	4.064306248893886	4.891438948679356	4.171143998105348	3.3721938048100037
316	-0.421615271695915	-1.0694428655326433	0.21578206067441805	1.842077965853961	2.6906933716551387	0.5841862544569257	1.2520030705313179	1.4770815335174317	1.7715258553600908	2.6902248791483867	0.387986569617123	0.4263762820922961	2.47405194611568	1.3783279622564455	3.925784816367033	1.1933956116109892	1.7563456252577312	1.6791206555888138	3.1718075195340703	6.084520324603883	3.240617743893422	3.2409014620018364	1.9127914857254753	4.249971379040361	7.761651973201564	4.969739901393043	4.792328345597067	1.370362159130195	7.892178038698433	5.922168239900257	4.172259797052726	4.644540298179669	4.203247536537479	3.4619705589626117
320	-0.48761117335233517	-1.0869239541268134	-0.07496784608510029	1.6921734767152214	2.279373401609027	0.2234332406840161	1.2706218925820882	1.4392412864587334	1.6843292670640058	2.2093813363560524	-0.027395108645533746	0.40963789717247456	2.4135880409338637	1.4364253246280745	3.4047510537970185	0.9518177485276773	1.9066911887666949	1.4857974014916422	3.115163079979818	5.59860275762392	3.205421439660995	3.601792564835181	2.010412449529299	3.8539364240618603	7.315628510124784	5.1055264344059275	5.075238691867651	1.51129877185725	7.382588844733558	5.90246675908452	4.164773930524996	4.234890927113104	4.00912283838868	3.4131910714759046
324	-0.2971340708383248	-1.069893238227429	-0.4336876858252099	1.5029032192432539	1.8155771448072826	-0.19790105471713712	1.0331836912772652	1.3973784411435894	1.6295336443767288	1.6651074844282099	-0.4789327668972716	0.16663318830380947	2.3327624738924455	1.6120715100595493	2.783516638403815	0.672866521567014	1.8009864046402633	1.4297257625722353	3.159815780291275	4.952440726174268	3.0334017200177885	3.6284227279606953	2.1706137602362796	3.4036934289827943	6.70499466156883	5.020016657552727	5.050137507086054	1.5422853192491093	6.700873358020886	5.584051118103774	3.8645334146204324	3.6772539522789365	3.5500965028776883	3.115815393210593
328	0.00870673263109903	-1.0905722352150147	-0.7698975185983404	1.2854829994171262	1.3268665041801966	-0.6935230476035759	0.4446000147561702	1.3293902840429042	1.5578006466635501	1.1130814524204524	-0.9896695588874329	-0.35821634440580186	2.218635553480515	1.8275003387087592	2.1594738905744637	0.30231091303793156	1.340344425632069	1.4995988569545384	3.239405147003173	4.25201033472369	2.683624260802625	3.1478049675622	2.313126796604374	2.937976114484789	6.0237483826186455	4.6605405689827775	4.54618119045681	1.3440080847185831	5.942021831769077	4.968422877165411	3.238907329011266	3.0467433852520482	2.9067058489845152	2.5825862819317447
332	0.2659930282075978	-1.1595324248602428	-0.9381286478198989	1.1007070513591655	0.9193166471158992	-1.177990314370526	-0.3660049429235826	1.2238881557081973	1.4631874524367883	0.6722806675149958	-1.491657491732584	-1.0304583285064361	2.073570484648161	1.979565377005862	1.6710514980087838	-0.1201516908353905	0.6512551887282058	1.6279634196187303	3.2601694978418614	3.649164190615848	2.2245480958087267	2.2892329635043	2.3869464337165818	2.5263614590756522	5.400172696784575	4.089991559192807	3.6587269213808886	0.9147760844976633	5.221850382018732	4.1766075982502455	2.4153592525535377	2.4439468322085336	2.2320222798261113	1.9387835215256355
336	0.3776507368089747	-1.2144935100409984	-0.8053212145500114	1.0322279904053495	0.7404260616682016	-1.490861054471106	-1.082891819127228	1.1014929982031894	1.3808070386356845	0.4814758288625154	-1.8393914653114274	-1.5852898319273985	1.923632020861985	1.9751475999555534	1.443764563730028	-0.46890941143856935	0.026921590722182066	1.725014086182783	3.1394584099660854	3.278925410575269	1.8018664076135054	1.423047658188461	2.392288917223601	2.244952911431038	4.939508902476448	3.4509704025877963	2.7058761051525724	0.3873369087930339	4.625305164103477	3.3881180200865715	1.6205505091760204	1.95325743658919	1.676391597330018	1.3605790103893312
340	0.35344883710315667	-1.1650060385854368	-0.3348426810393691	1.1339653701762582	0.8913147426989875	-1.4865596256871054	-1.3634924854185964	1.0097253297108204	1.3558224405389745	0.6189681871999203	-1.8889040899270206	-1.7692251160775696	1.808252210820039	1.7734000638056764	1.5229880771332183	-0.605732916256316	-0.2334933424061296	1.7251794294669724	2.8482177185627258	3.1918375411509796	1.5548502167546174	0.9564586257628169	2.3743746220722968	2.137945885028841	4.6741742969757	2.8886599467778797	2.0591607041822226	-0.025371696735936138	4.174312581013608	2.7552635600144533	1.0710059377332868	1.6136375624924242	1.321753498554983	0.9922350023967335
344	0.2851213805629441	-0.9628627275952504	0.3583555808556456	1.383640405022574	1.3405671085843875	-1.1392019958344237	-1.034806129703955	0.9979482267933196	1.4080187046741595	1.0327261660251243	-1.598211880463499	-1.4861036501557248	1.7622660353990336	1.416853543519041	1.8313631965176098	-0.47506171344978493	0.002032629441925947	1.624726768206309	2.4377200541938593	3.318948260510842	1.5296994409086933	1.1015681000554167	2.3930180012366526	2.1919825021714647	4.549704540209878	2.476624244159112	1.942189092500924	-0.13365571167102802	3.8324227236309474	2.338397973832441	0.871314583009035	1.4169504606712011	1.1592558593091833	0.8840749837489128
348	0.27743464638282733	-0.6482620818937216	1.0287185881391243	1.678167696530551	1.9039277982325953	-0.592175780231737	-0.2117426390070272	1.0951136322982753	1.514965649594574	1.5341337880502075	-1.0852518054265066	-0.8663926102698444	1.8095589830487955	1.0269076798261305	2.183539385051058	-0.162193581052407	0.6079062208086291	1.4944053850590815	2.0303604551552046	3.492743960145292	1.6406224924627457	1.7416851476565007	2.4860575136360277	2.338110202608192	4.4526696092720055	2.184108728616515	2.3045258463850007	0.12729310957241463	3.535923710478779	2.0905020184188894	0.9676313375838211	1.3228242363910248	1.1111165257057478	0.9764875148914786
352	0.37763121628786006	-0.3415119043310942	1.4035412037699366	1.8796259117354188	2.3169176520025183	-0.11007533194645555	0.7389914374767248	1.2977769342081695	1.6239261586197071	1.8745936107990275	-0.5960838183612135	-0.2146643841807342	1.9611383627014947	0.7562298755626269	2.365091556299836	0.1309475150378509	1.2511447636487192	1.449679013406868	1.7724683240008998	3.5238258749685514	1.7097289519058836	2.480808251793202	2.6442978315348493	2.48417734472598	4.270565022176844	1.9073389720444784	2.8475782799351896	0.6544557793306292	3.235393754419917	1.899917716951521	1.181802746650024	1.2821593252235521	1.0819133492810658	1.137246129025702
356	0.550960658589732	-0.17908504560078647	1.3178175654518223	1.8889640521995132	2.3687500893869124	0.05156567679737571	1.374670382843683	1.5766179521809214	1.6841376977361813	1.8707271767114992	-0.3884008815019107	0.138261809596029	2.219164842724784	0.7172468286525353	2.239591592856317	0.18820922029183856	1.559737559195281	1.5915338952890141	1.7681620076360398	3.2985436833071096	1.5696227510877427	2.853137009092908	2.815851204438511	2.5621836120766406	3.9547784228612137	1.549244757555513	3.189163915211685	1.222780462992488	2.9270238802442523	1.668264265616834	1.3092082705822012	1.258743163745502	1.0109459136234493	1.2319909303077958
360	0.7049685102783837	-0.23218324721843536	0.809262571675833	1.7058373646583236	2.026145929943067	-0.20965477771278376	1.4046488964856458	1.8936201286190322	1.6766041474927504	1.5110692939754442	-0.5905459508291137	0.004021508143374643	2.5766839916024082	0.9205975509288884	1.827371950304237	-0.09497189497811452	1.3224607672681021	1.9451438139442696	2.0255036302925893	2.8455953526178086	1.1721304625481623	2.582716935312763	2.938326351376605	2.5617976123980495	3.552035322758047	1.1012892695278615	3.079644195410681	1.6018103320687938	2.6570885114341967	1.3805570567561276	1.2312258450893905	1.2386771409232389	0.9001980997245937	1.1937370270154006
364	0.7479639034460454	-0.45938560250646837	0.1159178760701361	1.4368253910027968	1.4697167836275786	-0.7695157508495178	0.8508513548349916	2.2110509816612853	1.6246501166333212	0.9776768063656793	-1.116344449085798	-0.5573766217464459	3.001437894872659	1.2581033674900983	1.3075864282019576	-0.6354479773690368	0.6154255255419946	2.428899282045109	2.4452753005279333	2.3327922762147577	0.6386606081096744	1.7515408948545177	2.9820203705839154	2.530509703922967	3.187811128197278	0.677347300726691	2.5500788624276365	1.6811113315099964	2.5013480123309435	1.1290787429913303	0.9840213035534878	1.2314351766013132	0.8092560151649243	1.0578362915034145
368	0.643727658553882	-0.7251368742754676	-0.43418311963133205	1.2424664466006226	1.0117260192122999	-1.3275351490835987	0.043830867746078646	2.4924433168425617	1.5762491186399825	0.5597077593977258	-1.6956963496311317	-1.2588313786195469	3.424145928320805	1.5468642672584836	0.9321664548227144	-1.1906913488843573	-0.22316290381831985	2.88187312352231	2.859175913267725	1.9869403788945905	0.2125829452869491	0.7707583884806579	2.977272979848831	2.536013358389052	3.005060188335804	0.46995589018424877	1.9018973064088032	1.532552119200441	2.5274388726318917	1.0715403529769938	0.7434051018065542	1.2620652882183157	0.8213427046066069	0.9432921981837543
372	0.4271560598556014	-0.8775061346787361	-0.5907098636018322	1.2476687399834843	0.9294945574181139	-1.5642322262371557	-0.5466410503891206	2.693231814260424	1.5700755079683135	0.497541009123621	-2.014734024683183	-1.7265474752704033	3.739841690158027	1.619326348984714	0.8922891594293153	-1.4842575751024023	-0.7597148399245558	3.1385888974102976	3.1026976030215443	1.9761464545901777	0.1330430802324121	0.16804739790450224	3.006020061532843	2.6173744135577803	3.0902485769451866	0.6481348855820921	1.543482538141045	1.3731818164488208	2.76013135213168	1.3446558679963667	0.7331583481397979	1.3596569265369838	1.0003792022243463	0.9909918879284364
376	0.1750781680693608	-0.840946135781936	-0.3156189910549453	1.4645630084254417	1.3023817506333109	-1.3244757618842917	-0.5574386701815004	2.753559820852495	1.608372565023417	0.8400593974838513	-1.8942726802683856	-1.6876535373040258	3.831562032562564	1.4071906769510303	1.2074142663988987	-1.3634111846833281	-0.6880451423439687	3.109624139564115	3.084439985117201	2.315742725247672	0.49621218317635335	0.3053578726688343	3.155696622510537	2.751963370050862	3.424154511389631	1.2501053778557503	1.7634556248964575	1.444281455208215	3.163763276695493	1.9768615911163872	1.1015735836827223	1.543569799340776	1.3571454252310688	1.2873022523803674
380	-0.04780889290421557	-0.6687409264846567	0.19316478024827535	1.7752542450906679	1.9509948442792286	-0.7213347535994896	0.07201183569131457	2.6140425139232484	1.6531667667612138	1.401225920954127	-1.4044488632982848	-1.1135944099920942	3.6208810714855955	0.978344259176189	1.7018775896973128	-0.8980586506104274	0.006355673524337044	2.8265809941453073	2.8207664418528586	2.8500184940861333	1.183536407343584	1.1809353798614424	3.4624576481184866	2.8611369060758842	3.883183946342143	2.134025568342572	2.5681023532878933	1.874099488295087	3.6492004302397794	2.8498175072244583	1.8335332824191133	1.8108124687252571	1.8403612328794745	1.8145797206841294
384	-0.2287117684073529	-0.5221599923302018	0.605163393876925	1.9870910594362023	2.5181894238789995	-0.09605479216165977	1.0548013422084037	2.2503437939094924	1.6464387136852439	1.8467812491520228	-0.8449011423713768	-0.24717049238266073	3.121474735008438	0.5064250814049628	2.0876722283106774	-0.3600265970677048	1.0264439556909488	2.4286599097922954	2.422120565021208	3.3230969821953136	1.9022057008400926	2.4214358268637572	3.878643741351775	2.8548715042514927	4.292016018521611	3.020720235827394	3.6691210177291578	2.6005926066543497	4.102429379595975	3.7334897423896405	2.7443194320055855	2.130948061331299	2.3545279443422538	2.4527435240808555
388	-0.40412646430026594	-0.5829706177298009	0.6338007434101829	1.9324829529609153	2.6513400010879926	0.15365938803501333	1.890805597299844	1.700670834062237	1.5454854926190202	1.867789382987227	-0.5920363649679594	0.5049341308243155	2.4548857150086745	0.18448433233413333	2.111735815438643	-0.08591438063149479	1.9039726209253531	2.089998955218255	2.0387201257731364	3.5030302912960796	2.323366159295197	3.4736125381507477	4.2834072004891475	2.688326113589216	4.500452983937741	3.613437881883416	4.630177963010852	3.3981537733113556	4.421673286718428	4.3808717617054755	3.5597891717680117	2.4500746665131308	2.7950134206776447	3.0311973018409812
392	-0.6208497866214393	-0.9462701654385037	0.18958786082085144	1.5616583784729632	2.1914992277128458	-0.21160460955123708	2.113089556127364	1.0720342370623557	1.3505407537694727	1.3505789007420326	-0.8921304918653239	0.7603194098349861	1.8134167148582083	0.127711012637041	1.692124600906629	-0.2951684586702071	2.2251892033663125	1.925616259481548	1.7931234791306354	3.2963404572231947	2.2468273582952016	3.887979259211506	4.533043849944325	2.3960666595999274	4.447291839815368	3.7348163033604123	5.087814795046349	3.989655246198451	4.548658359487422	4.635373580673516	4.040151585868934	2.704771273459805	3.0841236036635316	3.403079262724579
396	-0.8885661937213992	-1.5543487032747434	-0.5715684280269907	0.9775088404771263	1.2663568226313087	-1.131018039708846	1.525079604113106	0.5123624788699833	1.1083700628907216	0.4486749160882741	-1.7136907534248116	0.34466773184540433	1.3802225554904928	0.31828394451844705	0.9671274399181623	-0.9635803675165343	1.828371639403886	1.9332601975268242	1.7331137613408611	2.791392080888814	1.7039293007745913	3.5367553144805854	4.527753818524575	2.0815510697262782	4.180178631719013	3.408703080154228	4.920959460232021	4.180482376988021	4.482637394077936	4.495655048464015	4.082025040810821	2.841630213238781	3.1921400943270957	3.5027005584020148
400	-1.1554703683290557	-2.211661810059401	-1.3286607231926955	0.3924953033551292	0.2332368487191475	-2.2555844726834926	0.3062903873339909	0.1543880846178751	0.894888577586052	-0.48635357495539433	-2.7445015837995594	-0.6199402793491079	1.2446144787836149	0.6224247201463631	0.22847844602596873	-1.8238956882204234	0.8761783816150717	2.0029859492276145	1.8255351735754761	2.2092993203650484	0.9430960989029383	2.6569669179591617	4.257544029930666	1.867061252648489	3.8251867197734843	2.8439669537266563	4.28479241243023	3.9438550372686754	4.274932850534957	4.106821526649095	3.750281562873368	2.8367793488406283	3.138735286417496	3.3611533556954223
404	-1.3259944882293342	-2.6755363873641826	-1.764843101814036	0.02734449498902148	-0.4994674908425425	-3.115795366049999	-1.0704798671398275	0.06601114554428301	0.7788763026599912	-1.0795805426997362	-3.542976370449376	-1.771432872114476	1.3674124444769977	0.8656204917033733	-0.22520424368743353	-2.499127381690798	-0.23761147200674765	1.9948848435580655	1.9868063876534738	1.790175194988909	0.3030370168187521	1.6973030524316406	3.807994832915034	1.830708975938207	3.5232005030371467	2.3258650244164514	3.496532431357651	3.4139797601335813	4.0065183538371505	3.6816499140293124	3.2254111685381384	2.7056245735522553	2.9756801053258752	3.074066631185261
408	-1.3147042956537742	-2.7730226446711543	-1.7283042625660776	0.006458138565060115	-0.6727449876966238	-3.3540725623325622	-2.0583667703158186	0.22735628428277682	0.7896934131711633	-1.1184146376029103	-3.7621488476181866	-2.67321204464239	1.6106057126389337	0.922955927902762	-0.2375835025272574	-2.696187966215241	-1.0881942483130596	1.8322458220952154	2.1267778819747623	1.6743345218347234	0.04200480122689866	1.0639027330240478	3.3182184612420547	1.9642794082639379	3.365094176379442	2.0718457646512944	2.8472556995984797	2.7980885435031326	3.7565727139042373	3.393199435250134	2.699892752506546	2.494511121173889	2.759207480139994	2.7423384120368324
412	-1.1072561712919713	-2.4835057195903465	-1.298944469987082	0.3032419077846502	-0.2934277944309037	-2.9002664015978192	-2.2897896708850967	0.5479195104116802	0.9069040394774077	-0.6505386812951698	-3.326656571572313	-3.0157244129335132	1.819733853514134	0.7797896842342232	0.13363860513802067	-2.355556005252744	-1.4226287567460372	1.5559020003136683	2.187372202119018	1.8421475840788828	0.21397226994851096	0.9128310657342635	2.919034712097309	2.1799282972611027	3.3591427718229347	2.128425115933616	2.453743213180504	2.26669549369731	3.5774218945781073	3.297112218161798	2.286248439738642	2.2632744255144193	2.5304927762038933	2.425922387673963
416	-0.780940351898707	-1.943228478293893	-0.7340528946463284	0.7609346489768044	0.39020934602447493	-1.9984962889758884	-1.7411347583680343	0.9129390693503239	1.0735827657297106	0.05514016361024088	-2.4670867857633922	-2.7551381518421625	1.911742920817234	0.528560815907181	0.6587123258172274	-1.6766872363673575	-1.2654122082232933	1.3075807061560736	2.1583616679057633	2.140212530454637	0.6544029100108469	1.0946135493298723	2.6842286518991214	2.3591411054176428	3.442181578528565	2.3609254300591336	2.2259905282086496	1.8827362013012356	3.48367880895358	3.321269265372536	1.9827278802403703	2.0656998105347313	2.311277145272374	2.1335089152829636
420	-0.4710627782372555	-1.3727863992363791	-0.32748865998554855	1.1751308411492907	1.0320782635380517	-1.0752243968519697	-0.7304415684377947	1.2309390275394556	1.2268615930099551	0.6561723930958264	-1.595937963271059	-2.120517725359098	1.9147708367641791	0.3118163041348434	1.0620702478296997	-1.0085478995609	-0.8765848256867689	1.2447866169972917	2.0706565327817383	2.3725898205936486	1.0776914330929945	1.2715630499207153	2.6105813914191693	2.4166262088796846	3.523398152038723	2.536905759128376	1.9578471134345967	1.6016912419888332	3.4571387680507386	3.322334519581272	1.7069381432352564	1.9355429362066687	2.111820215615432	1.8463121605988249
424	-0.3037974230725543	-0.9716725920940342	-0.26283070378702356	1.3906670773681147	1.3640931810271262	-0.5258523212507807	0.23931740163939583	1.4580669366263521	1.3248730864453613	0.9061655975351498	-1.0978244515358158	-1.4966605863931093	1.9344869803224938	0.23994636475063896	1.1586939067196598	-0.6698259098307637	-0.5984761103778786	1.4359166585908454	1.9708938548872525	2.4013528763224206	1.227841731786167	1.1279385061396558	2.6313381128633457	2.3397321641977245	3.531764498376853	2.4537527499236442	1.4741122685407975	1.3279941048472104	3.4614231499063766	3.173075429534531	1.368752118469587	1.8821891498728682	1.9416696976276624	1.5546385010569097
428	-0.32856932199492034	-0.834831474103801	-0.5375218973893782	1.3645724023699104	1.3107762303637038	-0.5312313424049551	0.7200165372789653	1.5830476244058989	1.3590118850728532	0.758467076293978	-1.1434575290420634	-1.2300624816356016	2.060045713945613	0.3306741706128819	0.931957242520081	-0.7920704463988044	-0.6699436290038979	1.7955746605361897	1.894360656723852	2.2054820005046913	1.003847358076491	0.5521653280622459	2.65167879388804	2.185167545523632	3.4448292168428036	2.0442600198631538	0.745345054175161	0.988197145351264	3.459914437141631	2.833482973574293	0.9366773343279271	1.8956917476476154	1.8146222784003918	1.2806788650603589
432	-0.49544060105168397	-0.9346220469719712	-0.989700851325861	1.164505955617034	0.985697088137117	-1.0008215878967524	0.5162869678813762	1.5987954099343769	1.3457713093158772	0.35422450214598283	-1.627785320940591	-1.4639655314677218	2.2797887267727734	0.5086047040496062	0.5170984851179442	-1.2701811758397317	-1.1124894590900378	2.106147522377191	1.8518674326871551	1.8727596950932084	0.4956151234511457	-0.3115871242762606	2.581964486279018	2.039186472512682	3.2884504712049067	1.4059089386730164	-0.0959656608662038	0.5733008370230135	3.429720154686126	2.3685138165756197	0.4580215800165498	1.956446165867333	1.7433248714301317	1.0702279779116426
436	-0.6935663801802181	-1.1676261395538585	-1.3978594506257125	0.9132208205054658	0.5913311228127576	-1.6570420223361464	-0.24487237570450296	1.4893327913829235	1.3053197827761618	-0.08242109397106018	-2.2530071678499115	-2.0812628216648723	2.4658596453398545	0.6535912735649896	0.11082689436111154	-1.8368090344784087	-1.7388476089444875	2.123776907327188	1.8297401620444738	1.5382713040614897	-0.07779618333009948	-1.15787708466972	2.3632037579952763	1.9640796134951553	3.1130587976059805	0.7460916023490879	-0.8358847477789677	0.13384982909741017	3.3665382777094144	1.909475321717124	0.028470424863340758	2.0405209012965444	1.7277328924427033	0.9617862677133246
440	-0.8232523778157441	-1.4267877304293846	-1.5953941304935013	0.7166477423694103	0.29353153631487333	-2.19822501581232	-1.1964545219731393	1.239947911946642	1.243974205691054	-0.3707901528056814	-2.69689678464912	-2.775392286922862	2.4384913382953055	0.6678888184850991	-0.13194923069541703	-2.208399528649791	-2.265901321412328	1.7093428330180034	1.7984323456180862	1.3130403723944255	-0.4838025855724154	-1.6910811619978254	1.9822894284745094	1.9641059587480794	2.9661948605988466	0.2803490452840843	-1.2975578275345283	-0.25855407053518675	3.282945863064508	1.5869060714710475	-0.263496606876773	2.1217868274524516	1.748498316164995	0.9567381715461077
444	-0.8574299790668869	-1.654717321986486	-1.542069550435567	0.6149355753631779	0.1427039202425057	-2.4478888449854463	-1.9210210990088357	0.8696891047454692	1.1532576055020007	-0.4518938351189197	-2.772480003986489	-3.2143740572836554	2.082972521291293	0.5299211131068104	-0.15884308476875195	-2.222869390597511	-2.469013684714826	0.9173145271029488	1.7307299331837327	1.2431950537765175	-0.5828362688608163	-1.7750680401808596	1.4765471182737249	1.9950076291259928	2.8782930301475593	0.13787712121961987	-1.4286451303651857	-0.5531630502086221	3.2040595927406055	1.4730967246056785	-0.38203328751431	2.1764182989484313	1.7738753512419152	1.0130026314908762
448	-0.8530818202415001	-1.8499097777390947	-1.319643255716683	0.58174639793385	0.08414263257001953	-2.410265678042472	-2.145191187210866	0.4534778881544711	1.0220973465863223	-0.3808102300089293	-2.4938147005060913	-3.204949370875566	1.4426068031128338	0.30317047161806726	-0.013111226227559414	-1.8965706777372542	-2.2872815074392805	-0.013458934578591649	1.6187294680734403	1.3140629496776102	-0.3724700501097897	-1.476121064273946	0.9281340217999059	2.0030870387048982	2.8642437385723127	0.32077690877988363	-1.3061630692883148	-0.7353570442707212	3.1620092312134713	1.5632337292303993	-0.3509057751379128	2.19023370189817	1.7790141060736067	1.07130896774656
452	-0.9055391527201421	-2.0306794592132373	-1.0724493238075234	0.5605859146269845	0.029956241993969773	-2.22073864376146	-1.8558503342502803	0.10698857876468511	0.8549679496160106	-0.25884526902650173	-2.030244106888897	-2.7807416845686577	0.7225261908408969	0.09726152544499382	0.21857307796130146	-1.3859924042994727	-1.8362865401636268	-0.767468390911297	1.4822744093664426	1.4811377487934456	0.037965118789187575	-0.9944424008057721	0.4466159034420291	1.9652836273165781	2.929384939427134	0.7241797428920809	-1.0731394263829905	-0.8165247419722866	3.1861026206637497	1.7935132935064821	-0.22836525680582603	2.1652169172933626	1.763161893207746	1.093119737726283
456	-1.073328492315741	-2.191208595465655	-0.9321500635454426	0.511235414644771	-0.06273876114740888	-2.0369148202967375	-1.2831798759488198	-0.06240101887922244	0.6815654022175063	-0.1570228930323578	-1.5903466899773753	-2.171032184841547	0.19845108637773573	0.007688637337793209	0.4634597289781921	-0.8878596402640156	-1.3305733170294192	-1.1002192469475551	1.3641582692990566	1.7023830370837318	0.4969761955111554	-0.5391893969274044	0.13608372177098463	1.9063250970394088	3.071830026500356	1.1979289024625808	-0.8525323250227032	-0.812044201231188	3.2916963017326006	2.0800504631932015	-0.07037843001001372	2.123384231928399	1.753788705212612	1.0846222611699783
460	-1.322932240007085	-2.2851731719496087	-0.9647766923388007	0.43667554745096704	-0.15881745477156323	-1.9416805456729842	-0.7642148117798021	-0.02053807111859561	0.546667514851334	-0.07993456701124309	-1.3082635369648965	-1.6680090385285502	0.07004007679421988	0.06608657522205583	0.6882191283016288	-0.538250504565273	-0.9619705056698602	-0.955292103262863	1.3113234010013604	1.9478142212327545	0.8816614724787611	-0.2218832815051901	0.05687598869745875	1.8801590156769439	3.2747490323356914	1.6125272471723513	-0.6901516896943021	-0.7268245201833771	3.468969097915889	2.35357355477252	0.09330132580089004	2.100839609564054	1.7914670660565093	1.0900949212208584
464	-1.5374662837311859	-2.2530691566803216	-1.161555883335969	0.3736105253800426	-0.17962588324495168	-1.9169151734592047	-0.5690107331214914	0.15876583714931805	0.48744240280107975	0.011395567999321341	-1.1969853609381687	-1.4745490513766089	0.34887117059364176	0.22678452672921245	0.8844948984702953	-0.366090922623454	-0.8099763372952163	-0.48316836235128413	1.3502341474775221	2.186391824924227	1.1343550653428158	-0.029710108339281522	0.19854897210537098	1.9297561596786152	3.4959289939354687	1.8979704332116254	-0.5574015960925437	-0.5603533373036581	3.678086986792214	2.574398987946068	0.258671700301354	2.1334059184570515	1.9039593886942463	1.1593441933925173
468	-1.5891286094598207	-2.075729603295053	-1.459155913483649	0.3565029790937367	-0.07416957598080012	-1.889286155699066	-0.7704925517656308	0.31948760071200233	0.5096934424883247	0.14416323565801836	-1.179459211232662	-1.6099724728944387	0.8443334081313246	0.3943745781955078	1.0377161476638321	-0.312516658709186	-0.8239106515109815	0.03838841979944277	1.4662420712645252	2.3714244305819427	1.2594889370590487	0.12356544999873433	0.4778646814679156	2.0516703077015	3.668451538360731	2.0480422921924717	-0.39791336555153295	-0.32415673054869415	3.8561146161950326	2.7288298537976226	0.4294374872332642	2.23653697402858	2.083294147953689	1.3089870181413534
472	-1.4294937812953552	-1.8125086977019926	-1.7695008471636045	0.38456922672452115	0.12957364288040804	-1.803870911812241	-1.2253222434578723	0.3001093558840661	0.5777657613472204	0.2950308613480905	-1.1617399424785708	-1.9219057511443585	1.2589170900985174	0.47902908800298544	1.1140944929604972	-0.2897023551302357	-0.8793155528756142	0.3437321475410495	1.6017907817453567	2.447512858887152	1.2969404426255036	0.31120809834109087	0.7728949169672376	2.1917800847983187	3.722839346069484	2.100619072378942	-0.18422114802579206	-0.05711953327539611	3.9393703838070975	2.819394581352172	0.5986517056609435	2.3932506977692682	2.2827279510085163	1.5044225416347425
476	-1.1398208112549195	-1.5918247659547837	-2.0074858614782163	0.4148293723123367	0.3291261783873285	-1.6705135064863994	-1.6641840892736808	0.026055727088232106	0.6314103587421458	0.396306752157991	-1.0945048304580764	-2.1879999582362073	1.345830437123345	0.4458846438594485	1.0781097384889722	-0.2362454825635564	-0.8679392315885713	0.30840584557869566	1.6815684991342694	2.3807892739268293	1.2960507836998323	0.5318713174742927	0.9790406798439864	2.2767670097088692	3.624364843754632	2.113693231968125	0.05462288097657336	0.176713704616707	3.895812740026689	2.86150621645398	0.7467885594586868	2.561494343966198	2.4398009715470037	1.6775925117099206
480	-0.9025603510003679	-1.5515378674435223	-2.1118307060328863	0.3858958174976153	0.40674200551337364	-1.5539678295955903	-1.8392109824475031	-0.4405466903054206	0.617872117389913	0.38327973984270597	-0.9874946450097148	-2.2454986515572233	1.0349085304834207	0.330591200947564	0.9293220019719248	-0.13835620845195368	-0.763584135035026	-0.003107866497314319	1.6514339405326786	2.1933414880689126	1.3027876582632065	0.7107065898117785	1.0568180057546426	2.2607626857899255	3.4035551462072644	2.1474654620311737	0.2489010834370225	0.3092637650311042	3.749558916161936	2.8851399348849114	0.8555678107595156	2.6965162685978346	2.5114295419227997	1.7682672694384474
484	-0.9058172083873173	-1.7608602002509106	-2.0595297761417397	0.25807872349430316	0.30297556443014384	-1.5212813577390287	-1.654955502146407	-0.9244192219283034	0.5244610892405909	0.24582110283299755	-0.8799990989401726	-2.0795321412035435	0.4614354658397634	0.21725754384978524	0.7245350461786899	-0.015060722789886707	-0.6322054250967973	-0.38873788616261995	1.5125691852527852	1.9716517875483028	1.35689735070014	0.7518046479317402	1.041168210261928	2.1569201891801546	3.156985513345906	2.252603048359355	0.32861784017564505	0.2930787794343026	3.5815017132933926	2.9329790994980156	0.9224644280031851	2.7763571669100497	2.4988832410664146	1.760069604244606
488	-1.23253690885256	-2.1730995123357166	-1.8764142942737398	0.04324819881725762	0.05604634047305386	-1.5870959718688225	-1.2095661132791469	-1.2268950908202343	0.3895138492286692	0.045542303357774074	-0.7963005880278339	-1.8169112159632772	-0.1163479831857494	0.1879404629492249	0.5603724703945827	0.11393060506427777	-0.5790314063711856	-0.6261090620445623	1.330737349011427	1.8324071122635703	1.4904413185636576	0.6103190168230452	1.010569331478709	2.0326876588999396	3.009206764253069	2.46161603306114	0.2672176950383834	0.1225631531958831	3.5007302672692937	3.0496659201872967	0.9666562055977578	2.8164396214902476	2.449082129970837	1.6921236472323151
492	-1.800494666322108	-2.6386406355042107	-1.6373476940777645	-0.19362565826167627	-0.2152173066665971	-1.6958651499847095	-0.731788096964516	-1.2288582293956	0.2851294867946131	-0.11208394886567016	-0.7209129911341238	-1.6384812552092407	-0.4563070822162368	0.2746269695977713	0.5259532319141307	0.2506823235381543	-0.6722995621873419	-0.5863221272924145	1.2096240489937224	1.863370890681183	1.7193950371247042	0.3313536933639281	1.036202428108938	1.9725451419619409	3.0537874621538195	2.778467648166928	0.09916866545673454	-0.16010311205496125	3.59752773330298	3.2615849889424133	1.01900386553029	2.864337437073663	2.430384391370583	1.6376821953433993
496	-2.384977096258175	-2.9716298505143235	-1.4428095781138477	-0.3594646146758589	-0.37060794140706305	-1.7485290721616213	-0.4437145877602673	-0.9512237882439901	0.2835831634991092	-0.13108183410451313	-0.605467854401669	-1.6557284551779028	-0.44860818868861646	0.4382997442146733	0.6551699025778801	0.4209265102249519	-0.8834906198130102	-0.28783899472997193	1.2377612559539328	2.074106926449785	2.034330839742959	0.03782397871600609	1.1395990819769148	2.0286571928304036	3.304822913409054	3.1726050296791515	-0.09360971278159871	-0.477348028408307	3.899627437282683	3.5595395475163225	1.1036862107068073	2.9747531338926687	2.4967963632488073	1.6632267194717156
500	-2.7214248111680033	-3.0406637115003083	-1.3763812745629962	-0.3764951815636317	-0.3206119231235619	-1.65993034420538	-0.43335118780397996	-0.5430021272301256	0.4220697869135022	0.024184303297137714	-0.40291979807215705	-1.831338997031892	-0.15512870212966184	0.5879163131175522	0.9059145427719898	0.6541976316147587	-1.0835467549623665	0.12529748646572822	1.4344714843772701	2.3850886761529124	2.396409743934388	-0.1216358762888729	1.2830983367949729	2.187240595063686	3.684259882208148	3.582670918002355	-0.21335063820855668	-0.7379780989134568	4.353044498897314	3.895785798727319	1.225499507670987	3.1767957130334388	2.6610078744461516	1.7941458179952416
504	-2.6373152666263313	-2.832865707874557	-1.4602179490415756	-0.22052542809599018	-0.06686893833682173	-1.409403797405953	-0.6137243493797552	-0.19799447009642548	0.6831692439950732	0.3145688764259437	-0.10347487006288589	-1.9993709275311142	0.2485904538315598	0.6310305579465959	1.1857796877486868	0.9571236943875416	-1.1088163824696728	0.46671205641214997	1.7283346609348365	2.669912331515955	2.7443189551684286	-0.04495640087698215	1.3994616234732298	2.3751988350981703	4.05840872693612	3.9322132964991177	-0.18635617149509495	-0.8650569893930895	4.8414978858782	4.200301636581537	1.368607875229595	3.4544153126285373	2.8912653850037233	2.004353756612467
508	-2.13544654307043	-2.4550633368496566	-1.6318408209608695	0.0690823270126452	0.3110915116562046	-1.0507048341926233	-0.7825793604166026	-0.05097018541937975	1.0012807820789427	0.6569120867356214	0.25421956117341915	-1.965755100055561	0.583994565919812	0.5245157466997119	1.4107419216777821	1.2995889154047664	-0.8570055343925129	0.6052691921211342	1.9844484279121126	2.827841513169835	3.01278518869777	0.2684171491044926	1.4392868244072268	2.501346820238051	4.304666508296801	4.15287922764365	0.002901827676345898	-0.8236765840715395	5.234885202542463	4.408439148263072	1.5052306614065671	3.7505435848911395	3.130648366653368	2.232638591851533
512	-1.3916776145130851	-2.075589413170895	-1.7661269858592563	0.40538290040663655	0.6985313278681834	-0.6849836093774552	-0.7557119708054811	-0.11453670979430726	1.2910175290891268	0.9679157709479712	0.5968230351638515	-1.6380964476235425	0.7615165691222774	0.3000617317730108	1.551308151143138	1.6175868470359809	-0.3624894013789612	0.5195153938528395	2.0695207066737664	2.8374783921127893	3.150675288828757	0.7077401858580863	1.3984885180450837	2.5044794019409573	4.367541302144405	4.202345837473593	0.29627543613018076	-0.6420485361101539	5.439427362060223	4.481493938575452	1.6033271510652083	3.989246596754903	3.321281424720039	2.408488267539757
516	-0.6712491495351172	-1.839420433168715	-1.73800503768807	0.6879551393305852	0.9934196447086534	-0.4141980101141474	-0.4930467593142586	-0.2874549620046537	1.4797095022989437	1.1955690353725916	0.8460894801712635	-1.1049183579204933	0.8051366785702526	0.055216643819875205	1.6372262198120189	1.8318833066466067	0.1952231521445906	0.2887572340827409	1.923695440203866	2.7584085394834417	3.1308879773247598	1.0911385985482405	1.3076850142841672	2.383206838312815	4.273842800794057	4.070045460915529	0.574106572609053	-0.41355764761461977	5.4259953361847115	4.410367954563133	1.6298674303866283	4.104827870495681	3.4203033360911266	2.473961823893007
520	-0.20885454065521097	-1.802376861790073	-1.4949029646324101	0.8395818450711166	1.1363165349881321	-0.299243181188377	-0.13338838483988533	-0.42458951366037534	1.5291664561764573	1.3242156472151485	0.949677822576354	-0.6067585929810213	0.805783031336565	-0.08816308505925852	1.720877166217947	1.8758443546618364	0.5656387791657714	0.03442786625276153	1.6004819829586832	2.681833737278093	2.9507014676936274	1.2391612498468825	1.1959154575671516	2.192011350819463	4.1013088122770265	3.771335830703512	0.6951747519107765	-0.26996260813264944	5.225619779744811	4.203984726782199	1.5523577889349824	4.064141740074722	3.4024624738620006	2.394727939281652
