time	FP1	FPZ	FP2	F7	F3	FZ	F4	F8	FT7	FC3	FCZ	FC4	FT8	T7	C3	CZ	C4	T8	TP7	CP3	CPZ	CP4	TP8	P7	P3	PZ	P4	P8	PO3	POZ	PO4	O1	OZ	O2
-200	0.37605288529819264	0.7730899433644502	1.0335360739362875	0.7020130139746579	1.1609135836854911	1.4847890101138779	0.8568897821726513	0.6170127972283558	0.023172819928433685	1.0821068259575182	1.5204355678318013	0.6004201158623198	0.5945308193455116	0.04451624292816897	0.6828197223589927	0.9615448092979492	0.5618427977681898	0.8357586243509414	0.3804608871867827	0.7212837320236907	0.3218716076830646	0.22209258321479045	0.07626564036426005	0.09831558888170178	0.4040994335939285	-0.0831694824383899	-0.2865827970421798	-0.2293458575180338	-0.14060749078059745	-0.16447237092454514	-0.42744317542875954	-0.10537838909246565	-0.4723556029791697	-0.39439603586757277
-196	0.8268556573972534	0.6082178934953728	1.6360140997589268	0.7702382783516609	1.1497892112312775	1.3933671677696227	1.0558096143768785	0.8672245718995187	-0.15372905096341868	0.9045880414058626	1.292629119470495	0.5000519143830896	0.6415100081459679	0.17382700697403947	0.17949524476509504	0.6089633091810518	0.0677886007504811	0.8896713234373896	0.45747992280852096	0.0031309747058079792	-0.3004466287656761	-0.4742935883945038	0.18097409560288352	-0.3835164894911561	-0.3670741012365418	-0.9514244770824423	-0.988324103244315	-0.450859545523066	-0.9419370269835625	-0.953304347969267	-1.0504919264020232	-0.7508544902917746	-1.0566680404687663	-0.9102538205053273
-192	1.1064964504915824	0.46231555821997244	2.0418500848716796	0.812467692231248	1.1190904350636675	1.2353429763122112	1.1813902825092195	1.3683794702313923	-0.16909797446949962	0.7910430411394049	1.085168001296164	0.3538786163932245	0.9165742374167075	0.43337702641742487	-0.14030271733146915	0.3375332943023819	-0.409451751867311	0.9127466655574746	0.4762771117583313	-0.5367158041754709	-0.8056358078643415	-1.127143141761781	0.18140202714896803	-0.7376840692015221	-0.9687199568132504	-1.6696131187246956	-1.6120345551798818	-0.7132371049993288	-1.5670900305283413	-1.6089776713756492	-1.6514302450447118	-1.2077099054362381	-1.5434585770739058	-1.3902391160197078
-188	1.0730634900657385	0.42864045392534	2.063225264108484	0.835744378840876	1.0625996562832583	1.0525498363623425	1.1562628716839884	1.9351767252700933	0.06280969067451252	0.757557986254159	0.9542151069391356	0.19066874634764058	1.3576207126673079	0.6888734084856764	-0.19291284631660705	0.20829735643725739	-0.7354128938227348	0.9717784499428881	0.4324011791756259	-0.7532659153993644	-1.0719195577260974	-1.5865154226301759	0.14754004739227533	-0.8244246819662268	-1.2308001487174796	-2.0723674245010515	-2.048137659623871	-0.9700762008970455	-1.8539953185002642	-1.973252887512217	-2.076643461706442	-1.327446576581686	-1.7876127913164845	-1.724394674715841
-184	0.7607405762539058	0.5549419508274525	1.69051634838536	0.8684399106034205	1.014340755762705	0.9248355603710083	0.9850184892580625	2.302230113892628	0.49701216691418654	0.8067154863970771	0.9505423879466383	0.0808726994141556	1.783203716544291	0.7994879463991506	-0.0034734187560004916	0.2511027150966937	-0.8096772411884885	1.0839345427802962	0.35413882046933454	-0.6428216679555836	-1.0483250591513293	-1.7378386215202772	0.16517579513808595	-0.6260697229791098	-1.1210900516815436	-2.0913281387933904	-2.2163925114939906	-1.1305669517583248	-1.7673205092632254	-1.9754636237813548	-2.2010340635042023	-1.105119583200747	-1.7319557623050885	-1.8304706765689964
-180	0.35495549350766264	0.8161621073143888	1.1042498322263805	0.9351797080270818	1.0239407990352813	0.9267810559715651	0.7479305844497001	2.256519073511211	0.9630028581147636	0.9236730909868889	1.0928375693386287	0.10352326158374074	1.9757885883038497	0.6880368572983658	0.3113655738121899	0.4528659272681072	-0.6036394819278	1.1904958456499877	0.28669613527393406	-0.3323089472010091	-0.772458491759294	-1.538271900107936	0.263440906336371	-0.2599470906847154	-0.7529110889499123	-1.7749800637253932	-2.081607813347961	-1.1094996901156526	-1.409557458179796	-1.6592621761391348	-1.9852831313554398	-0.6864868385148952	-1.435272213173161	-1.6915713505952208
-176	0.08620525129726432	1.1240495414964593	0.5891861900712858	1.0351403925510114	1.1194918127405715	1.0811029645327455	0.5518425689116021	1.7579920247515604	1.2475683657619359	1.077616688868635	1.3506357635730046	0.30017810984164095	1.8031787826788566	0.37481680417796137	0.6071246251036628	0.7599118332750411	-0.1735140527874364	1.1884912222419628	0.26084598833030354	-0.001974679059020028	-0.3522816589521118	-1.037015554670911	0.38610681793958745	0.07683335225257053	-0.3223299972025524	-1.261798736247553	-1.669845219210865	-0.8872519709120648	-0.9703943704900532	-1.1632959813311485	-1.5027384720055106	-0.29845169111240294	-1.0463012430477354	-1.37168025624143
-172	0.10723405304299219	1.3694528306717975	0.3886380185805509	1.1374804944883674	1.279446360218805	1.3361618485094502	0.46507111074330404	0.9800434087805111	1.213427182948659	1.2251071899000658	1.6451005894134147	0.6379441006766384	1.3082500663152112	-0.034634642215545894	0.7783107737917901	1.0896245213654787	0.35276526123627594	1.0021302674741368	0.26828053525901235	0.20543838985550159	0.07519068549961108	-0.3711924543545772	0.4237495352059989	0.20301717468503222	-0.014479592405955055	-0.7237384897079228	-1.0782047482925041	-0.5399513230996446	-0.6414656026857224	-0.6651021225349509	-0.9170935130806797	-0.13698762620672128	-0.7342288475572611	-0.9947738026298866
-168	0.4243706454053127	1.474016662690819	0.5760408625364203	1.1975462406440889	1.4355429374690474	1.5861197669991556	0.48193338391697843	0.2363544547550919	0.8820772148750199	1.319819327836905	1.8750213337288557	1.0125895713036255	0.7025038582231439	-0.3992162336760664	0.797320900334523	1.3530718053988244	0.8206212499880671	0.6439186914399049	0.2621659033831997	0.24317543147203197	0.3940798928324823	0.27619197894936504	0.2894030504072517	0.04258105148055165	0.07612887005658764	-0.3006251148740054	-0.45547982935348774	-0.21019470638611845	-0.5331588374028352	-0.30804127376984747	-0.41197991267139855	-0.26694634489372854	-0.6065955742779722	-0.6887504441038153
-164	0.9145345068729986	1.4264913761363094	1.0150686476828645	1.185161349165348	1.5103054008499313	1.7261652902890683	0.5409797416380027	-0.16963486330595845	0.4318331171100283	1.3296984400556149	1.959158534825634	1.2961387601552985	0.26312562756862756	-0.6008961781589389	0.7106612902818635	1.4828408919089577	1.1102730007750161	0.22477151396745673	0.1875382657084572	0.16250349540213418	0.548234640167812	0.7439979296019935	-0.015209012626455461	-0.3356395653356818	-0.02481546619229654	-0.05298352973197118	0.04744484263600781	-0.032925672746021824	-0.6315231903344207	-0.14418815039947158	-0.10599259260358354	-0.5868235215629992	-0.6568970067605313	-0.5217841254411971
-160	1.4020150864489607	1.28232335720556	1.4349074327480567	1.1041519613999065	1.4629694186467503	1.7095357136480096	0.5778381809904397	-0.0938902867450093	0.11160555453733012	1.2496935097613922	1.8720046234551002	1.4003744090010155	0.18742401850587243	-0.5835464582015221	0.596715687198882	1.4544982873433698	1.1850714653612537	-0.09399800723900766	0.026713814518955086	0.06326268597366178	0.5525925145502726	0.9563646292382435	-0.3825835277911648	-0.7486762385539576	-0.20259596356262918	0.04790472599690154	0.3393120757119229	-0.054757278274331654	-0.8149213174272322	-0.11984499513647305	0.0023649549052014527	-0.8796535112106374	-0.7703219632727143	-0.4664869296694017
-156	1.7487252906517265	1.1274371118690711	1.579810257737742	0.9915453766584232	1.3159004416621067	1.5708905418789143	0.5742444977567149	0.379110394951194	0.1095174175716053	1.1062393160546704	1.6539560514653366	1.321596976758198	0.48578250285524316	-0.3651265790780677	0.5189184533369211	1.2936509814979444	1.1029164763261214	-0.18433345807742654	-0.17464929775012347	0.03232330448215226	0.47581431149514125	0.9505579447588853	-0.6484002454599621	-0.9872328018058777	-0.32032078423689153	0.0928697360197417	0.42969825755349816	-0.19919243404641912	-0.9192969775831731	-0.11070392252866978	0.026484150372634758	-0.9263722873187276	-0.7877122739931207	-0.4175588776059672
-152	1.9037146520234165	1.027649519233132	1.3470708097779893	0.8973156191105335	1.1443899841025753	1.4004327023434588	0.5685049281072045	0.9886133049800351	0.4508801687301062	0.9494471526016557	1.388173338246298	1.1380277843353133	0.979925033956286	-0.02299670683001854	0.5004655706167864	1.0633970472190502	0.98047500601224	-0.019564786876515566	-0.3197309664760058	0.10420037034667964	0.40373858707536936	0.8507934191204163	-0.6781377775237065	-0.9142839885516402	-0.2850674085572363	0.1849391306737825	0.42163216961266614	-0.3034509710756721	-0.8181183913556227	0.011151501880743517	0.12286294965718521	-0.6215769632858631	-0.5932202920241438	-0.25562298233343483
-148	1.8864963007027529	0.9881931518400741	0.8375455119921513	0.8505651929361475	1.02558409908759	1.2783824173122507	0.6109523161721848	1.434251424029315	0.9814892386451773	0.8257711508883033	1.1504696578543154	0.9533681845436603	1.4027764761793993	0.3313561073520354	0.5221620784927636	0.8315258601175485	0.9214485860448428	0.31555432001552725	-0.3135515741538082	0.25470170314379	0.3955894698645749	0.7927001694692666	-0.4390357423665016	-0.5282555805220568	-0.08550511278975846	0.3854525973601845	0.4497989106742882	-0.21083162671741904	-0.4809495198504775	0.3081497542230648	0.3967527439113968	-0.03139525644005223	-0.17965871050297885	0.07667613010121119
-144	1.7314494804536447	0.9496464109286368	0.2881080798981311	0.8350805023090438	0.9813748573321421	1.2137780158869211	0.7009410840457235	1.5207468232860326	1.442858811550308	0.7486612181835121	0.9630323624138529	0.8226650336476103	1.5390598735098773	0.5804199561723673	0.5423114882128569	0.6352800114804837	0.9495125985014539	0.6714354736542146	-0.12691533533478197	0.42514815819212226	0.4543937135191327	0.8411930182199723	-0.020506814070425285	0.03783958023173666	0.2132895583489773	0.68158942288929	0.597420273702993	0.13270088996762053	0.015748994385176768	0.740496216334925	0.8344047048482867	0.6353465898685298	0.3424077621398065	0.5292006717672293
-140	1.4436083995611106	0.8240683654006591	-0.06961765122718261	0.7942330817197298	0.9576064920090033	1.1317635746038144	0.7584816198272666	1.2356699673926235	1.6002860028871564	0.6887692195668721	0.7832365612282368	0.7150673848218256	1.328409549220246	0.6354656203438457	0.5248704539398746	0.46530315162482877	0.9907845829744311	0.9087562538091266	0.17323458150995139	0.5575736747015757	0.5273016677894798	0.9524504518303707	0.41128519073597297	0.5823968634206416	0.509612678194858	0.9904176567821201	0.8414272644733481	0.6377216561428983	0.5292479978550614	1.1818568676673433	1.3033302989478717	1.1312645645190147	0.8002563694776548	0.9619941687137763
-136	0.9991688107059484	0.5502267466004656	-0.13971888983736822	0.6599705798652591	0.8520177581256564	0.920161423744168	0.6550337059649123	0.7225726228590597	1.3513320650315128	0.5885319694918828	0.5353044854000425	0.5355352149793855	0.8718639590185427	0.4609117198274444	0.4569190431026006	0.2770422690072616	0.9135955549062226	0.9569951271690856	0.441630839186503	0.6189098342528325	0.5333749638442451	0.9987240408477575	0.6937623006471002	0.9280458665305056	0.714325247391601	1.195435163340764	1.0585941049551755	1.1115511627743526	0.9180012322136722	1.4781604967944317	1.6202644068818208	1.2926551070955514	1.0474470827360045	1.2175009219901927
-132	0.3948779096170428	0.140239178780299	-0.003517843774020062	0.39669656653383784	0.5824919924334628	0.5151380287515865	0.29969608708055934	0.17654617086182756	0.7674742321664704	0.3998445560373798	0.1725150193388784	0.20364797063909756	0.3488916149867481	0.09624890213746135	0.35150384814207913	0.029037155137660062	0.616791246764285	0.8296366909061622	0.529170034979892	0.6067371353089563	0.4097996045733419	0.8514472224673068	0.7430425863579455	0.9980435942247196	0.7868648747604885	1.20257222348815	1.0979454489644045	1.3616921867323457	1.1034746142183889	1.523146387069342	1.6524399477246576	1.1165847750129256	1.0387006971837462	1.2095587223032134
-128	-0.29620957299787026	-0.3133994631007255	0.1480101641255931	0.03289767346420927	0.1508114632136743	-0.03547081714853722	-0.28236061263320783	-0.25881060892565233	0.05186440782565515	0.12040180682539775	-0.2749868326396941	-0.2719771557140042	-0.08799479879574068	-0.33904632840386273	0.2354573452488425	-0.2801243357738484	0.10698035332372687	0.5929232224753334	0.3715227832950884	0.5365040884777633	0.14842721782403354	0.46980541825889316	0.5793874845181748	0.838717339305477	0.7406375389473308	0.9844638680398278	0.8751255251724174	1.3003840413640626	1.093828436950873	1.3080875840539636	1.39191519862656	0.7521003465737244	0.8489636161350763	0.9759442781603672
-124	-0.9089990831313285	-0.6770764572215155	0.1462019380216074	-0.33870005522091434	-0.33697479878224657	-0.5730362520055235	-0.9316118336044797	-0.5353806005312285	-0.5593336210434153	-0.19104547750399228	-0.6973052007236045	-0.7715482692312271	-0.375707923417426	-0.6723747832488585	0.1367137279635087	-0.5970169290728163	-0.48180344579169615	0.3190318934015226	0.038418557397881234	0.42941921840968666	-0.19245934437797846	-0.058002531382030584	0.2994729868957283	0.5825673923089134	0.6261935218259957	0.5973993524727297	0.43436971197133034	0.9927564238279121	0.9655664538800807	0.9258519983757968	0.9623079871677265	0.4149458099856114	0.6284812076913442	0.6623856408561709
-120	-1.2366549937496945	-0.8396985509652921	-0.0447345710161397	-0.5957807287432958	-0.7112784367723098	-0.8985580779277396	-1.4139584267203202	-0.6788187009839014	-0.8957399107252295	-0.43349611649738545	-0.9516367292219515	-1.109344241202471	-0.5338904844156059	-0.7351701837098222	0.07665012757499357	-0.8297876098663525	-0.9366797781183568	0.05415289462841571	-0.28759008573401834	0.30842783969256227	-0.5057132231342076	-0.5431770072574551	0.018344707740720962	0.3765833964376766	0.5047390448224581	0.16521270531426993	-0.057361494604960615	0.6212289913705429	0.8183879235586166	0.5302283154452072	0.5576345310437378	0.27573892404557115	0.5216872678936817	0.44735532886092333
-116	-1.137137648572485	-0.7694674114827271	-0.3106586329246162	-0.6456289871127718	-0.8271344283201642	-0.8828818775774561	-1.5422387084170126	-0.7244856339282959	-0.9101860500243888	-0.5147265182850962	-0.9416543221541066	-1.1404135198410696	-0.6043095573426732	-0.43989622481862906	0.06434781088079988	-0.8950560070328033	-1.0752166482481684	-0.1844020332210675	-0.40226203101639896	0.19540740500228734	-0.6811525804488342	-0.7910065630968945	-0.18470141244985724	0.30892300527778366	0.4198530007729351	-0.17005354123096492	-0.39180585643075294	0.38429048560393275	0.7225308400031776	0.2646371417516705	0.34238618525845227	0.37548810148804934	0.5904679879539443	0.4453687060555753
-112	-0.627818761670983	-0.5318241702003944	-0.4671586144096797	-0.4735088932480169	-0.6443791373196323	-0.5449281321118902	-1.2776230541397293	-0.6690050942696342	-0.6709985716091141	-0.4015311290616861	-0.6757646782026107	-0.8502441623201977	-0.5917757138570147	0.16645170706208778	0.09724365150218693	-0.7615198473777317	-0.8455427863707639	-0.38573303721314467	-0.19025495600349335	0.11209229351591765	-0.6504490955142985	-0.7040429097520036	-0.28495970296439904	0.37627634311089136	0.38568249247450276	-0.3017015747559312	-0.42736893784387925	0.3908170451787481	0.6926116329826164	0.20210982808106848	0.37198492790718757	0.6178914888994161	0.7877431491990364	0.6472688300956922
-108	0.09352330839863433	-0.2535983913694607	-0.38530355594629995	-0.15352900287489638	-0.2504220896597219	-0.04557802516635584	-0.7464764695394309	-0.4779865133615289	-0.3068551711441342	-0.1378142085172183	-0.2641521983630023	-0.36631405261060734	-0.45785936597620314	0.901341376413144	0.16748210745487965	-0.4617998886370001	-0.3529391577869691	-0.5247377740009396	0.30482137126256553	0.08082074651578441	-0.408346085709519	-0.33015158689113305	-0.2966973774094805	0.5028057681740494	0.3934389342865084	-0.19227954696746744	-0.15985652764014802	0.6085483416451732	0.6970344168230735	0.32509595073637104	0.5769337401129013	0.8362951257572101	0.9934240554523556	0.9311329698895633
-104	0.7254520040315995	-0.05243486525290865	-0.08224295804001808	0.18420550180657805	0.18703815293773193	0.40012091297218316	-0.1658627982720326	-0.13690529729133313	0.06116073935683543	0.17912283494547865	0.1443203535012496	0.11394549877485342	-0.16778503316002458	1.5103226861968726	0.2683299773117287	-0.06799381209134406	0.19884304652078907	-0.5609658942364683	0.8921092726118374	0.12075113474638315	-0.004593633569355073	0.16723009901740557	-0.2398545884990778	0.593202470235401	0.4264901865681743	0.12206005274234602	0.2803505055978776	0.8923523403526178	0.6902625543333044	0.5484254346352564	0.8129128197173068	0.8915544129750241	1.087256786462399	1.1337540121064185
-100	1.0052311395061027	0.027165153926570866	0.2842527918791477	0.41625213517953313	0.5124377595361446	0.643903253836947	0.2807097725933542	0.296265154328983	0.3636490991471056	0.452346174766978	0.4488008905046888	0.4413823772253841	0.24678350922743356	1.7736028388066902	0.39800414342529666	0.35279661327934864	0.62027603231228	-0.4619286644717122	1.3247134652070558	0.24213822124859172	0.485184251037143	0.6006422027681921	-0.11999078809722558	0.590163587033845	0.47511356949060857	0.5552720413493851	0.7023808342366381	1.0713283988607076	0.6484146697839613	0.7701213936435516	0.9457594728433575	0.7479886393735646	1.0175043318808166	1.142907616590754
-96	0.8400397875557697	0.03571689119858084	0.5140636550322227	0.48590797063217855	0.6673341376622197	0.6867927891557549	0.5407003746686457	0.6837674958131733	0.5855765327928016	0.6395848377292281	0.6540063007055128	0.60528176870115	0.6630793793149602	1.6037796695272006	0.5623359665978163	0.7747528533448405	0.8412259199838052	-0.23368439019331358	1.419882770768168	0.44487982876036186	0.9929445360863483	0.8617027380168231	0.06728146208227068	0.5026216494268031	0.544122813758363	1.0106835339778104	0.9593420600511913	1.0444090339994732	0.587051747747268	0.9226214862417716	0.9225597358299402	0.48575860139274857	0.8270549157242345	0.9572586393029724
-92	0.35827377348089795	0.08141532519765957	0.4944696711930666	0.42621889602816404	0.7119420152809188	0.6669903380720232	0.6994110328182023	0.8643324949376738	0.7396073322696339	0.7695366124751366	0.8566585757561513	0.7315518241532228	0.9104718542953653	1.086597320674269	0.7686211447383428	1.213164684093731	0.9411392784199027	0.06379009022104466	1.1436556548807966	0.7181452494609665	1.4753773175183165	0.9731648539768634	0.3129636637415505	0.3912300755636764	0.6473057849753596	1.4138392174310705	1.0203274462688305	0.8273295739266661	0.550121007960901	0.9960623358373877	0.7883886078956795	0.24686677691597453	0.6229729040629783	0.6785732490573361
-88	-0.1586987968252762	0.2547883980993969	0.2732060544745582	0.3333455613780031	0.7718363980833439	0.7579423170027004	0.889723060268924	0.7452121358176474	0.8337624051978088	0.9100602842242302	1.1646693915525954	0.9823089217180591	0.8657128789025419	0.439308761441206	1.0126504872504323	1.6852579074272618	1.0796489688317656	0.3335668138188507	0.6183599814061679	1.0379358503839196	1.905790204958545	1.0542659732903827	0.571805773721887	0.3247377566244977	0.7920562604933837	1.7243274406767042	0.967952189385837	0.5290346132273043	0.5789183363603322	1.0250843737470547	0.6450248344348538	0.1506767269144997	0.5107591735342181	0.44560941941289295
-84	-0.4273544539152354	0.5609921798847478	0.030086066497898245	0.3057399086385576	0.945338604447661	1.043894526707071	1.175514218223518	0.36565738824077476	0.8558314421026916	1.1108397217361097	1.6039667089020335	1.4275730812269622	0.5335474596857895	-0.09577575301784828	1.269111868515161	2.165147060649862	1.37998461374915	0.4823305296641142	0.05212048428012489	1.366742965108571	2.257959360143927	1.2320157258399598	0.7647876124146474	0.3354298165912467	0.9665059422886584	1.9318338583809502	0.9352105236283529	0.2817470126191168	0.6831904632485596	1.0550932857577764	0.5838239774268956	0.22831505479389072	0.5339419232239172	0.3526692381537852
-80	-0.30927163284419473	0.9001362897081178	-0.036676559504654385	0.3828008761277895	1.2279493777743595	1.4498982392897983	1.4885424337951974	-0.10990039231448145	0.7806187848409556	1.3555374111283782	2.0723659939895804	1.9706380317525225	0.058622985930253516	-0.3646830013127692	1.4897155724107047	2.5653445655903884	1.8326256228907654	0.46328797819470546	-0.36697375681731575	1.6546728569215958	2.496253960982721	1.5504693945839763	0.814421592086697	0.40009868043973806	1.1358972759178407	2.0426025339054243	1.0199876997944686	0.16770356851198348	0.8309817293167677	1.1086102696085598	0.6330717190017757	0.41105154052904336	0.652579305908548	0.4002423574356064
-76	0.12029691010143849	1.1122999163201306	0.1569499071450146	0.5180233703885889	1.5016306600805123	1.7725464060853584	1.6641148286766267	-0.47602993129707183	0.5916947111449694	1.5557177027524882	2.375357860290029	2.3812055527648894	-0.34830316813268875	-0.36551415827974115	1.6137641627576074	2.7633471419184827	2.2809634151090408	0.295516311376238	-0.5544221387216787	1.844067926519408	2.58147000614721	1.931310291182565	0.6920487863234235	0.4565884757435109	1.2511937586666009	2.066070551424298	1.227516290426515	0.18542246473704585	0.9632121300220416	1.170855638408925	0.7493247966921212	0.5762649163955653	0.771357117135915	0.5055770265212397
-72	0.6210018976745221	1.0646561357321067	0.5144597875003998	0.6042579397204281	1.599339481130513	1.797415848008653	1.552433367624367	-0.5963578209125542	0.30095913930248336	1.5965951640826932	2.3306667745874337	2.4226000247825707	-0.5259729610515015	-0.22881431819843007	1.5937931497388764	2.665755742018393	2.5022761758570424	0.051657456774227194	-0.5454299436149872	1.8860437822407607	2.493973964116529	2.213896030558521	0.44356271512576306	0.4472270298633682	1.2715326515519567	2.0121970125893687	1.4762266837042213	0.2700750820970566	1.0268053982559542	1.2028275697857231	0.8545516707779502	0.6220201834232939	0.7989622930382035	0.5636610970571171
-68	0.9257940626612214	0.7295663338361227	0.8040077069964123	0.5344682918405997	1.402589794432434	1.4316960537049561	1.1324670286196774	-0.4777934539175889	-0.04918942215540498	1.404590722352492	1.8787707042943407	1.996385926928299	-0.4547030318224137	-0.12802198496921025	1.4205185139077372	2.2693867626114135	2.336435312094232	-0.17734773412274324	-0.4446595299938282	1.7617447331771443	2.2553529682437694	2.248963588758558	0.17853885843976616	0.35975369720228967	1.1877771585993566	1.895942683201486	1.656545992483578	0.34825727255632755	1.0057626937268676	1.1708960503579806	0.8913677908327036	0.5253199325649911	0.7028318029778702	0.518471776130102
-64	0.8854951240117457	0.20859011955049375	0.7923358658813191	0.2675154500406071	0.9183872318922631	0.7721725682790284	0.5533380494452409	-0.26277029447969624	-0.3992065479213148	0.9992201303049705	1.1341185541129442	1.219905254145072	-0.2645366185185106	-0.17206914679476182	1.134803173061106	1.6813105302323328	1.7910726025183816	-0.3232186726515874	-0.3460585764254041	1.4987207613299245	1.93295573700208	1.9937676140992162	0.022513173463724733	0.24150890050948082	1.0347747776608824	1.7433972314687065	1.704538579451947	0.3896676888164461	0.9336408949168007	1.0746015283156396	0.8615968801679692	0.3530750563767139	0.5291159139625726	0.40118333596029976
-60	0.5399661646561562	-0.31391575853246634	0.38715252182488674	-0.13917906547216163	0.2880229346632844	0.06149015932651611	0.0605241133234677	-0.1365424987206625	-0.6933678371089727	0.4947379516985233	0.3383004954856713	0.3755801012570279	-0.1479447331269561	-0.3377703121717328	0.8153181055465001	1.0764651271344818	1.0498620245176271	-0.36400201824792966	-0.27314707567870183	1.1684386700693852	1.6159660775393405	1.5441214999314241	0.05330895991575228	0.17700286164894355	0.8815433956777593	1.588778491777294	1.6390439230545	0.41987410081713233	0.877708432842593	0.9523262357509724	0.8214788416149301	0.21928004865119746	0.3747781207635998	0.3093060843287879
-56	0.08158878961467919	-0.6649256331822165	-0.2959966950095924	-0.5519803748499749	-0.2820718579323225	-0.44359522945940594	-0.1453706618453462	-0.21659552996309758	-0.8952823854730887	0.04545962426509876	-0.2619714730324333	-0.23499603510176803	-0.2383813852013675	-0.48329666134883925	0.5447399602488093	0.6124609693322858	0.3821658482439558	-0.319109856276692	-0.1769960071148117	0.8619176723653404	1.3724195922533573	1.084983942153562	0.26034718686176	0.24075904427777722	0.8021965006601954	1.460592743046977	1.5413445195383497	0.49061807866205	0.9042236186086259	0.8612455107879055	0.8386384823606382	0.21787613575286363	0.3308295301190967	0.34117188963583145
-52	-0.2678857736976616	-0.7730536441358736	-0.985711393251827	-0.8273981192679847	-0.62847947915665	-0.617327390542686	-0.036266088394154704	-0.48193386075413547	-0.9914339159729747	-0.23605263173587254	-0.5458263741063875	-0.45637783292940654	-0.5237863646634369	-0.4362236846400656	0.36852830555377786	0.3468710771386085	-0.0036837358400352506	-0.22944551648384662	0.014211486057819378	0.648999331743087	1.2097618549320952	0.7833468298207928	0.5478813038344756	0.45168220882817894	0.8372986891587596	1.36244153632457	1.4899980984262269	0.6283514483799958	1.0408076021619472	0.8411602952700732	0.9375060177021471	0.3683448126553001	0.4282425035155018	0.525493322476205
-48	-0.3932391097154034	-0.701041756290495	-1.3987785542458284	-0.8869730807798648	-0.7153742891369993	-0.5358016477408588	0.21814383511303523	-0.7913123349238202	-0.9834637617076665	-0.340800046060339	-0.5808755144712355	-0.35940897374010156	-0.8557631351799514	-0.10472537550711637	0.2676926248467546	0.206413045004408	-0.07402262072947742	-0.13551045920014346	0.3267901531551893	0.5389468656284258	1.0633591386650687	0.6866334659406725	0.7820724825187124	0.7527292351791617	0.9631442999364584	1.2601383892668816	1.493214484259476	0.7971863726516045	1.2539392678073134	0.8822157956737728	1.0676232549415343	0.6020008310377722	0.6159807428066756	0.789318619165762
-44	-0.3540765634180238	-0.603138624099017	-1.3970792258275724	-0.7602416257737507	-0.6480403526157169	-0.43022680173970945	0.34822538407145326	-0.9830417608237222	-0.8825645424494731	-0.3668830087458744	-0.5789015874551926	-0.18809458565906373	-1.052855012142822	0.449378161487881	0.16645246702130675	0.030713150200190553	0.01876651677221539	-0.06862732005673984	0.7006104570819892	0.4708396184477799	0.8258566835533401	0.6922363025354135	0.8557372667641843	1.032217738406474	1.0920547219361252	1.0887677642036402	1.4682235680704356	0.904361364942354	1.4577913247496066	0.9195035076767983	1.1189068527582227	0.8008058050918072	0.7860833982648114	0.9881655548896128
-40	-0.3424747577603649	-0.6328698976750758	-1.0694398853004121	-0.5724880680889083	-0.6131603702323144	-0.5548084364234926	0.14035578036634647	-0.9832288598031997	-0.7118232232241815	-0.46573290111257437	-0.7748754600988338	-0.21676686351407187	-1.0240172121896904	1.0180189583825079	-0.030783304866914062	-0.33770885978312454	0.02218874724567653	-0.054257195305928714	1.0017628644446688	0.3386192611251253	0.4008270193947321	0.5996928199886067	0.7340736370626578	1.1709012955667075	1.102755424576345	0.7772940377637785	1.2782944408567842	0.8423702099513142	1.5456765851096879	0.8565081932377627	0.9736803149435795	0.8579522349630903	0.8265533426397159	0.9788045858466271
-36	-0.5597215280706341	-0.8544862248781522	-0.687443493061125	-0.4815359997512642	-0.7786676267991595	-1.044019100414337	-0.4368367780146774	-0.8542285539994386	-0.5102244006626434	-0.759734032620125	-1.295379277773488	-0.5947447404150704	-0.8334396460471649	1.3373644318194022	-0.3907277276187777	-0.965195832199803	-0.27538624336332557	-0.11650660604625743	1.0829222174959867	0.0418145357506754	-0.24489693281808841	0.22123052123958048	0.45734965685769324	1.0910702916255004	0.8900033809125949	0.2822964482332691	0.8090438226300597	0.5456140027575889	1.4305388891342081	0.608764646900517	0.5692062959605058	0.7273852210753635	0.6754618270032715	0.6958417278841292
-32	-1.087603685494116	-1.2089637487405676	-0.5595135078608933	-0.5986770972395538	-1.208742973136877	-1.8384778453186168	-1.2119442193903913	-0.7549771051419008	-0.33486545001361584	-1.275919791814928	-2.089058870763231	-1.2697590557464982	-0.6668125970217518	1.211708781044123	-0.9136705375491607	-1.7874443485907745	-0.9275786853259356	-0.27743813325453787	0.8559147097912325	-0.4596025038082584	-1.0555493804984462	-0.5060840832330638	0.10480601314071328	0.784757731363709	0.4139157821218485	-0.38252794646005206	0.045689228806774465	0.030233926994761184	1.078329202790481	0.14865617416519894	-0.061578310870626055	0.43918588646631174	0.34949138672328617	0.18979054641489843
-28	-1.823251242802739	-1.5530964096911741	-0.8609142877777248	-0.9340257025024991	-1.837782616743712	-2.7191295555127875	-1.9108602952396285	-0.8362694361553767	-0.25240436132601235	-1.9322401236387134	-2.9561119004955194	-2.0310678430776132	-0.7144133430563566	0.6140876992933887	-1.5298545321940071	-2.6405379705519105	-1.8029273702878286	-0.5416450486813058	0.3389576068903386	-1.1179381580737788	-1.9028085422158287	-1.4734675847045346	-0.2534213059702801	0.30868843119886236	-0.27733004023151064	-1.139036056503788	-0.897772548316228	-0.6056647881475097	0.5186039792318801	-0.47365307688336455	-0.7941875437712363	0.07350068520823888	-0.06690669042861103	-0.3939221193381601
-24	-2.5198056634226482	-1.7464361146702625	-1.530183669041626	-1.3926303351527696	-2.509524100643431	-3.423653355537625	-2.3082528056041065	-1.1355402440965374	-0.3163966230510441	-2.579044573948133	-3.653029194191905	-2.632327549964119	-1.0438727114071382	-0.29352989718714617	-2.129449123728272	-3.339951506765187	-2.6514244012647814	-0.8822515584605477	-0.34949615509485615	-1.8137019826873833	-2.6342928343066916	-2.4380028186279596	-0.5862777814368136	-0.24762479898399176	-1.06371330946343	-1.8654280853857668	-1.8118772460968364	-1.2184776036970162	-0.16996124343876326	-1.1448761195841362	-1.4592217170113149	-0.2878963045957788	-0.4636893260692872	-0.8826600290901622
-20	-2.909991733833397	-1.732927079593896	-2.2893214167969234	-1.8231768562062471	-3.057070009142602	-3.775464048390233	-2.340556377223598	-1.5415823420704031	-0.5376451001898178	-3.0720393580122787	-4.011610974673902	-2.9182376787893847	-1.5466260870985624	-1.2306671111506766	-2.610496275986645	-3.762746562994485	-3.2253687300311653	-1.2405985562473674	-1.0439599726068691	-2.407654040933587	-3.130909911833982	-3.127624980659414	-0.8999495483565079	-0.8000852445429367	-1.8009132101366638	-2.4387304721295404	-2.4734883245961066	-1.6750698047308161	-0.8898888207856258	-1.7341937975014643	-1.9104887198850369	-0.6028834566153778	-0.7573030571890983	-1.1568585605023696
-16	-2.841889612652189	-1.5671569069396105	-2.7803378034966792	-2.0891623444263	-3.373612156933498	-3.7528715038916096	-2.118418926612566	-1.8510564518923887	-0.8639014341477464	-3.332103243998137	-4.004373063467811	-2.8819956706716585	-1.9904596755318233	-1.917716140673674	-2.916294567374613	-3.8861772915952058	-3.3851385031110617	-1.5393004378555832	-1.5958975513220033	-2.799059383954783	-3.342712632322791	-3.354698172682545	-1.2045071094619637	-1.2908569541765074	-2.3726241528689527	-2.7775161196201363	-2.731564753311592	-1.8953076553176524	-1.5524585207843986	-2.14520167762832	-2.0782465882282737	-0.8777777530442917	-0.9220057106581517	-1.1962407797175143
-12	-2.3531849324895653	-1.3708605731685484	-2.7494027545177757	-2.1273090785676594	-3.4422333153600997	-3.4708750160324153	-1.8373707486493538	-1.8902097892721736	-1.1896264523034887	-3.3641664896905	-3.730832090495105	-2.6311278276771093	-2.15387153081688	-2.189712995722727	-3.0450165194879757	-3.7725415134549847	-3.1413290421329934	-1.7100315050819996	-1.920559759059439	-2.9630582257801055	-3.2944738781721212	-3.0887222212056322	-1.478710290036452	-1.6889805751119547	-2.7269194057281054	-2.8702802585613445	-2.5635368759282042	-1.8698081923006724	-2.0959479755889774	-2.353739732521734	-1.9904663512520213	-1.1470321387895082	-0.9932661031440996	-1.077481743953204
-8	-1.6457464653425702	-1.2520700661518762	-2.181105608201734	-1.9666876743253625	-3.319389334881066	-3.098493329808282	-1.6513419109613776	-1.624790783594636	-1.3964565957098207	-3.233156196060698	-3.344115248820104	-2.299533599769797	-1.9598637769808358	-2.049481386732295	-3.0314023418184908	-3.5180637747633727	-2.6230237417753286	-1.7210769609867296	-2.0081660696826757	-2.9484844133321597	-3.062779180423354	-2.4543805060408337	-1.6606440502201185	-1.9757953832333368	-2.8795466350333103	-2.7742748190454343	-2.0736634678937755	-1.6486245352129283	-2.4877734121454895	-2.4098908840370705	-1.7516752437235024	-1.4366607629743426	-1.0410330269279187	-0.9258425212373015
-4	-0.9806784366643447	-1.2363675801533132	-1.31441735889455	-1.7017590956637985	-3.0875189226399447	-2.7667763163330426	-1.5899032314213661	-1.1857801645858437	-1.4060070479180689	-3.015025608079931	-2.966938249726608	-1.9676959464938373	-1.5225793084803807	-1.643974896095029	-2.912795297897974	-3.2008509555111573	-2.0020859190937785	-1.5857397277850274	-1.9038901280971923	-2.8369178700347364	-2.7396838595838178	-1.6656490522292717	-1.6707537132042378	-2.1295251792548133	-2.883589737287507	-2.5841734344088167	-1.4399824106099994	-1.3118411269445724	-2.7128417423420172	-2.4021120010763637	-1.4916336498747342	-1.7327163175705023	-1.1267178030177378	-0.8481900670571343
0	-0.5555338845532223	-1.2536796299753272	-0.5316886292385173	-1.4402320348616884	-2.8105976510612716	-2.520189278915454	-1.5657701452777675	-0.7988187054493021	-1.2212722270648995	-2.7571234633453288	-2.647039406769016	-1.6429314571862252	-1.0811123820665962	-1.1844190329211894	-2.7060601642951743	-2.860161297252664	-1.4224947655049205	-1.3468766178458014	-1.6791969495339338	-2.6929762295442723	-2.40397333491871	-0.9387117600582643	-1.4585126601588572	-2.1267187541672943	-2.790201418507787	-2.3887619911918563	-0.8431115725211586	-0.940692720422373	-2.7632052828642757	-2.404974931366987	-1.3098604646036869	-1.9773646543170214	-1.2681558100153774	-0.8830075837729701
4	-0.4255546320661418	-1.1906480759123597	-0.17352801517543978	-1.2555646864662344	-2.5168554719322938	-2.3290269316045134	-1.4568155967170968	-0.655121145978577	-0.9324171519580068	-2.4699463781939164	-2.3682284295371554	-1.3011275497011137	-0.8601298906544611	-0.8518562295387229	-2.410291665667528	-2.510605567315505	-0.9672688817398571	-1.0518116924433076	-1.4110810721056977	-2.5358457501283667	-2.1084194130117138	-0.42181274188355733	-1.0420823070918954	-1.9607605884638621	-2.6249022417553274	-2.2353422585317184	-0.40566411511997685	-0.5989004358429633	-2.6384100847388012	-2.4376089511362786	-1.2386763064582142	-2.0949954933678714	-1.4287819826292445	-0.9896776651191019
8	-0.5055407868973077	-0.9719535087841514	-0.3733558347335604	-1.1662844390033518	-2.211614603180858	-2.1412792151748445	-1.2000545232991942	-0.8025733808281587	-0.678519545272529	-2.149577135380945	-2.097669119307166	-0.9447849369037403	-0.9409127807703281	-0.7350092511693349	-2.0318987318236843	-2.172020668268006	-0.6649997813601299	-0.732586739597845	-1.1750726670161369	-2.3475534856654043	-1.8821479034587878	-0.16915906923024016	-0.5135383592991434	-1.6649397569582354	-2.392513745943126	-2.1205830520496067	-0.16761095779539753	-0.32744097626984864	-2.3582472741668474	-2.4584162173190967	-1.2410256831307493	-2.0352477975958685	-1.538083430221632	-1.0800111266525065
12	-0.6457092745690817	-0.6198853238667638	-0.996461150514573	-1.1487417192066396	-1.905019993740702	-1.9342981528083223	-0.841878590842448	-1.1217701406767138	-0.5845680222057482	-1.8107525064527645	-1.8322204305166052	-0.6358218773047688	-1.2186242311227935	-0.827188310918905	-1.6123962361634658	-1.88761388778947	-0.5173872696211519	-0.4012703587414521	-1.044177052722593	-2.10870599214307	-1.7386656955690925	-0.15702664812496916	-0.0037341441399203323	-1.3214176859871662	-2.102998489792368	-2.009428019218674	-0.09917321776146777	-0.14616624974063824	-1.9771615216881397	-2.397921317722076	-1.2392575709525964	-1.8084505750773507	-1.531262274690758	-1.0697988244703434
16	-0.7264615875022561	-0.25330859358729446	-1.709367390131589	-1.1669119567019628	-1.6295088488445648	-1.7297620729643135	-0.5098702894689269	-1.402739640509021	-0.7010188085023145	-1.5027618370262035	-1.6082202155517558	-0.4703279423759974	-1.475512143224458	-1.0599279376925916	-1.2347916333494309	-1.710282798263738	-0.5142447935472377	-0.06804230792032699	-1.0757465335388838	-1.834169263977261	-1.6770880179978154	-0.3117313377139306	0.37331613804024016	-1.041001198047689	-1.7950409605482185	-1.8662060452074112	-0.12917929855156968	-0.053926177186714025	-1.5837179382393505	-2.2084522191556393	-1.1571150988928351	-1.490556474737073	-1.3860077822977859	-0.9212387776957631
20	-0.7145867329675705	-0.024716200244609198	-2.144161218951748	-1.1982066601065329	-1.4358174764621896	-1.571853276098896	-0.33392539536091415	-1.4750148020697078	-0.9773458217740771	-1.2972574201256188	-1.475632425397311	-0.5141687380206964	-1.5191178283484341	-1.344037052575871	-1.0006623242863146	-1.6698229270737752	-0.6307111962606957	0.23980207680716326	-1.282741901020116	-1.585039611629263	-1.6806263881213281	-0.5391010628440703	0.5700964317233341	-0.9196738577511363	-1.5391081532720234	-1.6831539826812918	-0.18057911052411546	-0.029423959478953373	-1.2805170980548468	-1.904802436787821	-0.9595942473025992	-1.1972590654662862	-1.1410416335861269	-0.6600289924169915
24	-0.6607902033334961	-0.033607203428533836	-2.07674550485804	-1.239495035856782	-1.367203112965075	-1.4899445734553536	-0.36858308222218816	-1.3122391667613775	-1.2857791152916227	-1.2512146202922196	-1.4573531114023242	-0.7446157317435307	-1.3026339974893635	-1.593922730236291	-0.9830444430327303	-1.7431321100094148	-0.8118265250690179	0.4701234686426117	-1.605164285421837	-1.44183671110428	-1.7141005949612524	-0.7409777622588497	0.6175479873324428	-0.9909260844007706	-1.4085097277365795	-1.4854156933474643	-0.1933579141980212	-0.03307840592258285	-1.1440417737686768	-1.565321799140899	-0.6692716462403968	-1.0334912512435297	-0.8815479852353953	-0.3595988741378765
28	-0.6476632340291752	-0.26587918333636423	-1.5314491948563018	-1.2932811942826914	-1.4293197357330505	-1.474192615601752	-0.5605413303528051	-1.0471081707266674	-1.4792867861592638	-1.3691072429422624	-1.5248823127393978	-1.0396084759213835	-0.9538637971637164	-1.730286236209145	-1.1829963892632822	-1.852598424048835	-0.9673457121267787	0.5605710134658283	-1.9064446639565265	-1.4556814395391742	-1.7283598140948682	-0.824494717423661	0.5952081069223844	-1.201442715472508	-1.4347529375091888	-1.3107458319949452	-0.13093967702708273	-0.01564026247486493	-1.1833782166167495	-1.2894858089315562	-0.3523689797564873	-1.0432416174298498	-0.6969212276029308	-0.10267520670001762
32	-0.7255504112998752	-0.5964429363450785	-0.7602177839159007	-1.3473893369988648	-1.5749551018051757	-1.4825180731536691	-0.7835647444015414	-0.8824911691319398	-1.4567172490534657	-1.5881595571475091	-1.609885211694708	-1.2331333129266768	-0.6904219371530314	-1.6787726836734937	-1.5158263406629577	-1.9011137437505643	-0.9989382003358946	0.4740229833079067	-2.012084717438895	-1.6082555015013738	-1.6764585929505764	-0.7234027367447506	0.576845286820278	-1.4284709655935919	-1.5768204887633568	-1.1802543371919583	0.01676507662474264	0.062253519735517536	-1.3244025673806923	-1.1375560731777516	-0.08628995694785688	-1.1875284880219814	-0.6346123798560402	0.05630661160438908
36	-0.8781273342850168	-0.8519298412748346	-0.10993592413325848	-1.3646130527375446	-1.71061777636653	-1.46535145866454	-0.9063073969847125	-0.9562398767170436	-1.2049542635059396	-1.7934881403464504	-1.6381642777091256	-1.197731849507451	-0.6783333999673655	-1.3864037955566737	-1.833977813858726	-1.819359655555179	-0.842114386816584	0.23077689052967193	-1.7864872172073878	-1.8042931511147637	-1.5308150014374928	-0.42165657771464005	0.585838018368771	-1.5342075786002531	-1.7252114967657808	-1.076652762555761	0.23588362276603864	0.21122957712725718	-1.431718941888492	-1.0862365933649991	0.07822695354738424	-1.3592787946714835	-0.6713049990871307	0.11244451971274795
40	-1.033436057342607	-0.8972043372390187	0.14912447295685566	-1.2946664062237743	-1.7304209427059973	-1.3905644381700706	-0.8520852901880164	-1.2406916587022714	-0.7950130084946466	-1.8641533804558186	-1.5664908846405718	-0.9094153619693888	-0.920221326412016	-0.8605138637751347	-1.9863777110493315	-1.6009719331374999	-0.5063958751290966	-0.08598268010365434	-1.214117762361283	-1.9112099360849981	-1.2962899175340674	0.025985350766736397	0.5849906787407835	-1.431753274163796	-1.7489272311877158	-0.9501135921332067	0.48907849069138876	0.4003510465050799	-1.367638703707994	-1.033835408461594	0.13839781249390187	-1.4313570224863297	-0.7211999278933481	0.10464016321704449
44	-1.1060326071471114	-0.6993404013143217	-0.05076802881655381	-1.1030611964032706	-1.5618023832943768	-1.25301813762928	-0.6277068837530221	-1.5387927254926683	-0.34258884105017695	-1.7259051756199253	-1.3993318045572367	-0.46283525111645696	-1.239187714309096	-0.20688316173772578	-1.8823423338095542	-1.303700682209571	-0.08703285433730051	-0.35579103141601454	-0.43622216472162767	-1.8236385537835116	-1.0104306910753116	0.494964836778288	0.5067817555983982	-1.128853914271805	-1.5618118008282276	-0.7508357744333625	0.71881365594579	0.5625007734402041	-1.0623661252856178	-0.8578749873436564	0.13514830137940254	-1.316727515710922	-0.6798465830804579	0.08972365386482774
48	-1.0418696377198737	-0.3361702552890996	-0.5546315298382459	-0.8004851321037252	-1.2008153169831863	-1.064455983335456	-0.3077587179520031	-1.5918743570191116	0.04110180948728282	-1.3849444354376776	-1.176094409834297	-0.0219203102780277	-1.3790217603198796	0.37157457973126745	-1.531051274248786	-1.0148284409650261	0.2709573202444721	-0.4707232105768274	0.28757241295688707	-1.5210715493899492	-0.7292123418516954	0.8307260253913269	0.3055737010870211	-0.7276579719291671	-1.1747517556094764	-0.46953216076561033	0.8627914168508969	0.6218464358842123	-0.5610681758066446	-0.4958121764062756	0.127682208692526	-1.0133602593586255	-0.48324921605171783	0.11129935057673083
52	-0.8412584045151258	0.04876048105565215	-1.0789127322613588	-0.4544611561745258	-0.7241645437077016	-0.8417718389239247	0.0036444510241226487	-1.2371351687667926	0.2851768724870899	-0.9304496026389387	-0.9459982490497248	0.25798228317930005	-1.1600205868997209	0.635811684910538	-1.0409036848490827	-0.8070651868470914	0.4349127102838632	-0.38437971375693625	0.6852782947404807	-1.088097569579478	-0.5100931512351794	0.9089398361145713	0.0007135661999374317	-0.37690177464694047	-0.7037541252487959	-0.16425201255336688	0.8736281372901505	0.5299478159876024	-0.02050384687671005	-0.004790756839339209	0.15874712129090585	-0.6110407694648082	-0.15144586524873946	0.1776941116138197
56	-0.5556323514261426	0.31377285639697816	-1.363887902631038	-0.17263951854033865	-0.2705711119496251	-0.6067531689583604	0.21360759383153466	-0.5237441049703978	0.36502399948466824	-0.504171608605629	-0.749515173927053	0.29774233623672197	-0.599853752529094	0.4188841570768796	-0.5774809703552026	-0.7115566712534188	0.34576281817877536	-0.1306392100135286	0.5999603256336833	-0.6821790916385643	-0.4003002931501818	0.6930116397526942	-0.31078344505046074	-0.19970390150194542	-0.32413256086529874	0.047109823555022676	0.7404929380794707	0.29934859200239616	0.3505160799713552	0.4400340307570018	0.23248171747639457	-0.2536921196731334	0.209859013027591	0.2610268288220955
60	-0.26420134239249554	0.37286394740379336	-1.304025765941355	-0.06278660132530094	0.002869590411168262	-0.39961585301595404	0.26609930328896403	0.2821350984602695	0.2827494137300961	-0.25084721978750907	-0.6190580710040147	0.11921715706289722	0.07322483491291483	-0.2725737982066995	-0.30109593196189754	-0.7242344003512019	0.04523941490553205	0.19334042023482378	0.0703337786806091	-0.4665029931211281	-0.4354923356505181	0.256695001669336	-0.489884494498329	-0.23628978371567388	-0.1941653336152713	0.02874687120511106	0.502273021860392	0.015068833678168555	0.3803725829057709	0.6153621062001137	0.31786730805251895	-0.07546242307445601	0.4540400493602509	0.31823688665151567
64	-0.05104679601417419	0.21275632029700178	-0.9937176083271333	-0.1885767872340792	-0.026199795239580787	-0.2932372085797156	0.14652256630620591	0.8128154257279897	0.04380539048579179	-0.2713316076103942	-0.5949583038567614	-0.18382155848822673	0.5286152349477234	-1.2261487214602413	-0.3137717537110526	-0.839049277571393	-0.34954324276410986	0.47675993918211534	-0.6795429570207386	-0.5429267869593197	-0.6469410641548998	-0.2496705346956465	-0.4179646064219289	-0.4282196749366105	-0.3869845559363338	-0.3164277664778606	0.2386182838614292	-0.18698470247266455	0.012368163994020485	0.355734228189687	0.3735720505819372	-0.13874596322315594	0.4643984425263897	0.3205502025140528
68	0.008400816449174574	-0.12460876224766805	-0.6675463301970843	-0.5421195016525201	-0.4001408209234879	-0.38468250535163073	-0.12238136648035773	0.7800620178555144	-0.3505594423503198	-0.5929802045155947	-0.7345811110069943	-0.5026442395871159	0.5044930564540911	-2.092113489590968	-0.6333912595016098	-1.0779299708807835	-0.7073416095994796	0.6449908597874177	-1.3420990671605368	-0.9163981056918409	-1.0635062429280029	-0.6700006110441593	-0.05664353430871192	-0.6520438177812379	-0.8630993940496738	-1.0000323031926295	0.043601129093952536	-0.1691588457128228	-0.6653026921641138	-0.3558191350059552	0.3803751161031675	-0.40303504365253934	0.21542596762626773	0.2756490402414768
72	-0.14445608817822167	-0.5737860188302603	-0.5736273512662687	-1.0464668247505033	-1.061723348797983	-0.7563022356012016	-0.4894854414025653	0.12322206019046968	-0.8896552897879855	-1.1644440859959133	-1.097573992819102	-0.7676736693073852	-0.05420997725151492	-2.540103190684634	-1.1975693672462033	-1.4898649416501348	-0.9471200680662102	0.6800644976612066	-1.6730388360698674	-1.5009709558738038	-1.6978324608851991	-0.9130085683659565	0.5208347426616117	-0.7817002515130299	-1.4916905127057063	-1.9316202353346146	-0.00728734161727547	0.1501457538390199	-1.4498276673905623	-1.3587617839840072	0.36208388117925566	-0.7380494456730727	-0.20527310617595673	0.23151262046059942
76	-0.5428323732022339	-1.0729312869639605	-0.8467817285139371	-1.587442274854093	-1.8699789000028781	-1.423102017624359	-0.8935766197532132	-0.9545303559045567	-1.5279967746303382	-1.8753582191802758	-1.7096433596362022	-0.9772826408507748	-0.9633171534058707	-2.4256510673316303	-1.8922344398407924	-2.1149516052254462	-1.074157950550341	0.6147391184544942	-1.6039396483933739	-2.160640234260484	-2.5209045346509527	-0.9870658491962833	1.1518667907243232	-0.7464299183119788	-2.1065642780524083	-2.939295999735363	0.11521080107211203	0.7556587438578312	-2.098816151088328	-2.3643927514462537	0.3810170581257777	-0.9757837628523923	-0.6265833958064873	0.258562295976145
80	-1.179281708600969	-1.5748763044649816	-1.4479027949970458	-2.058465714025896	-2.647893898954359	-2.299002164758322	-1.2883563009159142	-2.07956766557174	-2.1692883913584002	-2.5922765666362833	-2.525180333437765	-1.190119978760983	-1.887675518992012	-1.8718581152386122	-2.589594119209584	-2.933184377894104	-1.168564197450965	0.5029563295063719	-1.2598193852088493	-2.7611968447589947	-3.4389834317165713	-0.9799622868591765	1.6495337444620366	-0.5539735541662316	-2.565258019646393	-3.8174283408105283	0.38551869891107354	1.5317522248695747	-2.413327449427564	-3.0601444167123546	0.510060964727082	-0.9746722554394271	-0.8599641897424039	0.41953733457500164
84	-1.9899775931660972	-2.046434635717649	-2.194230312529559	-2.396606677680229	-3.243114940084627	-3.2083949961720424	-1.6609705644633739	-2.8872229980052624	-2.67928218165099	-3.1960840144526363	-3.4144000920874764	-1.4831981621488393	-2.5076188977826406	-1.2128723829164902	-3.178186408601827	-3.8303463362307943	-1.3278739418836467	0.38367864392685813	-0.8721395708952883	-3.2046785273703904	-4.289778698580971	-0.9892281864939856	1.8807463598450778	-0.2685544484033861	-2.7816026140556196	-4.378798473746842	0.7432063203167302	2.3043813647264297	-2.2913401069010795	-3.217709056359708	0.799173412689465	-0.6663547737463879	-0.7684687356620369	0.7439564447693345
88	-2.8514697479734603	-2.464451545215236	-2.8594977783486994	-2.593117945799808	-3.576471558124208	-3.9480059047203535	-2.033083910577406	-3.188393346365974	-2.926631920101199	-3.6095030216638584	-4.194133747955752	-1.8996347140988419	-2.667810194909324	-0.8190003016774928	-3.5802361874787167	-4.6136965635163305	-1.6002252061496391	0.26435705952657806	-0.6366777403969378	-3.439060917754584	-4.875666606037293	-1.0522488329069868	1.8209466888229617	0.038074474685622826	-2.727247469692121	-4.498040187923325	1.1239707441562652	2.907125465682675	-1.7380803779588758	-2.761207573595027	1.2514353958959104	-0.06936536711822713	-0.3103716663630696	1.2164226739689281
92	-3.606910696459832	-2.8166966367178703	-3.2914309418547307	-2.6803748539962537	-3.662898769667475	-4.375120628754908	-2.440922492540266	-3.040159217788203	-2.8387379574630027	-3.8111450575927495	-4.696525561872882	-2.4141719280326095	-2.434583657793697	-0.901050267328796	-3.758534183549554	-5.081001745747143	-1.9453967760560578	0.1283138391116161	-0.6038278326048148	-3.4501256855641724	-5.029880034145256	-1.1177840204627787	1.558692451356428	0.3298903695360644	-2.415102714163072	-4.138353814167139	1.487828846989748	3.2444496072870677	-0.8411794283609978	-1.7735472872779	1.821797604729627	0.7322864513982248	0.4585974502905933	1.784240122105029
96	-4.116506566144906	-3.1031615655753044	-3.4801311405055055	-2.7030327251853863	-3.5928220658191328	-4.47230480972292	-2.894098274553456	-2.6850674084582833	-2.442217105421519	-3.830637683733721	-4.841364848311397	-2.9287409708466066	-2.03562259160127	-1.397970434474004	-3.71530794159326	-5.110952364415422	-2.244291061457123	-0.042409334224677596	-0.6625975949724571	-3.2490029252992536	-4.6896796108098435	-1.0757532092590818	1.2453737227468469	0.6173253639847688	-1.8849189233873995	-3.361540785885484	1.8282868815992293	3.319500914775804	0.2641217105872767	-0.4528883386144862	2.4342138705784437	1.6253246027918966	1.4148519003432476	2.3758137166121207
100	-4.310300816143903	-3.331407061748918	-3.546229115115846	-2.6921856335379677	-3.485554686329215	-4.352546680905407	-3.3397216712555133	-2.405194514877785	-1.8647117567666647	-3.7321345711894485	-4.675954806919935	-3.3040072834520067	-1.7268238024028844	-2.0157411047587654	-3.492263308291037	-4.73085879085114	-2.3564491212478034	-0.24607743260720694	-0.6266738756570278	-2.874427072897188	-3.944773902470213	-0.8333603122651692	1.016619322117426	0.927376327557434	-1.2087451189040834	-2.3264467657479906	2.1539356654144965	3.212287417884627	1.4153442347078493	0.9468719339306367	3.0016784592183656	2.494519942661293	2.405091279633295	2.9158759043507674
104	-4.217122544131842	-3.5042016417722484	-3.6614451315943626	-2.6583907537099614	-3.440594187632915	-4.20148657691668	-3.6675803568748933	-2.373138183324198	-1.2951632705413674	-3.594968548281365	-4.360480774360718	-3.4242515477510804	-1.6631749826401812	-2.400702232021695	-3.1692373672578444	-4.124092568475606	-2.2026212159812744	-0.45826777700117294	-0.3715976765310596	-2.4052238403629405	-3.0325658244815688	-0.39660170574191733	0.9193016863500985	1.2555034128915599	-0.5078012334400626	-1.2737826076772576	2.4509286818613165	3.017515174876624	2.4255394874368923	2.16290687968628	3.435492030053023	3.2297379889007494	3.273199073156865	3.3297834312293353
108	-3.946217050125871	-3.606631508304409	-3.94261645275337	-2.6011619502198067	-3.505014172287775	-4.184216488764482	-3.7613763714238475	-2.5722739631559013	-0.9132060385535988	-3.49493240427734	-4.101102818625203	-3.26611112723665	-1.8355562640576826	-2.3515300691361993	-2.8555641102220344	-3.565280666886593	-1.8277634336101334	-0.6455015523825638	0.05908770844323273	-1.967008585732023	-2.270545238484343	0.09449209994062578	0.885508892684654	1.5314127168137914	0.04208263744219821	-0.4884791659896853	2.649309866892068	2.7752804686095454	3.0850641649557127	2.9511816427107256	3.642250051839359	3.719527950432703	3.872644891498146	3.539960852268513
112	-3.627706280132304	-3.603765240153687	-4.3713493236802	-2.5220348771316194	-3.665108194634431	-4.362784851503338	-3.5652832894909565	-2.828937761793776	-0.8165887573606139	-3.4863977344227894	-4.0581173794331935	-2.925357572799119	-2.104133362226026	-1.9382429073988876	-2.668046944557774	-3.306166878936056	-1.4001432621891603	-0.7883355001573188	0.4546598482573829	-1.714603777371176	-1.9437583635846083	0.4082476784412433	0.767356870621204	1.6288039643172307	0.2394638949547227	-0.23254319966732517	2.620227330268107	2.434418195300218	3.187059394419269	3.1110699098241366	3.521051159551973	3.8507826231054674	4.076319207390168	3.4654807956938614
116	-3.3447859202814234	-3.4547717484033944	-4.785335051852517	-2.428973191804444	-3.8606963060180597	-4.667557704585178	-3.130291692459932	-2.9269130156052503	-0.9802924369857539	-3.5866143612907386	-4.272409905137274	-2.584227555426136	-2.295450443194413	-1.4639264308208477	-2.6945481232323205	-3.4637074383069812	-1.1436442107890286	-0.8974286891213868	0.5465826974420328	-1.782144303590728	-2.1908385698318233	0.32599428213783527	0.41589978232283303	1.420675870169547	-0.0752812249547963	-0.6585394127431705	2.2148759309161545	1.8716840696763075	2.5864190989997047	2.5248317654759984	2.9780588074835657	3.531966915749999	3.798605909293719	3.0379328651021735
120	-3.087328664614302	-3.136420242020265	-4.94257878009321	-2.3253936708867577	-4.008616437327947	-4.933431136073336	-2.604424708466574	-2.7299220493057295	-1.2683975664539762	-3.763767709766199	-4.643144595821132	-2.4269835887668645	-2.2980782927666357	-1.2861731019925933	-2.9546840116288853	-3.9626879592029383	-1.2316957681076133	-1.0080728505432397	0.16656051534085056	-2.2197422925219104	-2.9391024038496214	-0.2481623285703803	-0.23546688199198246	0.8497641065123888	-0.9423052644780551	-1.7355389551213591	1.3259832825561446	0.9531694030538362	1.2701939312336814	1.207280751994939	1.957407231157265	2.732074015395267	3.0256309432887507	2.2267689648674507
124	-2.7525544097069625	-2.6581544808986686	-4.627366531133185	-2.1874136869516767	-4.018330087053178	-4.97263716395897	-2.1531727259632976	-2.2454185429148477	-1.486156221452284	-3.929847945781823	-4.959869849080316	-2.5295426781685726	-2.1056778377775465	-1.5945131738459453	-3.372150889465874	-4.554699886266602	-1.6854416089419957	-1.1568757266400216	-0.6326624735117812	-2.945616476251388	-3.9145512482038662	-1.2229528396247433	-1.1301883430556674	-0.020686814509257058	-2.231385940640096	-3.2193708338518503	-0.049710757904906984	-0.3904952397024183	-0.5923927411381716	-0.6517923457855653	0.4827647495002066	1.5211919507720915	1.8448995305212146	1.0683803531375597
128	-2.20439052025232	-2.059501642749477	-3.752293338838748	-1.9517227361993879	-3.7991206550047	-4.6480288388202755	-1.8568638516274822	-1.5987132747340838	-1.4577116929443876	-3.947243203687733	-4.977464186499273	-2.792020790680317	-1.7897673800103855	-2.2818479480352742	-3.775242319112228	-4.90819643688778	-2.338633769806577	-1.3532286848234774	-1.5748684366518912	-3.7435760403530667	-4.7284130930728905	-2.3405299127613843	-2.108180517596057	-1.010077354741975	-3.6519045737571223	-4.6945447803227065	-1.780422444616804	-2.1130416339930855	-2.6565782956762076	-2.687531226048498	-1.3127487864729204	0.08622767009422386	0.4526136506097323	-0.31789451757279025
132	-1.3600959743492909	-1.3888642752867897	-2.4098994671058964	-1.5319631061022578	-3.271118871059456	-3.915754546769554	-1.654059286709827	-0.9468880271846855	-1.0993436547180153	-3.659749260245495	-4.504878032754695	-2.964367859031804	-1.4351705276494309	-2.985225669953264	-3.9371340175407714	-4.733034121961371	-2.8959979937869407	-1.564176078661919	-2.282323593099381	-4.319156158986536	-5.010427939162629	-3.2788298047252904	-2.9815776272836416	-1.8858857107232154	-4.8326249000607575	-5.689641461312527	-3.62479900398608	-4.057532777078713	-4.482038963445902	-4.430560100813422	-3.1976549544663704	-1.3024028506775083	-0.8829669334053358	-1.747243876814219
136	-0.2559017830586678	-0.6775110942901204	-0.8498119690420226	-0.8613503553578006	-2.3874001442714663	-2.8238384652368262	-1.3657283748477658	-0.39136615296735505	-0.4493314612488174	-2.9447505399742773	-3.4710011394604416	-2.757708542536967	-1.0880520316309845	-3.2724409020772365	-3.648331632939727	-3.8840634724782284	-3.0586888712906144	-1.7252542929006214	-2.4580905375408664	-4.397253025397027	-4.5325889472965475	-3.782847871766366	-3.624346247105509	-2.4589590964223405	-5.441109166712959	-5.825480446412681	-5.303968416174197	-6.012296661456152	-5.659841046348703	-5.434895501720103	-4.89725588515759	-2.3657951295249884	-1.8939318609104203	-3.015723459259199
140	0.9375905966928699	0.0687958745411585	0.6078404172809633	0.056854396914943386	-1.1646738022962977	-1.4825020991089097	-0.7999793866940829	0.05517023042816385	0.35106313139972256	-1.76891362220476	-1.9484640310684551	-1.996845478738357	-0.7495377640873659	-2.872921459573963	-2.7945718694702633	-2.4060561596204826	-2.662249319984399	-1.773229117684892	-2.031226153013737	-3.82156275738029	-3.2771661198845203	-3.764382591280149	-4.030791272477039	-2.659963362653745	-5.293035017001362	-4.939563261912347	-6.592123968647014	-7.788569907551327	-5.936393722805016	-5.41845558705824	-6.174508079198463	-2.9032547400607336	-2.3936600624685522	-3.958708276290623
144	1.9646100948323169	0.8501483180516409	1.685439463174789	1.1193106146209117	0.290578275185321	-0.03065654813953863	0.1175377142442042	0.43268698344660234	1.1155476541964524	-0.22540755513024907	-0.1317699846278688	-0.7329630237193621	-0.4152507175451901	-1.8242459251122394	-1.4110267126697997	-0.5073865043227626	-1.7560192302237652	-1.6864937501289146	-1.1881414621873039	-2.6129465037178856	-1.425550099588393	-3.3183462536001307	-4.3106989751699984	-2.5608253414349282	-4.404839981402041	-3.133274070458384	-7.380522232495123	-9.277224517287708	-5.282376276030957	-4.354280460808257	-6.899736863835942	-2.85281728977914	-2.3302335680303	-4.494982708072646
148	2.584210627707063	1.6364362198521603	2.241422170702037	2.140691751797421	1.785628314278343	1.3891878092978138	1.2774155107671454	0.7641137223025183	1.689730401541336	1.4737895689947984	1.7217823223512208	0.757262108798241	-0.12297670512145184	-0.4498747873868957	0.31600907365169295	1.5217169484819475	-0.580298601115911	-1.5101593694706004	-0.27212062409361637	-0.9584034657122829	0.7219058853042855	-2.6536521844622816	-4.622381198656758	-2.328250640712919	-2.967735521453111	-0.7210755330000159	-7.68853090252436	-10.457495662989452	-3.87728904698874	-2.4676096377060417	-7.075311166066	-2.2965416850282057	-1.78577816035493	-4.634325015765274
152	2.674798720282305	2.3422472417823172	2.304735893152659	2.9196419642167473	3.086242906407815	2.644245617866158	2.426110499932399	1.0070019934979086	2.01262425868204	3.0558192652797933	3.365200511065453	2.092736715755166	0.035740457384949416	0.8130115846134502	2.105077738215463	3.406536570531402	0.5465050921947312	-1.34789383071097	0.3921067704791418	0.8619299509221332	2.8542938160357885	-1.982079262497562	-5.081162916706209	-2.134074682569743	-1.2613121239288354	1.8921377611072108	-7.623296241586767	-11.359749765325736	-2.0227134176684083	-0.13997870648328817	-6.806184274655636	-1.4112136328353435	-0.9253519154073938	-4.449171531888259
156	2.296296113892351	2.8388352322430306	2.0370731302328613	3.3236770545968035	3.9921133417427823	3.6213247684601835	3.2896366036329425	1.0695496770558113	2.133373731948954	4.2759594809339765	4.62421940589699	2.966461412569609	-0.038027778171849505	1.6305295187791218	3.6723244097498786	4.961450087418611	1.3727909291893705	-1.3225759234415175	0.6488677246877552	2.5734653407926635	4.7410478472219	-1.4214047157640202	-5.6951703881479325	-2.0732257313836504	0.4476730216167741	4.349820126041686	-7.310279827734724	-12.010724991038138	-0.030529454273392036	2.2344553414196997	-6.233856185432901	-0.39306175609532196	0.07562899570444089	-4.027862538658749
160	1.6783468680922935	3.005421154063652	1.6453772741737636	3.349539033062392	4.412106502837553	4.2450513732544435	3.714688053289161	0.8826010800966282	2.1772806589468643	5.00229834247295	5.431914792651701	3.2867135918605372	-0.37423533106732315	1.918048734590681	4.824899661280213	6.116550906950993	1.8151787473626098	-1.5206683835737063	0.5635668621139651	3.989533175886259	6.2724084695762885	-0.9637913679585064	-6.360206111108771	-2.1271684116063447	1.9789489457711513	6.438890917733842	-6.835141641525885	-12.396944014721234	1.8665956211646795	4.374885548036507	-5.470528111951183	0.6102508291095944	1.091182348357395	-3.4351358326967447
164	1.1310920686774701	2.7928655077039415	1.290466424544925	3.1217822949747025	4.397589672429868	4.497801292507669	3.7390034104360224	0.47475784897148715	2.278338664978339	5.253381239025305	5.824382290440112	3.20083784248934	-0.8812356568975609	1.8425853205890081	5.512283311278135	6.8948345010248335	1.9642585466383191	-1.9434882353351683	0.3573164930858997	5.042724119806187	7.441814880655803	-0.5204823003979446	-6.908349019728505	-2.190849298667856	3.2580108560321257	8.10531137327385	-6.226006968991537	-12.465895621297635	3.5481152444903565	6.1670379482969135	-4.568576801209593	1.528434272721885	2.0644643254609463	-2.7000763348119907
168	0.9106540656939835	2.2620210590472465	1.0289753649481685	2.826602928654529	4.112363328087739	4.425906646998268	3.5407314211142236	-0.004477919068057687	2.5071997579216383	5.170839773474426	5.9014134258047095	2.9819636269622323	-1.358590361026066	1.6835212665014705	5.816569790459837	7.359891872897552	1.9947091290657113	-2.4926497873315423	0.26519659094611986	5.761396870372084	8.2914380817883	-0.010814991752320187	-7.189040642707571	-2.1441311782108565	4.286602963115357	9.397225356218135	-5.481664166915744	-12.166806190290067	4.981630789577133	7.629819373894517	-3.538929453497923	2.353074067850563	2.984716884706746	-1.8359442902941907
172	1.0973533364247006	1.5676877459046399	0.8153315761961853	2.6147856646324317	3.7513101006210157	4.123736371119328	3.304587117434918	-0.344040273751438	2.8309240269712563	4.940731989784152	5.773183808055948	2.8521115707867812	-1.5849459131279129	1.6535702902053244	5.889067634972842	7.566488723724822	2.041157478901138	-3.004305355116274	0.4072885503022617	6.2147302470656625	8.857694603490962	0.5617034421090568	-7.140706997962659	-1.9214315365917227	5.095286356459369	10.380423519629352	-4.6211228253994365	-11.504027337593307	6.1751551472205115	8.830663658734991	-2.399175637863562	3.100812904158505	3.846721401039305	-0.8741223193987356
176	1.5519912203705393	0.8920042492280083	0.5537244663563441	2.5252425606867535	3.4474127205594254	3.698238840302737	3.093062393008639	-0.3906329562338241	3.1253189961681658	4.703290927456386	5.517939076797303	2.8500227856205465	-1.441646691497216	1.786913032788588	5.868214592422952	7.539698581733134	2.116469139477596	-3.3184578334948682	0.7394970636770778	6.462371809855955	9.14807126596584	1.0985693903843379	-6.814798814733984	-1.5443173607936616	5.7097439621773	11.078978510541452	-3.712805977030485	-10.56430527880865	7.140313130470977	9.80665681270395	-1.2140760391100456	3.7797367477355244	4.62231730247772	0.11422271252642327
180	1.9717856595801304	0.36384162214924404	0.16842569368277535	2.473806374979825	3.218689671973077	3.229211083842265	2.807024471825298	-0.15353363713601595	3.2349076189383563	4.499216545189642	5.167125212021402	2.822092764405052	-0.9945203040762969	1.9449095676908936	5.821949467265102	7.285212975228432	2.1138923114811723	-3.3466310416604323	1.1007516356333449	6.536044104286649	9.152940727013116	1.4540266953950975	-6.343743308263373	-1.1022983761613612	6.146548255660656	11.467137307779218	-2.8717539237950507	-9.503870940055325	7.884503821493688	10.533390972246076	-0.10268273923698208	4.3765993007787625	5.258911119535026	1.0227574084208986
184	2.0275292345355216	0.00694136738887279	-0.3441813281429428	2.3134169520144083	2.9827120228801425	2.7464694907464953	2.2632393779833797	0.17626114145123126	3.0506937426792082	4.277125824619996	4.72025345564232	2.538610690383227	-0.4800292837421136	1.9309176157837762	5.7392396781978015	6.817306024505486	1.8894773673990228	-3.1098387162847647	1.3227944340687123	6.454844458495565	8.87755010270841	1.5165115556575655	-5.874312385986658	-0.6965923291738906	6.431243403409888	11.509077996760242	-2.2179722729951292	-8.496181466586313	8.428444841085945	10.954192133903382	0.7983306030144688	4.867988097298134	5.704466328523632	1.7428809360369655
188	1.5293098649514247	-0.2499094450124643	-0.9112224555851266	1.9326252888522797	2.6296687059766914	2.2406954708747704	1.3458559479112444	0.3138253680888927	2.5677776271839767	3.9539861579248594	4.1788377656335305	1.8655193997013322	-0.19534906695636073	1.6322450596607156	5.569167599922357	6.184401496531883	1.3738188708905716	-2.729030840659298	1.3298720087807627	6.255332930984146	8.37046621116641	1.2770190206711005	-5.5068731168948215	-0.3826590468759045	6.617196066362034	11.214240999518795	-1.819605345900323	-7.668980579087393	8.827031113272971	11.042599650159667	1.3940104210944146	5.242460237618553	5.939555629993078	2.2059540692901205
192	0.5331199751745398	-0.5088796006706163	-1.425108190753144	1.3344626393004835	2.110166067517802	1.6993906455049832	0.13211898472330877	0.034766640426358034	1.892962450970241	3.4907827289185542	3.5759422688799387	0.8809946157146977	-0.34616067918164656	1.0977917881905614	5.281280027407017	5.472504125129788	0.6408945901902158	-2.3716881215297634	1.171720382593143	6.0110993233549275	7.726175288720822	0.8440644123701324	-5.26623915296379	-0.14507451616852735	6.7857279606203695	10.667857143171231	-1.6541734892089284	-7.061040860468484	9.169627166485148	10.852230044622237	1.6802363353269028	5.515561089895348	5.995434745910345	2.414758676154297
196	-0.6691433174405194	-0.8278530815204066	-1.80339753172463	0.6482682807767626	1.4839255772318416	1.1448024482433796	-1.0939440699614453	-0.6903180462574502	1.2000147073965848	2.9360139295837375	2.9815013333385214	-0.13794928754309946	-0.9363462305270358	0.5197509514083971	4.9065618391135875	4.781885611858784	-0.10951336445577081	-2.173817390675579	0.9863192414177118	5.8207344861890675	7.057330113712716	0.3964724828723705	-5.104935156331249	0.08425320663637931	7.020994645512218	10.014838193403929	-1.611534472211479	-6.616937143785783	9.552567457876714	10.519428226614824	1.7539851621212958	5.72741411670422	5.9475416986985	2.4471635756696504
200	-1.680167193939138	-1.181979295607403	-2.030339712738875	0.06680819375336837	0.9001590586823645	0.646482764042379	-1.962259049229732	-1.6645059543546554	0.6541585309678848	2.411122792832178	2.4794928964956195	-0.8547320940372298	-1.7641671851439895	0.1314422782917211	4.534051883694221	4.191291798500036	-0.6438900216058403	-2.1821329538564886	0.9173554158891615	5.767643913965931	6.454078658021424	0.104071162378294	-4.936342226916817	0.37918451332678504	7.372319679720422	9.406036353205167	-1.5377545317925918	-6.219892009290179	10.037200902392879	10.214506123502844	1.7779508784227878	5.926675304708214	5.889132961663351	2.430626147809182
204	-2.1872279588790255	-1.4840958080968905	-2.1553692763270145	-0.2539184087064518	0.5230780826713591	0.3000734142833573	-2.199637407471352	-2.5623998577273395	0.34472876700150024	2.0501482434963587	2.1336033290400493	-1.0488041612848242	-2.5300357277889094	0.08036638776038936	4.269206036279396	3.733515491596118	-0.8026743510961533	-2.3424560964570826	1.0388908360000997	5.87946365779372	5.9568667261407775	0.06371887757187905	-4.677082526796238	0.7746759037486296	7.829884509345211	8.939889885265861	-1.2950659957613395	-5.742704853817714	10.620645496256737	10.070187543239772	1.9180164288732944	6.155707820609455	5.902025684714296	2.500580542926753
208	-2.1167352146112015	-1.6473628240955085	-2.251039260902976	-0.2746362381200104	0.446445732181625	0.18353483034525864	-1.7679866507715534	-3.105748645570604	0.25940066510511656	1.9299551199823732	1.963085527232101	-0.7196668964335956	-2.997703067840463	0.35604283123723246	4.178561676919628	3.3974914465002835	-0.559401689547577	-2.5368816788519473	1.3285595145061222	6.111471160717479	5.558287606511106	0.28359296846315	-4.281081188837305	1.2489802805838106	8.328343370391412	8.632531144281614	-0.8079362491236397	-5.094850050460715	11.236561746837928	10.126539204779625	2.2814643325424684	6.441380961367692	6.0351767387604465	2.7565786768934575
212	-1.6694955783654952	-1.649196620592038	-2.3610598981374076	-0.08973765350573401	0.6422939284320747	0.3110741369022964	-0.8859226085229955	-3.2140448012267475	0.30812954824853694	2.0282213636689064	1.9378610800454203	-0.07079880666739201	-3.1147916238345155	0.8024758080249077	4.251610745186125	3.1497518936742277	-0.01417997010197396	-2.652501337983864	1.6930757718255534	6.364647372389062	5.2267913686395575	0.7063667160319946	-3.7534837628011966	1.7388772920575108	8.775706269042201	8.427564599694124	-0.08399406799329197	-4.252479065649021	11.78395649795833	10.318039868053457	2.879036896112478	6.790032846473759	6.293461783732118	3.2289929308429377
216	-1.2122977941423063	-1.5541057547432524	-2.4726240572490457	0.12729655174064172	0.9742215847214183	0.6126092060834679	0.08011310527363641	-3.03805422015863	0.37855771088390955	2.234864229281827	1.994657034606309	0.6097473486764478	-3.0207581443813756	1.1924262016708098	4.405053604448377	2.9599497243536277	0.66255819630236	-2.636658185023986	2.0195774981054027	6.532288058000966	4.935519682820993	1.243676301677219	-3.1436283509040437	2.1746923868586725	9.093210197378765	8.23719404048238	0.7909377197323528	-3.2651805795247664	12.169964759618031	10.507885906392502	3.623948326497993	7.186318379378263	6.636905176572283	3.8667075536377706
220	-1.077567574641464	-1.477705355728076	-2.525558226884687	0.21896116380245423	1.2671240536169204	0.9556863283824121	0.7934506515497387	-2.8580038475358207	0.3928136219597485	2.41022467004697	2.0658354707058977	1.0996003123177702	-2.9421203062162693	1.3248048987319103	4.528043258678874	2.816532843154441	1.304180857226669	-2.5086967881760374	2.2221102658435683	6.551967127470324	4.680688369377466	1.8045330002047344	-2.5292127068559287	2.511830561971836	9.246302581330623	7.992404440728101	1.6816860394934698	-2.241937154831596	12.343927352257431	10.551328632418073	4.364319790311718	7.588868122014266	6.986770135405755	4.548210132559842
224	-1.3815491164612645	-1.5172930917578873	-2.457832807057508	0.12071829258719483	1.3872407639764965	1.1939762800589249	1.0848574610976682	-2.9039018080827814	0.3343225709103722	2.4507327017897897	2.098186010785353	1.3232001032800293	-3.0375935954649687	1.0984165640755197	4.537904251085617	2.718946211625921	1.7888115599291805	-2.3286590517378887	2.26403068924542	6.431619627926761	4.4759740716460295	2.3001158179384933	-1.992709989284992	2.7416951587120404	9.250239348898809	7.673506240544472	2.4396991668139845	-1.3226891722663048	12.306184737606628	10.355052921854051	4.932529437009451	7.926587561621812	7.238085728490727	5.112702356781609
228	-1.963614697267081	-1.694270010485258	-2.26079534913518	-0.12088584124323543	1.2908297744585584	1.2184520929091167	0.9807442401920107	-3.2063479342570447	0.23646037220859034	2.3262023867050283	2.0535874314912155	1.32490980290645	-3.288925401013278	0.5400809035970591	4.413942325892	2.6541833810551787	2.035790199861955	-2.1454172080232836	2.156044239322747	6.234354480261965	4.3297767529843805	2.635856383344492	-1.5965843160373714	2.881346456882404	9.150020576263653	7.309981327674443	2.9371302053682724	-0.6414934380547622	12.093455284103191	9.909151052252307	5.196608053438664	8.106946924722356	7.284185391155098	5.407036767659579
232	-2.4800779756872577	-1.9423960398270617	-1.9994282671992434	-0.3884876360621623	1.0278128359594043	0.9965367292039573	0.6345666034889683	-3.575107088599455	0.14807307682799467	2.0802807755400323	1.90609132762319	1.184642550338533	-3.509366741856864	-0.20985071308082698	4.200020302658907	2.5849268371168757	1.9973442504045782	-1.959841484843746	1.9461582849957855	6.04015301133089	4.230942715453151	2.7267439296543294	-1.365092393289618	2.957336656733272	8.995331741510162	6.9619769874275805	3.103676311286285	-0.28596135901732056	11.759591072909984	9.288474059495634	5.103471266259261	8.046319941232847	7.056006890602043	5.33917330347545
236	-2.603336089237145	-2.149581903752515	-1.7870762303055712	-0.5668548927300533	0.7011943441807348	0.5790317639990533	0.21154552644725264	-3.7195119763879436	0.09849639957117141	1.79603707336919	1.6419280725986096	0.9406306123826739	-3.464959612681261	-0.9438759660732106	3.974555482366335	2.4598529276731353	1.665055509178097	-1.727604384828892	1.7091505484344434	5.904686912887509	4.152410019881163	2.5375091965505585	-1.2790963617455677	2.994901887961671	8.823206879273837	6.694860441471126	2.957559578104169	-0.26353844933729964	11.362535447996926	8.626252152598248	4.70161865954679	7.712822894650529	6.561763746860874	4.919488894439836
240	-2.2119257394258005	-2.225200409039502	-1.727788563180783	-0.6035839900036543	0.4116184105017485	0.07684608529477852	-0.19437161038915693	-3.4404375466268404	0.08448699095375933	1.551494713680814	1.2700532642723665	0.5799489006658968	-3.0367917937854743	-1.447170849961052	3.8088338278927742	2.245492691092761	1.0969864102323896	-1.4016908371822012	1.535138960777162	5.839779839076774	4.073049058167467	2.128604406704648	-1.285062071416785	3.017523519526871	8.657269455986734	6.560492499000314	2.6164123945935347	-0.4896260189569131	10.963089915252988	8.073511103273571	4.133917321258418	7.161296349564728	5.906160816539793	4.270054329581698
244	-1.4653947316365377	-2.1484489386674848	-1.8567703915447105	-0.5217956887422543	0.22487434688059585	-0.3754561533985304	-0.5629174099061323	-2.7770824362258457	0.08440741875318508	1.396688219358833	0.8418601134026142	0.10253387663703138	-2.323563093041038	-1.5592973192900814	3.7436928654565316	1.9638565729149688	0.4478310931343193	-0.9864474510082999	1.511551733969038	5.8293504567788865	4.00534724177956	1.67658674293652	-1.31499099399442	3.054590932763363	8.522969224392217	6.591512663411741	2.278467649429307	-0.8060333112393451	10.631319019179008	7.759946326690978	3.601007452456182	6.538826925934897	5.273256765403348	3.5939392952779823
248	-0.7185240369775577	-1.9705665061789726	-2.1155517047875296	-0.38694718382415394	0.16986472861795437	-0.6577603204332785	-0.8884345270614228	-2.0093481489948766	0.08598627873407358	1.3556137050734982	0.45919716242248676	-0.4011733521823251	-1.6119121272398225	-1.2281038730132274	3.7901222610149676	1.704990025030336	-0.044083330668968	-0.5575407729377428	1.6932661490604852	5.8628101200855225	4.00323866787131	1.4304512703066097	-1.305410024208124	3.142769090347131	8.460518815614341	6.79941271018909	2.1638300364222305	-1.030508396407921	10.444096538877773	7.761254767849784	3.2994227326060375	6.04481218719193	4.867343890299028	3.1077632825589254
252	-0.31796616235562936	-1.774752373982926	-2.3753077923885444	-0.2565387778957741	0.25392445857788126	-0.6941833478567305	-1.118778702772279	-1.511987920758403	0.10564840558319705	1.4403914176814154	0.2535276704586133	-0.7334429007132371	-1.2288836209742104	-0.53815483911065	3.945415725283534	1.5979542691894302	-0.13386847045001662	-0.23265157581241439	2.070625299947955	5.959839805814667	4.138754357379019	1.6077138144910226	-1.2111339538513604	3.3138339435834467	8.520847299043568	7.168653946897226	2.4291715560617555	-1.0232106421386262	10.465324375433065	8.076772669427445	3.3517854129090154	5.8553771824822185	4.8311743614291665	2.961274139557193
256	-0.40457463162320056	-1.6220644671494928	-2.496087067977771	-0.14419656955552485	0.48039182899304456	-0.47028043747423137	-1.148136374435829	-1.5352317056041982	0.18257148517766977	1.6624803501117227	0.3350063553935091	-0.66997510025626	-1.3505874838108585	0.3108828954000174	4.207899559841163	1.747376914381022	0.3128713361470265	-0.10316345069588193	2.559029095864512	6.165424331357628	4.454673755842873	2.274901861169267	-1.0110954020721685	3.573675623454143	8.741233803614099	7.645539741286467	3.090239040202047	-0.7416269164434595	10.712721797598974	8.621414162803335	3.7568657303372137	6.043574794769516	5.1787185538195235	3.17945717962523
260	-0.8361052253594352	-1.5171122512660953	-2.39157556883673	-0.01826143446424454	0.8508264400935385	-0.03418758502911738	-0.8724570252325605	-2.042221064179825	0.3557050815184654	2.026560539851078	0.7342155557215098	-0.09449484920485911	-1.880949730892538	1.0795074674054261	4.573242175953673	2.169038051850976	1.2270742623819768	-0.1670771385981369	3.0260112209214576	6.512665732153291	4.921054827663421	3.2829177296722447	-0.7065927368444123	3.887089242657967	9.111957527043346	8.13277147147112	3.9960706133087185	-0.25663387710627317	11.12943265012354	9.238570189992723	4.383398998637571	6.5364723040536346	5.7773952338265655	3.6527767089172736
264	-1.2721027103731493	-1.415118333104721	-2.068496937297689	0.1664327080816136	1.346917506632014	0.5148696886414852	-0.2718388729384745	-2.7087070873536767	0.6344896538927576	2.5077478822336086	1.365815874466075	0.8953576065346054	-2.482014411381831	1.5869309862125007	5.012228953104616	2.759045832343771	2.3315398634218996	-0.31252372185957406	3.3471283828151823	6.974417192016533	5.421954141279143	4.30759524211509	-0.3200971774125812	4.180656422550326	9.552831625661693	8.498701074123897	4.87767885883983	0.27977618504459434	11.57994362768484	9.734314893941283	5.014983164523443	7.134360295402999	6.392770274234563	4.182234753539993
268	-1.378234621382963	-1.261917111071778	-1.6190421540391426	0.42814543735173016	1.9104427050993864	1.0496674749575714	0.5426625595696976	-3.089170209714633	0.9797741746007403	3.032868139239106	2.0407061525320382	1.990402216654405	-2.7457125117597587	1.7844235852011845	5.450278268404897	3.319089642727892	3.246291390805977	-0.3732345988863933	3.4630339058227197	7.438995819383624	5.786078915292678	4.986804949567731	0.100336663171643	4.36616276592352	9.919470762004083	8.606222130981338	5.457183347275404	0.7021006924069011	11.879860847996957	9.926980947226822	5.430804715750206	7.585186462325075	6.777282220895599	4.559781539848743
272	-1.0267636750047169	-1.037392613652808	-1.1726974219278345	0.736573992300028	2.4395527778067856	1.448408242383465	1.360388633154399	-2.8663742469897855	1.312531467938618	3.4834298999576263	2.531480544374617	2.800674669824118	-2.4191763339953165	1.7605950787916191	5.768074021081544	3.632534733184078	3.6627392676384587	-0.22412124219576018	3.403143158903617	7.732028464822987	5.851920113093974	5.091251837273998	0.4808396982927561	4.374475944918645	10.04365537015002	8.355138757591826	5.568117127665489	0.9027198530293842	11.852920502300815	9.698266958546457	5.487382874939636	7.682697276745632	6.763006670089356	4.645499694539551
276	-0.3713583638828906	-0.7752020935513783	-0.8359460809582867	1.022859689991075	2.810845367964333	1.6276954371364967	1.9674470374978836	-2.038465494731299	1.5457546671941464	3.727656593448069	2.6623935632243914	3.0477490348161598	-1.5568712910445586	1.6713134008172656	5.835514053870259	3.5543227106001725	3.494735708950078	0.13516521419731486	3.258100262999063	7.682603339825703	5.535701737732681	4.637968051644749	0.7327288370706307	4.1820521249088625	9.794385885305733	7.719996432840426	5.2274541722877865	0.8736758806104952	11.393403978192428	9.02787397012673	5.166283117602141	7.34322307640033	6.317175849224004	4.409363735510493
280	0.24456924138310185	-0.5463672266517138	-0.6521377547011666	1.211706873695495	2.920622579830116	1.5640296896547203	2.2509150448235777	-0.93532222273238	1.6193225342874582	3.6704869177653823	2.381125682541092	2.707178109009759	-0.5110375868292609	1.6291017491217767	5.567707047710469	3.070827714796344	2.9173719809308527	0.5631946311082826	3.115738622428316	7.203951817444095	4.868634211645869	3.878983964663294	0.7815753797825407	3.8163843058552787	9.133666015452894	6.765501005257619	4.61969851281148	0.6992261392105759	10.506856891807697	7.998764017890999	4.568402755647289	6.625790579279788	5.53828571828646	3.9241599937545577
284	0.49145001048940207	-0.42087131632402924	-0.5976575001886002	1.2552421061295245	2.7260949542836537	1.2943841186268308	2.243055814801916	-0.043167628238885904	1.5226482114495672	3.2962257778869364	1.7742568209675147	2.009790653876572	0.2501319342496879	1.6143465001355928	4.972749220690865	2.298466438212433	2.260447496429149	0.8534178712278954	2.999372951564274	6.34437940903081	3.982825269180173	3.161129466658808	0.6107921584920777	3.339912406118313	8.138987520649762	5.628647313212127	3.9960849184234286	0.5068979846554168	9.310603118277655	6.769814951016991	3.8601274392897595	5.6928944443975755	4.60218714505784	3.3195469295614544
288	0.25334310467653226	-0.4296928931354819	-0.6094051584116562	1.1516028613579241	2.26771091842314	0.9001196600122674	2.0860679096959536	0.2535299056327867	1.2968422141711617	2.6835491589503975	1.024711248671703	1.3112961020741223	0.38765662810680185	1.4811506233966847	4.1665019883819605	1.430690523350134	1.8285481883612649	0.857285497408316	2.8526990341642042	5.283113466275679	3.060539714715507	2.7468671729354326	0.2932121150243285	2.825115673561849	6.985190850741774	4.480937946450391	3.5534822851109613	0.40816065566009097	7.999049643348042	5.531815991740294	3.2052202143807413	4.7399477839007025	3.6926774885406553	2.7275879314222182
292	-0.29592782184272837	-0.5487890229674682	-0.6272091253657595	0.9438633298885502	1.66466891345306	0.47878190754172595	1.9364323567137616	-0.11986128955619739	1.014644143403846	1.9858881184983825	0.3324398390006054	0.8996815062696297	-0.12244717000802362	1.061219927969481	3.3418323909309704	0.6608489735130963	1.742971296678217	0.5854745492458484	2.585829966692232	4.2690777670841635	2.271939510331409	2.6915440491432254	-0.01597320098122363	2.337396854221321	5.891374573138404	3.485848179599348	3.3549165641004506	0.45640641335650417	6.7880906887333	4.462651718316628	2.7145121029029853	3.9285850425715108	2.948772422974987	2.246428960850529
296	-0.7878024558204383	-0.7144934516987325	-0.6293320639933647	0.6996916514850964	1.0773069831351638	0.11058422150110182	1.8646112633358272	-0.8866319037940319	0.7486212234669688	1.3777284587408083	-0.16717566507570186	0.8458042123420887	-0.9657541489060045	0.3023433677669298	2.69632314954925	0.11284898193001139	1.8887968015666956	0.22686384561004702	2.1528356020932993	3.5229115397200053	1.7237034992567706	2.8349246907184797	-0.13328373398508517	1.9291598748137877	5.048362242350546	2.761932842910823	3.324609748075894	0.6370922907003039	5.855126366137637	3.6912059690741557	2.4277050433854046	3.3480317508091173	2.443278068095842	1.9288539837775727
300	-0.8668007232715911	-0.8578892924583663	-0.6396487935129107	0.4856126892227068	0.6500704272069966	-0.16562731522228075	1.8206592752265804	-1.577213402580724	0.5453487024843634	0.9901441906725811	-0.4463894355947768	0.9916881893869446	-1.6569770532735053	-0.6463888867270947	2.3537635743795837	-0.18780134570867035	2.006443972290173	0.053006145969316035	1.609460111369243	3.1520683685829303	1.4399023019676236	2.9183251784076942	0.06268820895818639	1.6403273302625634	4.558285701687236	2.3635718762804796	3.319458476268831	0.8864437915355957	5.2945523128349326	3.2764975941904075	2.32385825524122	3.0112025661736896	2.18661546155086	1.7852272942293066
304	-0.3934897770483734	-0.9356505251149739	-0.7060541492755816	0.3504718235227212	0.46396449091119807	-0.3563205590788622	1.68644201329738	-1.7899968578921914	0.416407405278781	0.8692681171404836	-0.5719206318720792	1.078769204277102	-1.7991927816742108	-1.4678322039738285	2.323136562204102	-0.2955820552992593	1.869435305643899	0.26596295766438455	1.110826489505003	3.1233515660583873	1.3778693641207016	2.753363125525233	0.5592181072421322	1.5006391964218215	4.412425506895585	2.2817010821909185	3.2284517206697436	1.1249822349755498	5.102118479244854	3.204187385098681	2.347027534281234	2.8766543792575314	2.142542356803735	1.791659350640069
308	0.4702003288318555	-0.943143186572192	-0.8664911367474093	0.3159875861773057	0.5107694255330936	-0.5026021587080107	1.3721524442361486	-1.409015413541577	0.3439889541524159	0.9677484011058645	-0.6543196423223059	0.9245911217234016	-1.2961544957814795	-1.830626959947203	2.507651561127895	-0.3024565569870725	1.4321339094243706	0.8724314548400164	0.8347609618092098	3.2975616371822696	1.45897936452627	2.3357765615618375	1.1957927912085136	1.5200124940642539	4.5084457283633625	2.4544920859355717	3.036036483728788	1.285571214291171	5.1844320166346884	3.39378165341883	2.4273486076105475	2.8727188037822384	2.2399666252802968	1.8937599611153222
312	1.3394225801983002	-0.908435044379243	-1.118330595053989	0.3737463345628204	0.6986696702483578	-0.6580817086770959	0.8991273022839074	-0.6632820351066849	0.2994002096246413	1.1693860262910534	-0.7884084562423397	0.5416077361737707	-0.40756264226056926	-1.581197973073899	2.7551577021655995	-0.29502618238348743	0.8621297456909158	1.6560677248151079	0.8759335257349526	3.503130188680471	1.5977808196735719	1.841351742863851	1.7278631881958533	1.6719512897240412	4.696106422011879	2.783329718238271	2.8164939809261456	1.3279865946619878	5.389343248111967	3.716283311997902	2.492729419136761	2.9140467570165183	2.3816530644367333	2.010751719166504
316	1.7992503597609184	-0.8748692252005303	-1.4066009485971116	0.4878900038798905	0.8898310042803397	-0.8651205279442596	0.40871164099500357	0.009275110415048669	0.26351475649106126	1.336843129597513	-1.0152243350146248	0.12382347105473494	0.3908967365886116	-0.8495249726781536	2.9239647314635238	-0.3312110594493407	0.4365011740631169	2.2751476707236997	1.1812841862417873	3.609215488858188	1.7188115076538264	1.509264465336202	1.9445786427039362	1.8874604654342053	4.830947863779592	3.1499986569029748	2.6689741544095593	1.2423146931754077	5.549460397060737	4.021838178017221	2.478080981673745	2.914217703137303	2.4605538782939242	2.0529439397478453
320	1.6073758561559994	-0.8815805889760052	-1.6418044525656577	0.6030244812045603	0.9567261314078935	-1.1358071536951677	0.08999969042466624	0.21205794757709295	0.2359633588793856	1.3638207878011903	-1.3164446320675323	-0.08654527344310765	0.6625552756747735	0.002374050201442184	2.934766523581027	-0.4361067105249893	0.3678022017729573	2.4316525397896225	1.5696229895063212	3.5678925424140564	1.766568298648059	1.4891667328429987	1.7769639447170886	2.0721330590383866	4.819530474892402	3.440949431314879	2.6434290342347966	1.0492624017927006	5.531939969401114	4.179205407081577	2.3416709840780836	2.8037450242780357	2.391289228123952	1.9554678152304599
324	0.8037173131677998	-0.9507618522481471	-1.7392775968508116	0.6605149490846184	0.8365380146840566	-1.4428982698250497	0.07072001677777846	-0.18955251526658887	0.2307182842628445	1.2129993408095414	-1.6346968371127164	0.037319827730607505	0.2434798472932925	0.5710872397309339	2.78729295026867	-0.6072373374866485	0.6692706925660827	2.028420204763375	1.8306677295241265	3.410264006587665	1.7150348381611031	1.748072262165216	1.3375403847303349	2.146609062497203	4.64189909716705	3.5784130006089305	2.7089602878840435	0.8019081333895002	5.282934652341804	4.120205391971749	2.0902831501638266	2.557900422313895	2.1510965769817227	1.71767472787154
328	-0.33055230891694626	-1.0854800912154199	-1.6640073018977235	0.6154104455669045	0.5540838823634323	-1.7307897762469362	0.32920521414610115	-0.9974358056634793	0.2581640475430837	0.9213366485222373	-1.9076619100090562	0.40888699785949	-0.6736050827185611	0.6304350479421486	2.537918322831264	-0.8234008529855048	1.1374086112869497	1.2192686765404779	1.8431628895954235	3.2048761763719664	1.5738782842953822	2.0939013905111366	0.8577627517978277	2.088444227667859	4.344115723132504	3.544039717309484	2.7860889364472468	0.5831519946633944	4.846550452393763	3.8665056131017814	1.7966307356296538	2.2187831345806064	1.8052270366867467	1.4231414758991008
332	-1.42692350980984	-1.2730543581292304	-1.4558327161272322	0.45224442963860334	0.2068191165470763	-1.9376535366728365	0.693056462445452	-1.795880193944537	0.30462792438843544	0.5779765829752587	-2.0931711144051923	0.7684574107795581	-1.6482728678096414	0.2508691244944087	2.2618629875297014	-1.0480763885739544	1.4687684737315965	0.3303030124908026	1.6438082415086577	3.013305894873213	1.3909857237982792	2.2992303313379456	0.5627567157842235	1.951686973412613	4.013119210601491	3.386500111612873	2.8170435357495873	0.4905931937229191	4.351546276550023	3.52535318438242	1.5894113738939213	1.8955372524087475	1.4950443468494603	1.2192693917962134
336	-2.199464315583361	-1.4902459345385772	-1.220613476532505	0.19258297931209167	-0.08277928063235296	-2.021049732827638	0.9290413833050307	-2.1894097272908755	0.3234910360752009	0.2845831208196589	-2.17738627837714	0.837809977800352	-2.234469408115831	-0.2540287369036525	2.0205028006085595	-1.2323535649656938	1.4413759672013295	-0.3028902999860079	1.4017049038783327	2.8652739452500096	1.241831537926078	2.246386999180713	0.5544505701371647	1.846857185469275	3.7427003289142373	3.203375093001733	2.821569674043824	0.6071758254933955	3.964343776230618	3.2485215581892626	1.6082501370833575	1.730656023424398	1.38308488973467	1.2563399044742258
340	-2.5413050587388506	-1.7077383951939902	-1.0867068740110897	-0.11200586678121155	-0.2267983997102489	-1.9778433988226485	0.8697823264096626	-2.022431368490043	0.24778751966381773	0.1138743233785907	-2.169853681808023	0.4925200330697084	-2.217785352829585	-0.5290269838327923	1.8474179459659061	-1.3250153031274363	1.050992486207583	-0.4924729155981324	1.3099415269203767	2.7612132956409114	1.2015478580656265	2.0038797804784094	0.7689208368915167	1.8827725601344567	3.600313177555591	3.0978603284823656	2.8959894107181148	0.9652307009169085	3.819319238556609	3.164444676992845	1.935519690395265	1.8346099807196175	1.5724272688266336	1.6091272790336577
344	-2.5150346692482923	-1.8957239341557128	-1.1429684133282714	-0.39779567618072104	-0.21296501105899474	-1.8472114754769253	0.5104359971510618	-1.4563393556065438	0.025209585141072414	0.08349119850775281	-2.093399996240552	-0.14918863735679438	-1.7176753239179865	-0.39780935544666246	1.7510715678827413	-1.291278120595427	0.5200885521155525	-0.27011388472070746	1.4660733901202367	2.690906756282896	1.3086992469171044	1.7854907467585488	1.0327395174655203	2.1019329971650533	3.60473250432666	3.1283371369533928	3.1489562908777744	1.521357770893438	3.9568617244001434	3.314688197350211	2.5392827923560173	2.220939392204557	2.043444151487528	2.2243802491294633
348	-2.2640840950070036	-2.0281391092593237	-1.3898785079197271	-0.6085556730164621	-0.10464801612897381	-1.6919625954825386	0.01818668651459462	-0.8679864384671142	-0.33908197198134843	0.1556397970561592	-1.9755772302340098	-0.7782234529874147	-1.1036218376906124	0.03135056413245441	1.7241715149263654	-1.132814762116419	0.17311489538354458	0.1582920100268724	1.8127392484674019	2.6485896043664208	1.5379878243716538	1.8159402563023377	1.1833770245238568	2.4472393927776133	3.720072498465996	3.2754237569128453	3.6117842106229427	2.1601121371091074	4.298725594157747	3.6266837028491192	3.2622587598452535	2.778982393877909	2.6457400255161936	2.9267232344167646
352	-1.9119749020941141	-2.0888905472468102	-1.7339136556717274	-0.7130202036975387	-0.007221846357380995	-1.572898979984195	-0.3601245871034681	-0.628065226876507	-0.759718296993944	0.25504699285010207	-1.8489285660792796	-1.0686049434385065	-0.7756812552895179	0.44094931967986184	1.745082970027988	-0.900992272009576	0.2425380343035744	0.5418347702651469	2.173325294729556	2.6290783815763263	1.7963169767803484	2.178134197457893	1.1746612757589359	2.781356089245451	3.8651766679452244	3.4429428490497145	4.179327954230926	2.728069298532209	4.673893916727384	3.9379801650758663	3.8697893521834565	3.305189362764208	3.1545429150091775	3.4842383773573187
356	-1.5155130586508092	-2.077583546161466	-2.033332581154781	-0.7135887127979711	-0.018519682762952797	-1.5293544492256042	-0.4408417630986362	-0.8907750226419089	-1.088288066023699	0.29655876680840526	-1.7555664733431944	-0.8728809930697774	-0.9391185021531847	0.5155910836553804	1.7721503928264706	-0.690950987978722	0.7207651120108094	0.7154247146663519	2.361589425800255	2.6107156210788647	1.9518817613912471	2.7400503089389714	1.0991083355810363	2.952748291190047	3.9383013149011052	3.498354426134545	4.6303691747108084	3.087095252825951	4.888725268418874	4.066901196702276	4.142855156929212	3.586536636834148	3.3691468153767787	3.706320753276717
360	-1.0909162732237896	-2.0090980479060305	-2.171649212122704	-0.6413967593211806	-0.1828974480779622	-1.569700594753623	-0.21076919085217444	-1.5131919345798261	-1.1703504294410843	0.21793511454871997	-1.7426730350365138	-0.3162379554870526	-1.4979215822547938	0.15556660255255986	1.7488659576130414	-0.6084600075618392	1.351088282034997	0.6640189273281826	2.297872299114812	2.5512039596995764	1.8926066112418303	3.2121128954851654	1.1135145397682968	2.8770394252618083	3.8580148122656746	3.3410046016264197	4.730018603780508	3.1654453197668078	4.815658557177568	3.9023754498184697	3.9765908617709864	3.5004339129762188	3.2076091685373074	3.527691593800344
364	-0.676522610863661	-1.9103710603165471	-2.118924373998985	-0.5443626628483337	-0.4755212354575206	-1.6779289203241836	0.16004684527043533	-2.1439902728309637	-0.9238120890181541	0.0019329617449639939	-1.8491228772207569	0.2618865960184874	-2.1239552444239056	-0.44457065946869245	1.6219677884159114	-0.7248420697031528	1.7612700417873515	0.4949974405188978	2.05634688811877	2.403232329976733	1.5841152628004203	3.303556910757221	1.3193218674728655	2.5855114394713565	3.600864401309082	2.9613730832672704	4.358780373058858	2.9818129464206207	4.454953182416875	3.4651639374030356	3.4323718461161987	3.07656001267921	2.7459409167579616	3.0340816898036693
368	-0.37164616490946195	-1.813296790313223	-1.9510033081387654	-0.4734545636144413	-0.8218650797120995	-1.8317115260607977	0.4040644158652114	-2.4269208846807193	-0.3971737315163825	-0.32019802847128653	-2.08924650618451	0.485508649315514	-2.4534990725561205	-0.9039593912190037	1.3676876987258755	-1.0429655287159474	1.6634566741906784	0.35031393081910983	1.8135662033069277	2.14359831268791	1.0943990918185118	2.8866412566737236	1.679354544214322	2.211338037629799	3.2168817438923143	2.4572579798647456	3.5928676037676266	2.63102602294409	3.9367184539584463	2.906269542985861	2.7143561771526468	2.486104482095992	2.180712694384366	2.4178492961873874
372	-0.31095001022986507	-1.743516321548667	-1.8087903215517127	-0.46680033089083944	-1.130999323850434	-2.0109925219307887	0.30587169450782326	-2.202160829706192	0.22816753329844408	-0.6757524592504626	-2.434801810793024	0.1517087813361799	-2.296675914687901	-0.8891776777706061	1.0201030943864624	-1.4856585226696661	1.0186867688208854	0.3183389298031135	1.7337571338749422	1.8058859064284303	0.5756182060013851	2.081594461907565	2.0263264128069913	1.9208009194515914	2.8179831433674543	1.9994221875254916	2.6910254887349887	2.2431654873480262	3.4628877552340995	2.4435999331768166	2.083579534992153	1.962295169644375	1.7372332767494667	1.8909296941699532
376	-0.5808593616125421	-1.7091125206711728	-1.8147492362934428	-0.5341538773402034	-1.323616501327379	-2.1905770246512093	-0.1667875941357103	-1.5901430805113366	0.7053759080243949	-0.9669327711488174	-2.8073713708570147	-0.6461071951765974	-1.739692922014558	-0.3332280508211251	0.6781490428015406	-1.9163674067751018	0.07403542082691063	0.39870327610442446	1.8619782877641666	1.4888544045051642	0.20621934481053822	1.2128227918521624	2.166813844932153	1.8262336208011907	2.537371867449343	1.758410449356827	1.986861343135818	1.9368213366245837	3.2144417681599493	2.263927692419508	1.7486613944726888	1.6911016659955764	1.569284554334141	1.598680969016697
380	-1.133036610603713	-1.6957446293932779	-1.9947473952475605	-0.6482413394773922	-1.347230073388427	-2.326807731475839	-0.828297136122862	-0.9174178815567283	0.8339652398034673	-1.097012874694603	-3.0928273122902388	-1.5533224305035918	-1.0870193215582133	0.4984139191441527	0.47461095332480907	-2.1879718248439444	-0.751391051302688	0.5296908603646244	2.0917310661910546	1.3217579092986853	0.11701068997643081	0.6550927145630909	2.014228100459607	1.928187842269245	2.4725007948439615	1.8264956428189618	1.7376722053524845	1.7866984560679384	3.2687837995016307	2.4370024142725755	1.7850903227559587	1.729352827474319	1.7008981661768363	1.5758285482675092
384	-1.761854882560411	-1.671458597731572	-2.254394048721044	-0.7484608273682831	-1.1791653603346612	-2.354805701986206	-1.3594118322382862	-0.528147815324575	0.559554217833172	-1.0009493802548282	-3.1789910713042633	-2.1320452636295544	-0.6807339770296335	1.1396470041111932	0.5162200914701071	-2.201496118709335	-1.0748945447486156	0.6466509683495104	2.226786131005103	1.399773832601775	0.3343002191686379	0.6463603361023195	1.6596677261411628	2.118188375847157	2.6379322939074883	2.171912426233367	2.0027186820011167	1.8107998325405967	3.567121735149767	2.882046453828879	2.115528101348258	1.9905960509587253	2.0324664064590916	1.7552926496057877
388	-2.176976913677856	-1.6001797874104349	-2.426000112130554	-0.7599214296228257	-0.8269724228960736	-2.2079987470193334	-1.4684081040501942	-0.5963612183772977	0.008924676082847418	-0.6722691042139386	-3.003434888886172	-2.0838561005432124	-0.7084435206646602	1.178334829216458	0.8248121717609332	-1.9492635677714536	-0.7391616087371289	0.7307589035657778	2.099077696268942	1.7255392031019283	0.7672110776604514	1.1700766057036776	1.3337612118425375	2.2405476513561005	2.9541454240600546	2.6494746141298116	2.6166629725195376	1.9780607173569509	3.947450151013871	3.40391491984222	2.5565063888854076	2.3026192130127394	2.400779241222551	2.0164339491478853
392	-2.1382620280639317	-1.460421916135482	-2.361643308398996	-0.623563288067988	-0.3348519495616083	-1.8586114598078844	-1.048138854241521	-1.0353418562498438	-0.5608596191551021	-0.17715693965529894	-2.5916941100490085	-1.403746959003182	-1.100932476125137	0.4899447249917225	1.311260220078058	-1.5233039817497303	0.11097912462348354	0.812678871487154	1.6720979171498185	2.191111320685627	1.2456240622542716	1.9657713125188991	1.2723363605800788	2.176236147154458	3.2793776906186825	3.063861839188321	3.2702548421309734	2.224595064268691	4.224046219651471	3.7807269000920334	2.903728477776212	2.49989771211793	2.656311266868288	2.240976089541664
396	-1.587141629026605	-1.2608855930918994	-2.0219073244545007	-0.3288243702692703	0.20834709651319686	-1.3567829097824602	-0.24123629866728882	-1.553702827345588	-0.8793737866134128	0.3541346481442108	-2.063874001060581	-0.38312724135943316	-1.5775026043164442	-0.6799644810675259	1.8016803219129864	-1.0833849879568545	1.102159020502228	0.9358438825821371	1.0691913339323262	2.617246382781126	1.5906523425950119	2.6594352655023683	1.5678889711848936	1.9038523387525002	3.4717109115686346	3.2547166265329968	3.6559758094035817	2.470917695482724	4.27292059773242	3.8610770604879234	3.0153157634899648	2.5017821725623914	2.7196013858796384	2.3509836137542783
400	-0.6995210629921799	-1.0422058079155583	-1.5042440853287358	0.0710587127202789	0.6783863288917924	-0.8348435738466599	0.6245695932831903	-1.8262804700518658	-0.7888813594927936	0.7667956928920604	-1.5951298434992345	0.5429615364671361	-1.8126516296398032	-1.8313837005153608	2.112225288780303	-0.7921820262935423	1.822355504203316	1.1087890835424346	0.5107387291411117	2.8363013195907367	1.6877292352026994	2.9490215703895193	2.0971281475525503	1.5076464376532144	3.453045597895057	3.164324514029281	3.607592573594341	2.637579672829887	4.08186625403754	3.6258716491707492	2.8581750320751835	2.3381378591632975	2.5950341159152095	2.318978542195069
404	0.184911801944222	-0.862457213608485	-0.9953145359659237	0.4713788914700237	0.9473270153923479	-0.46626257778703356	1.191274401518078	-1.6694166618160118	-0.3172180048562976	0.937930641190455	-1.3460090126386413	1.0097725365893633	-1.6165982444002323	-2.461508267863658	2.134016746855168	-0.7479807715604742	2.0157644697794583	1.2826721635859049	0.1987864966142012	2.774600260405086	1.528024431185444	2.7451267173123854	2.57198809928028	1.1288832397569606	3.2409548677634206	2.8545348572186513	3.1640803734048975	2.657971613848959	3.7410051728211053	3.185388318602565	2.5006601747319723	2.1116609520049945	2.3432643354381963	2.1545269434891754
408	0.7214885931872665	-0.770096538506743	-0.6714568121169904	0.7543265800504645	0.9338496899869217	-0.3884441544739084	1.2418767182467039	-1.1309732170160882	0.3422282627525186	0.8283617475576355	-1.3893977368561827	0.8912748075870888	-1.0333827707903123	-2.3109331072635992	1.88395428181879	-0.9423394775440698	1.690007682348131	1.3741790021533953	0.21654765253230263	2.4882519182325384	1.2033888071195111	2.1984744016454307	2.6912567547561332	0.8898918606225017	2.932367317425586	2.4690358576426266	2.5319478447884767	2.4947717126801887	3.3854820642826797	2.719288342286068	2.0672101922295263	1.926177496815336	2.039462799645163	1.8889583301536292
412	0.722838578783376	-0.7793712000243118	-0.6071478709150665	0.8360750058046104	0.64676385954643	-0.6277363880521114	0.7963611463467727	-0.45395102982350355	0.9287996268664321	0.5033035861659566	-1.6708728032841982	0.33615097318656345	-0.31173106949302976	-1.4775198660740032	1.494171854061441	-1.2619997231092281	1.084974286201133	1.315997001186399	0.4964444326741343	2.1324026530787252	0.8613101818273234	1.606551404711548	2.307931417360289	0.8352303483856308	2.6505773000553723	2.164361948270863	1.9726269195343662	2.156094307224232	3.127244703026707	2.393914216673233	1.6819769101592392	1.8302816106362463	1.7449120239072038	1.5689417084182586
416	0.24334320364548992	-0.8639812447668992	-0.7442795615478461	0.6998893004866725	0.1937039340612299	-1.073574421079463	0.0832712648196675	0.05967095106675828	1.2363225190419769	0.10775386514876598	-2.0284523912714723	-0.34068176064308087	0.23066665173943818	-0.3473351887039803	1.1455291480706464	-1.5380483826905926	0.5241060243725603	1.1053585978256928	0.8695847966173756	1.8804295015542518	0.641198216249935	1.2498166529571872	1.5173665246800652	0.919330356184163	2.485314124508266	2.0437583871739906	1.6737459855736971	1.7018144087740104	3.0122938080074824	2.2959752024856908	1.4255187475453204	1.8061779691870925	1.5002020559581424	1.2547478644162946
420	-0.46011689189137134	-0.9735685562349078	-0.9378484463855172	0.3997878124156969	-0.2563165717806125	-1.5213764867518502	-0.5860505089268588	0.20162980207558182	1.1995525329821632	-0.19451531718734758	-2.2633864822463137	-0.8341021516721707	0.3667642464914592	0.6109943374466454	0.9816192959797488	-1.6169806678001457	0.2441715591941645	0.8142790177767542	1.1632339925007387	1.839585061197169	0.6256580933033302	1.256140467333311	0.61599910103722	1.044233796344276	2.460670226560232	2.1292321628218374	1.676526542245449	1.2366398541699597	3.0254146976380514	2.416209930041624	1.3240944113679816	1.8079034044396942	1.338263389069635	1.0191138957042674
424	-1.0672397586580178	-1.0647187206089628	-1.051892993178576	0.03220142043447491	-0.5467817173504353	-1.7698515608925773	-0.9708138083742787	-0.05171487467345242	0.9046784020471139	-0.2937500767443906	-2.2337164822449296	-0.9979191397267427	0.06186732261654134	1.07021093098328	1.0460082266147595	-1.4257049524551286	0.2873293154137844	0.555753527668665	1.287258144943345	2.006009335221568	0.8212518075235539	1.553428884398892	-0.04226025555789013	1.119606134448962	2.542958729999324	2.376130336484368	1.8823051405113083	0.881077048938214	3.128377906530316	2.6798927716305276	1.362256761926233	1.8153208448353957	1.294193383764031	0.9316643452963943
428	-1.3549432720307573	-1.128426310551266	-1.0439645025598607	-0.3063983909500512	-0.6051628574351233	-1.7216160253927173	-1.0018917296863479	-0.5512760267644423	0.5283997045527599	-0.18088459922897923	-1.9229050826161396	-0.8871192909731297	-0.5280986414927594	0.9759033297695099	1.2756578890064463	-1.0003759835735366	0.5099070059300158	0.42819377671852094	1.266072508476448	2.282885784107483	1.171401140116532	1.9281856965020383	-0.21400828605502556	1.1119263144076217	2.6808915070558625	2.714599602521295	2.125358099339797	0.7301141601248702	3.303628436330771	3.001122467093304	1.505886789334598	1.8667859983996113	1.4005066121027936	1.0331754658363068
432	-1.29205786855641	-1.1945635050177694	-0.986279485119747	-0.5521575198538	-0.47089984894117337	-1.4301410877359815	-0.7817276100449128	-1.0740717622342133	0.24358881948482797	0.057137764846070756	-1.4457005225874449	-0.6814835650404363	-1.1517839402682946	0.5264787660657885	1.5486540755272802	-0.46493917586242683	0.6967574340395016	0.46761897088244014	1.2024811475911632	2.5443737442627192	1.5899573524386854	2.1585872118810236	0.12931039896742216	1.054405448158805	2.8459677624374247	3.0894477289400064	2.271012300479624	0.81846284659691	3.56948422484412	3.326653233712214	1.7211662487443777	2.0429506250300338	1.6670021968715463	1.3125994172334905
436	-1.0236678097628993	-1.3077983823182437	-1.0126380894843503	-0.6840779764070244	-0.2667186253489391	-1.0666145059359025	-0.49801608794360375	-1.443264003924468	0.14180892670114045	0.28813698815077415	-0.9896649693297969	-0.5532017336229837	-1.5895106752318664	0.030620541346249752	1.7540211633266491	0.02567566552236199	0.6991494280329436	0.6319975837009904	1.2001225918033558	2.703464024393892	1.9920606562864482	2.1331238692786867	0.807078121054975	1.014011380496508	3.0428686065142725	3.470531693279376	2.2745668830664747	1.1015845509373332	3.952216615235235	3.641617288932021	1.9749091813770538	2.4049968658762086	2.054182285844572	1.6966940121728633
440	-0.7680191378276312	-1.489711400085581	-1.224835750348444	-0.7118856888917483	-0.12876900998029417	-0.8245843032045322	-0.3124841145732208	-1.600945349465997	0.20978601223908666	0.40353748100440495	-0.722322760188792	-0.564311681753198	-1.7449585155300111	-0.26726746491664516	1.8425910426348922	0.34993904740674153	0.5152947293623055	0.8236569145388134	1.2954404321388733	2.7447910239538578	2.3100607336848693	1.893374795901756	1.5271227321215586	1.0401754353010555	3.2844273961113046	3.8324351213970296	2.175563329925932	1.4635354243521084	4.43576144052197	3.9404327769928917	2.222148889653285	2.929245464558712	2.463594668844108	2.064360613379299
444	-0.6903935057375453	-1.7102422671053932	-1.618099804607623	-0.6557288749351725	-0.13339644636807085	-0.8151074627323958	-0.2850945882751852	-1.6094391305343352	0.3607521346044014	0.3696223190035457	-0.7104665023032294	-0.6483852846941612	-1.6675935941555147	-0.30289846582232155	1.8339897347876508	0.4640829253400678	0.27560603549037993	0.9340521073600678	1.435032125664612	2.7077448299708524	2.4961144861142985	1.58791470126739	2.0155949541701452	1.1266409130261716	3.5501074701322994	4.125286091879576	2.0423519559794214	1.753705616338005	4.925914275130401	4.188651551161732	2.3973286091359256	3.482829323558386	2.7588264872515516	2.285262102079389
448	-0.8226965048999723	-1.892349715223497	-2.073650831709115	-0.5364133702086442	-0.2655429535360352	-1.0142863963268074	-0.3720256080771441	-1.5880061347922447	0.4910122739792768	0.23217998386414215	-0.8958476163180666	-0.6827015263487015	-1.5026605091303413	-0.19749228606429953	1.7812975600091867	0.40609869258393705	0.1445273902343542	0.8887609817000335	1.5054132900376977	2.6375091009306515	2.5181183751426066	1.3676753009597935	2.1175973361910563	1.2073180645024741	3.760280838055642	4.263245094979749	1.9054073047214746	1.8386851502726222	5.259354578091035	4.3063487897866946	2.420868390646928	3.8626832864512757	2.8127608228239986	2.2664184513090935
452	-1.0710020038267416	-1.951962823707937	-2.424653047162031	-0.38061487578617115	-0.4439268995044212	-1.2921529975692312	-0.48548284050439144	-1.6313492018520033	0.5290325270647425	0.07580608110362147	-1.1382406921259134	-0.5945752844104017	-1.405829068449219	-0.15661373694933015	1.7210545496403507	0.26173451476772697	0.2041526878686201	0.6719080192768009	1.4011578524499653	2.5407042439210317	2.35920667052673	1.288052674856195	1.8259645654353538	1.1919459074444223	3.792992820700103	4.147403706569828	1.724506373819868	1.6484878021581588	5.264855371534178	4.191075791267916	2.224532360182546	3.88673757525468	2.561875575273219	1.986071581594538
456	-1.2977927890436396	-1.8528352929065743	-2.553318970909446	-0.2332342559171063	-0.5839251861134687	-1.502644654294871	-0.5684484229041001	-1.7594584182186221	0.45430433635451767	-0.034940428943632806	-1.299691316184232	-0.4306801844690488	-1.4691604338746498	-0.33120426451985346	1.6436681705937892	0.1141312342980852	0.3937394311023848	0.32379773177411836	1.0898573371073834	2.3781688153305396	2.0248792120354984	1.2789951530589947	1.245317932799478	1.0195835803039117	3.5428588300901755	3.716418018494754	1.4135916197372986	1.2015343874159412	4.849624621544938	3.77243422509466	1.78692543055467	3.4907913119873806	2.040749306294747	1.50139104940912
460	-1.4167000019544873	-1.6424509245412593	-2.454988711834586	-0.15808702965400734	-0.654305337207596	-1.5742361505817102	-0.6262782796306524	-1.920359845081367	0.28727778719850616	-0.09429670846496477	-1.318540450581833	-0.3347031167639799	-1.689953322912233	-0.7244872432537007	1.5034829340168756	0.006183185599034438	0.5466007576493542	-0.07805602977834175	0.6355532391714444	2.1001350826645875	1.553633566748534	1.1990516155487354	0.5334484563710676	0.6988843065736521	2.9913947506719416	2.9975774212495936	0.9085687972017813	0.600894568833534	4.064129819145797	3.068484775425428	1.1608170241611988	2.7771186758497777	1.3783462012777008	0.9285834408203776
464	-1.4349392616282863	-1.4404939376701702	-2.235073322375171	-0.2170084411387366	-0.6951093060109784	-1.548466916943158	-0.7040062528955592	-2.03777098141213	0.06835301203159547	-0.15470008513016414	-1.2354906766215916	-0.4530298996454703	-1.9887299487448087	-1.1917374103975245	1.2559410301923961	-0.07057692837777581	0.49463418001223136	-0.44679003841130077	0.1711651529520582	1.695071335327595	1.0161787245843588	0.9320330000233993	-0.1532319184249247	0.3121689252124443	2.241677040162453	2.1200430339693055	0.2282654935318851	-0.0026313429631913024	3.1017725389369657	2.2029316369704808	0.4681845295529636	1.9820059487846733	0.7508738618012777	0.39990621704224427
468	-1.4286202156237326	-1.3822839225202004	-2.043166870680733	-0.4354474831554378	-0.7883349041108725	-1.5467234810878796	-0.8381268956958227	-2.067187065627412	-0.15945295949255395	-0.2899563007186601	-1.1623568505504385	-0.833910463135057	-2.257014030480176	-1.525750513993004	0.8951489306737735	-0.16100840229868543	0.1722085471573783	-0.7133816462625442	-0.16465431410226267	1.2161052196316557	0.4956459688547391	0.46337053062751093	-0.6947030407532151	-0.021575350259906215	1.4888304434380248	1.2737970320012568	-0.5143280016311341	-0.46818369508793883	2.224973911389927	1.3657070363849901	-0.14213982188577562	1.3733812535897356	0.31068926971195343	0.014975005722980663
472	-1.4789402447554147	-1.5465607604080536	-1.9849150130702364	-0.7750613073807743	-1.0000780795597013	-1.685775752579763	-1.0136492226757672	-2.026312584529438	-0.3563098898474743	-0.5446072803098743	-1.211576101105188	-1.3804334367231756	-2.4114873348387036	-1.5782653053490645	0.46820175529526015	-0.31416195551708953	-0.3394952407848552	-0.8458706715208455	-0.29311275408173876	0.7659985999794916	0.05822913333973331	-0.10501124683331799	-1.0194691393862318	-0.20582695253381134	0.9368345713804476	0.6335462315776346	-1.157843229231573	-0.7176476698876377	1.652900691627608	0.7358165960807793	-0.5545605407064976	1.1300554246981538	0.12618590859502357	-0.1908241356561777
476	-1.6107683141094704	-1.9063198518306819	-2.067801708722784	-1.1359869213033564	-1.3347336020149483	-1.9985814044084127	-1.1658661336073743	-1.986375088444968	-0.48498216148954226	-0.9037849284241866	-1.4299172126907704	-1.8931792926673863	-2.430766099514761	-1.346695538935431	0.05314895497254702	-0.5535669908852451	-0.8563121535615914	-0.8600494839888622	-0.22926014603906317	0.4445569205981064	-0.27095690301195974	-0.6107690914946079	-1.1128438683069775	-0.21758702342411054	0.7008762341923717	0.28517815398694935	-1.5740579326942818	-0.7649942021129174	1.464920993921059	0.40363800423756485	-0.737674234435159	1.2612806526764733	0.1582451309738749	-0.25113677915109683
480	-1.7784689619938674	-2.334157222576668	-2.210046762608645	-1.3941287959186397	-1.7249810652096609	-2.4067699848445105	-1.2220649688384106	-2.0278613516153716	-0.5153410421711789	-1.2954443660454185	-1.769738788904947	-2.175637001266688	-2.359053844217912	-0.9739013289658487	-0.27893170643954873	-0.8601270296315191	-1.1935344904329652	-0.8165377357848149	-0.0670934094284791	0.29455467984218214	-0.5084779845751337	-0.9204010344155601	-1.0234742138771578	-0.12095418541887847	0.7525185923650574	0.1982496375800647	-1.734432216079964	-0.7063004952718164	1.573278303942588	0.3379354468396661	-0.7547175865192038	1.6105259616244256	0.2871819429299493	-0.24336902735777366
484	-1.9045422029093886	-2.6620423726582616	-2.3039779604916086	-1.4588502608660125	-2.063962454353205	-2.7612807680986267	-1.1504852742712073	-2.1914608423217077	-0.436450063080351	-1.6236810643210096	-2.11142968598385	-2.1360101645900027	-2.2803652228955853	-0.6679905040088291	-0.4950268554110202	-1.1739919155997982	-1.2622073856911014	-0.7970650771997928	0.07367766629929137	0.28055524755216416	-0.6880486590180016	-0.9948753093396827	-0.8520852305833718	-0.03526964402234759	0.940188822756714	0.25941276484797543	-1.720366115994933	-0.6730205995733693	1.779776807106227	0.41616043343377773	-0.7254267316622784	1.9422248552876988	0.37719434404508184	-0.24621885952774067
488	-1.9410670946705046	-2.7640361716103468	-2.2888705672649805	-1.3200319972089265	-2.258270496388869	-2.9261512682469437	-0.9877206062174879	-2.4510524211035576	-0.2671696238924934	-1.81324326534235	-2.3238234461287592	-1.8311577989122325	-2.2748875560545567	-0.5852940663819242	-0.6074947699467834	-1.4152393305333095	-1.1056861849525514	-0.8683450796138222	0.11117409886663218	0.3128464810102179	-0.8266737440218582	-0.8959216452866908	-0.7207428198737197	-0.07345440220168764	1.0735295983867053	0.34562611492632817	-1.6706370073100623	-0.7701353411303937	1.8846236419779276	0.4996355461380624	-0.7595402579204494	2.064172024283706	0.34441545518702943	-0.3022502355097034
492	-1.9066266965412109	-2.617277377196331	-2.1834800188250116	-1.054821607787576	-2.2663731517791788	-2.850491278127298	-0.8204295018463087	-2.720480673597145	-0.05804591611273694	-1.8364521218663947	-2.3251385630077634	-1.4261115753407596	-2.375570529662051	-0.749256489769381	-0.6517708881135004	-1.5116451940518099	-0.8583091475751041	-1.0474612686414253	0.03810139735854184	0.3043543092672848	-0.9021971202960237	-0.7341644149364216	-0.7247751932918837	-0.2827149622455029	1.027064916878651	0.395675419762124	-1.6956640439137451	-1.0255744431351608	1.7900731518373112	0.5118842112015131	-0.8956377483643424	1.9217772435305471	0.19558890114517016	-0.400389491500863
496	-1.8686140728502572	-2.3065686167655852	-2.061323637526371	-0.7875440100813447	-2.1049246734880662	-2.588791125437197	-0.7336790543152409	-2.8900620864380357	0.12513510851260884	-1.7127361254364992	-2.114835495377717	-1.0984365912361136	-2.5454266007053734	-1.0494350168435342	-0.6536388976760449	-1.4251743519086777	-0.6578406674942329	-1.2858450380285777	-0.08537917562624663	0.22465035262609545	-0.8611676671220253	-0.5969094618985576	-0.8876078106404754	-0.6172816737802587	0.8052428940469742	0.43578380236273384	-1.8133560373299802	-1.3795413936117193	1.5435754021773707	0.47346201419501943	-1.0837858887966016	1.6171343285739888	0.016915131317585833	-0.49020725364897283
500	-1.8886876058577429	-1.973846907400549	-1.9878603169797313	-0.6255409701766423	-1.8279164983375302	-2.261930936824574	-0.7622361759968338	-2.8740479873573737	0.23159483016669832	-1.4884598217577474	-1.7658184722186778	-0.9478591060549144	-2.689202301865202	-1.317262050163918	-0.6091324671624972	-1.16933095159942	-0.5704601392648353	-1.4859650097523274	-0.17601333514120324	0.11784896969843545	-0.6564868075962228	-0.5054539429300893	-1.1451904744798878	-0.9572188830050076	0.5332283960231124	0.5446336851674431	-1.9472058962297127	-1.7193328098757157	1.2990087237939876	0.47355610012655985	-1.223236676942447	1.3453626598723287	-0.08038700351684899	-0.520185409663068
504	-1.967608923712685	-1.7404333309100886	-1.9633791397115232	-0.6031887516051465	-1.4937803707555446	-1.9824991176142999	-0.8700124003379147	-2.64837526606435	0.25334253843240834	-1.209744092747997	-1.382016536084413	-0.9559111571019372	-2.6985297134932638	-1.4305103981140774	-0.48785209532590906	-0.8061870912224773	-0.5652686939272954	-1.549412723444066	-0.18075914635320497	0.07645571957596888	-0.2886208288535168	-0.4189927567393862	-1.3794510329704681	-1.1630884379585646	0.38283237718247376	0.785561142368608	-1.9823111245651528	-1.9405022810580392	1.2225780456193418	0.6007533654304176	-1.230802294484686	1.2865463462772344	-0.025823449650774002	-0.47540527462140286
508	-2.024711365356235	-1.6443018871754411	-1.9157053183826083	-0.6657248122573473	-1.1425585717918305	-1.7912837221696432	-0.9707225536633579	-2.2582199516502275	0.23276989103199483	-0.905143020251965	-1.0470083925515652	-1.0162367795082234	-2.5056729253449266	-1.3791942561614239	-0.25709146196305854	-0.4233007122319734	-0.5517550692932927	-1.4275364839751625	-0.10463791314170989	0.18759314668499558	0.1770638819038783	-0.2812595062307297	-1.4831808768018981	-1.13839375685331	0.47701632856096937	1.1505709857501778	-1.84629702101909	-2.0026683756810533	1.3975770438194797	0.8764911271854186	-1.0991408797170015	1.5105054340372925	0.16923992293067383	-0.39295545121163344
512	-1.9369486521455024	-1.630010481533728	-1.7469896034002494	-0.7050750237783283	-0.795931575672961	-1.6427479940900698	-0.9737170314046685	-1.801842804174234	0.24026404260532855	-0.5876519069139962	-0.7906512598102855	-1.005485651338651	-2.128658527721967	-1.2522234885071408	0.08783046133992924	-0.09825759356248175	-0.4456192541792561	-1.1530685395692506	0.0011437541077838783	0.48168355104903315	0.6329568012469389	-0.06985276174790554	-1.4217339718209283	-0.871980068866272	0.825426695647016	1.554623361477175	-1.5595153530801193	-1.9468640039881444	1.7804022982469208	1.2346012561144988	-0.9053183771164515	1.9444376181147538	0.41853189362714643	-0.3424739232953401
516	-1.6132765967645757	-1.5901482065107744	-1.4030023777825276	-0.6232578142642854	-0.46755403162212134	-1.4389985763458206	-0.818369565328072	-1.3976438010214596	0.33452248488844416	-0.2632123225242345	-0.5817170724486945	-0.8422120192244796	-1.6809458690165178	-1.1580870122280889	0.5135124312787316	0.1400858607331626	-0.21171818620156985	-0.8325949886281854	0.08229420313323434	0.9187337136914677	0.9882013772810323	0.19212536465298397	-1.2533477513140556	-0.4383388448615473	1.328727361185386	1.8900799703561806	-1.2177355258714362	-1.861087436745603	2.2322137299446463	1.5639104803654704	-0.7582846860814259	2.4179704128252655	0.6141532047978314	-0.3769560148735492
520	-1.059678551859481	-1.431845422944386	-0.919963595928658	-0.38842302462738887	-0.17100323693493466	-1.0910598012080464	-0.48677164193279343	-1.1414988012103997	0.5263949023308012	0.062080118648432825	-0.3497596374264206	-0.5105525838359481	-1.3267863955378207	-1.141684052445894	0.9627055501473746	0.32937398469735657	0.12943249908193627	-0.5887737259304814	0.12186387895572431	1.415457602741926	1.2249143092700596	0.4573955226317321	-1.08532118523285	0.038473587386031176	1.8413318349125465	2.101883167682147	-0.9274096465537794	-1.8183453037129524	2.600873225321244	1.7817956164196724	-0.7226721030109385	2.753201000891853	0.6905630213468585	-0.4897124158892969
