time	FP1	FPZ	FP2	F7	F3	FZ	F4	F8	FT7	FC3	FCZ	FC4	FT8	T7	C3	CZ	C4	T8	TP7	CP3	CPZ	CP4	TP8	P7	P3	PZ	P4	P8	PO3	POZ	PO4	O1	OZ	O2
-200	-0.49191877121705463	-0.35734775572200544	-0.21797677819531278	-0.13780234719293794	-0.1226880174757917	-0.8311616161342457	-0.411193339978606	0.3025901011933546	0.4804199921876299	0.44757023340711843	-0.4518611121690206	-0.8561894872029534	-0.9763635968353034	0.37372246290264816	1.570621724931656	0.7330694180100175	0.10810796889190194	0.276438444154889	1.8866599750568929	2.6986641815715378	1.9847732732253183	0.41111129418527986	0.8201047757423923	2.504522078866509	3.209424010756847	1.6108219582896328	-0.06809652579519393	0.7693445663101551	1.75641417059905	0.6032286867170452	-0.7119633537436946	1.5331233701145262	0.5349806533657954	-0.22281210068237997
-196	-0.819940982178963	-0.5175939189240665	-0.45016240959953313	-0.9386150217200381	-0.64646512106757	-1.4664424620797543	-1.2978970971717332	-0.18230260862576683	-0.07805331776701131	-0.19014553677712318	-1.079849121228416	-1.7177377895855532	-1.3268343176720991	-0.21115957147214523	0.9984808538976878	0.22149084452497975	-0.5741766080664872	-0.47483825563708615	1.8928797197235017	2.0972728676297	1.7187892155167366	-0.1753934915405877	0.2695447199691842	2.358350986248495	2.7619006564027258	1.4415696822963606	-0.552730856930447	0.4040057350925782	1.3921679223197696	0.17687082245993824	-1.0290117237813896	1.3109745946210156	0.4733424770802242	-0.37400293255793066
-192	-1.2243478267275445	-0.7674458007509842	-0.7182673793778028	-1.526399966200837	-1.3686867917790781	-2.031677717801415	-2.067715401197367	-0.6707792861215391	-0.7194806319191428	-1.0968716116868422	-1.567190047122022	-2.3625030457930656	-1.4156713449975509	-0.8911770559699039	0.067421942779071	-0.24565842685665504	-1.2028151720196412	-0.969863173897156	1.3450045551674223	1.1732490033091934	1.2743695942175237	-0.7658835034107209	-0.19046431731773833	1.9313590477818683	2.0227281996202753	1.1121662827068817	-1.0652344199942574	0.08272791632984745	0.9407016015144221	-0.22857709171282295	-1.2640494076285893	1.015180465996181	0.3621074250138825	-0.4569261956599556
-188	-1.4838215075223264	-0.9629785394197566	-0.8654730298125713	-1.713305826629824	-2.013175959272688	-2.261324161542292	-2.411219829193627	-0.9147022939476177	-1.3051974740453913	-2.046918148594846	-1.7397327379171674	-2.56546663590258	-1.1297759981241522	-1.6523261028534242	-1.082377788671983	-0.5813750609978368	-1.5812897642266213	-1.0384169790753317	0.1703080083600298	0.03198163948329145	0.7175239902500411	-1.1816115349500673	-0.44655135161190035	1.1247445316527858	1.0944555970216163	0.7049791795097715	-1.3903205359642654	-0.11048942776440648	0.4513230610419916	-0.5175271021174419	-1.2730594841286682	0.6816344840006265	0.21619458441986703	-0.41790833963740304
-184	-1.4177137577502676	-0.9671500896831197	-0.7832108716264035	-1.5106844863897457	-2.35262798669019	-2.0270037599885087	-2.203291410605437	-0.8156360367209293	-1.7191002325523894	-2.811110251005046	-1.5668539961356267	-2.2849159183034073	-0.5380982146982564	-2.4019644199762724	-2.2541665973971554	-0.7937897423730098	-1.6381146866447975	-0.7023213488013025	-1.4204610550303187	-1.190330979202955	0.08209689685836476	-1.3405885662564525	-0.49503740543311886	-0.04374952975790739	0.07379052024330805	0.26678124002811754	-1.4018599951636466	-0.14700688384610555	-0.044066827632987485	-0.6628357751323782	-1.0065610383369736	0.31582230249776083	0.0526479444068621	-0.26486459307555915
-180	-0.9578555798188908	-0.7074863892812735	-0.45274868493213005	-1.094045517066597	-2.2790892066634556	-1.3685771192329683	-1.5307421645617612	-0.42877894531712596	-1.9042072248065967	-3.2253668226825374	-1.1360994548724084	-1.6472372967139284	0.16093184013266473	-2.977095358007849	-3.2462954439218117	-0.9398787593953754	-1.4286762439896799	-0.1435589339684888	-3.000217191750741	-2.3550026357320464	-0.6109376534296072	-1.2782974210890155	-0.4279813159627555	-1.4233345949476854	-0.97521048538039	-0.1959957475482186	-1.1225072117121453	-0.0694385020171819	-0.5358896838009698	-0.7120748144291431	-0.5378378616105347	-0.09959784870035616	-0.11671695828771929	-0.06726658327285619
-176	-0.17490090385624635	-0.20287077077667232	0.05805668965225289	-0.6873793584635085	-1.8129707529071248	-0.4486134935019881	-0.6162199362455553	0.10110571954949639	-1.8711417866195101	-3.2216436781606874	-0.5778677448941736	-0.8558146335929073	0.7485664467985584	-3.2115371146180887	-3.8973193070242282	-1.0556315156987393	-1.0742893191870944	0.39080783626115356	-4.11198662673371	-3.3407506858403178	-1.3154461350607758	-1.1042842837109736	-0.3740794351193067	-2.775594704296008	-2.017617220552979	-0.6868557912651234	-0.6994570476038527	0.02889949076031827	-1.024456498420576	-0.7492291908421428	-0.024903491076536655	-0.5787007198028067	-0.2863311760348958	0.07996886203364414
-172	0.7509393077010759	0.4514574099109761	0.6359110458531276	-0.43773275503267894	-1.0613439056303007	0.5370768891126086	0.3107653550408171	0.6185597761749505	-1.6792608457129716	-2.819409840141196	0.012057247541205544	-0.07963232675951136	1.0831458541226193	-3.0268764419428327	-4.114635457140841	-1.1084686489729312	-0.6786313635858454	0.6958816033913833	-4.473984230189871	-4.0536756413157455	-1.9333811949554127	-0.9233474112086584	-0.42794456969934425	-3.8577570817823164	-3.0195691509303977	-1.178224202996034	-0.3140977613148285	0.0519983059345147	-1.4980131349889376	-0.8363855460031061	0.3709754934481425	-1.1032673092643834	-0.450491844470375	0.10882463278713005
-168	1.5998315770765361	1.1294577093218554	1.1754550904160503	-0.35092285186859784	-0.15960130055186417	1.4407355748994797	1.1184782953633696	1.0078386042898637	-1.4051704371261138	-2.095509285404538	0.6076103433527111	0.6148636325571156	1.132331726076379	-2.4917597707780033	-3.8859951398012322	-1.0045791839031954	-0.2741874449483072	0.6842445117841064	-4.099341382167248	-4.433359611762166	-2.326228374330085	-0.7722139935070427	-0.608233748330843	-4.508218753876631	-3.918776740670615	-1.5928869207219996	-0.08373266437370887	-0.05220535756878046	-1.916637535024542	-0.9710857247630574	0.5616248831874412	-1.6105263192522934	-0.5944389089834999	0.015110522470470815
-164	2.189344639018945	1.725503678733732	1.6175051886728449	-0.3189253202969333	0.7696640472053446	2.1971933786231523	1.798847432363254	1.2038519352082466	-1.1157597275220277	-1.1567674846053828	1.2315169541737385	1.2559919325589057	0.9422276592307535	-1.8051941349229137	-3.279114476508019	-0.6487169845414988	0.17084053115626982	0.4036987413704376	-3.2760910905140657	-4.4620680696364605	-2.367747062427165	-0.6109353884531113	-0.8628574587971413	-4.698277461587697	-4.61968897606834	-1.826043958821994	-0.014757485091680084	-0.272432773617517	-2.217633957032238	-1.0870513888570215	0.5595684633432374	-2.010710234333845	-0.6938975435857541	-0.14322800898153132
-160	2.430534595075038	2.185355180944911	1.9556064556338575	-0.21536631827815936	1.6280165869617358	2.8063647676185894	2.4121701656475265	1.1839252680451167	-0.859167573666992	-0.12546095220361203	1.9015861701638612	1.8988810729722045	0.5865600690337571	-1.207959410478638	-2.428808206148122	-0.01846349420952296	0.6957355124074076	0.0001696007089132658	-2.4187488494840665	-4.173974026632139	-2.010716910054043	-0.37021255399694375	-1.1106080980870974	-4.52549980928344	-5.020834910114138	-1.7959734156087304	-0.029009399862361448	-0.5493206367928778	-2.340884441187613	-1.094907757855741	0.44734436160631236	-2.2247841302014413	-0.7229526024685434	-0.282841830731587
-156	2.3437535703612777	2.5034573014949295	2.2126150075362427	0.009069553553511396	2.3344428480337105	3.287404767319608	2.997349969925705	0.9667039489181023	-0.6680487973512723	0.8691558219900102	2.584271662863159	2.54775666547305	0.13674601877973422	-0.86854249019682	-1.5073922834485338	0.7944537381141312	1.2819266286909365	-0.353984921276913	-1.8721823645053717	-3.6543657687429736	-1.328348990901307	-0.02144503215501444	-1.2907472816303975	-4.154152859689995	-5.06038759861291	-1.492313142823458	-0.040042217719785916	-0.8138852694943621	-2.2600068988960818	-0.935668942950163	0.3132050625522813	-2.2210023347092807	-0.6665417535165762	-0.3439537874120872
-152	2.034251684774897	2.6938810280496783	2.4050803123786837	0.2900721125431663	2.8200228143065185	3.6383230594328917	3.5111055285498614	0.6219074710403082	-0.5641434178414219	1.704455609786629	3.185927144589974	3.1213116567007444	-0.33126455461789156	-0.8076597431772248	-0.6799352747916597	1.6035411317394117	1.8263493730210523	-0.5376056419150761	-1.7672604277814434	-3.0199966354416476	-0.5023638593388003	0.3794583072618695	-1.3882639373061276	-3.7360150719731084	-4.752027022761807	-0.9911164020310579	-0.024605130714640978	-1.0236644719028003	-2.000352854446665	-0.6144564732296829	0.19646498511302815	-2.029740805269684	-0.5307091461133964	-0.32108661451335463
-148	1.6384324986099377	2.754549973209004	2.5157289441488833	0.4931401895947082	3.033750287979555	3.82151197422307	3.8324818514384154	0.2714854173958488	-0.5529730902062026	2.2861294688679705	3.582900038256293	3.4803910167560703	-0.7171522360815156	-0.9098152495301773	-0.056956816320860415	2.1974644605469065	2.173788065190424	-0.5305481539682645	-1.9944997975537886	-2.3836231171508753	0.23974446891813328	0.7047898155537982	-1.4216449224818586	-3.34819983590696	-4.187088955798245	-0.4279088963195362	-0.040951728717407605	-1.1734276980337788	-1.6306161839324063	-0.1964665050314661	0.07641279678125837	-1.7260385708145958	-0.3415415874441174	-0.2567284100726483
-144	1.268744465485693	2.650729411108455	2.491344207195678	0.508175550608307	2.9584762975385	3.779989471428734	3.8293652437802685	0.06256403013169097	-0.6067607387482278	2.571199172204025	3.670986643105917	3.502182951668092	-0.9002415515105253	-1.0089437936104988	0.33637878213831984	2.4239134727315252	2.1935131494454323	-0.40975180164835273	-2.288153642599432	-1.8164421274100793	0.7085632663957115	0.8201534727370507	-1.4066108429681192	-2.9727251454639507	-3.498367062319206	0.05539598301968067	-0.1825894559780242	-1.2754120794520132	-1.2313082187082622	0.228190227766885	-0.0926129592106976	-1.3895198071683745	-0.1327631321177701	-0.20399694093221524
-140	0.9759839152490428	2.3307869375509975	2.2675752582519735	0.33020168459494026	2.623151295714826	3.46841763574382	3.4407753857525747	0.10611530366570507	-0.6565978510491589	2.577725165534716	3.4036893758669597	3.1530496994520343	-0.7851701358998686	-0.9872024630417636	0.5573767409557351	2.2422180119170685	1.8548059416671627	-0.2975155107616019	-2.3684618413255065	-1.3285585608318082	0.8147830346517023	0.6622358543842286	-1.32520699166455	-2.5252804692407347	-2.80429577119437	0.35763779192275025	-0.501622317955022	-1.3276008334019753	-0.859025356984917	0.5834845885804014	-0.3307874492399915	-1.0666930648575181	0.06722795946313925	-0.1859648521019713
-136	0.7441936712549417	1.763551826792882	1.8048108770579756	0.07618901859359474	2.095430130436476	2.876643650421499	2.719274990845672	0.4061795164820484	-0.6028494819679416	2.3691990315702274	2.799033157911148	2.5126390393715283	-0.3703332534023092	-0.827543614205514	0.7055267673799405	1.7190546946038958	1.2533280817813295	-0.2884427003730553	-2.0669043011933113	-0.8812643267316255	0.5792825803436349	0.27922096777991334	-1.1237906189202087	-1.916498775411855	-2.1656677668253055	0.4328561116257255	-0.9565748548198355	-1.2956172195148308	-0.5289795981403155	0.823455331630692	-0.606386004347471	-0.7590093593507754	0.24151717065392253	-0.18046508683894802
-132	0.5188108669533731	0.9743855570987814	1.1158919306238058	-0.0759162602892106	1.4546717368592283	2.0358209558585814	1.8076165868897591	0.8268151858435531	-0.35185700566148165	2.0181209990093487	1.9197908591437778	1.7349795059269097	0.21070104784220703	-0.5868553504432289	0.8617739655671498	0.9778367852318525	0.5698537812150661	-0.3907231976657862	-1.374255176889226	-0.4266709674553216	0.0932279152304539	-0.19264842521188982	-0.7440984230328311	-1.1112681599216736	-1.5792903860273235	0.2711053483793981	-1.4224855863896482	-1.1244592638236108	-0.22527313175545877	0.9198014712952782	-0.8527422525810721	-0.4422598171989073	0.38099810384878696	-0.14061404729150617
-128	0.2457543605321788	0.061330322021373854	0.2762860052762608	0.009185914858335219	0.7645674924620477	1.0127750609576982	0.8680437185305988	1.132233974459194	0.13197043504774236	1.5724139173862377	0.8494533874999591	0.9713199114117888	0.7210627776060662	-0.31480318228396426	1.0415506336618414	0.13845501805158061	-0.017321152568835242	-0.514596878183037	-0.41285011068059985	0.048419296619238626	-0.5413691983859817	-0.6043381675720932	-0.1721423711006835	-0.1587352897689478	-1.010118243528188	-0.13159868087921683	-1.7606872275722092	-0.7776898126040879	0.06699266267790187	0.8368626215786839	-1.0187126372366526	-0.10518752011921556	0.47182589650238815	-0.039434004475452825
-124	-0.0945928541417836	-0.8241485336476796	-0.5905150160185534	0.3409095397925149	0.06274950488460251	-0.09881437544908413	0.009896521431553316	1.094780442334822	0.7909334878025844	1.0463725302027067	-0.31739628234837064	0.3017202906143434	0.9264366603349224	0.008021721596134467	1.1895587414271949	-0.7156355958990349	-0.41695609583487553	-0.5199361430392466	0.6324651821380727	0.5027795421304144	-1.2513757912512855	-0.8749775268398138	0.529804228398701	0.8211104253065036	-0.4374808360021718	-0.783525405336089	-1.9023197841299044	-0.2764540009671361	0.33293941532952903	0.5237980471737834	-1.1136431665913975	0.2221137726659546	0.4883110808918431	0.09633477752920468
-120	-0.4773452865946542	-1.5267758330898415	-1.3472865785915313	0.7896173576446219	-0.6275212748896601	-1.1862618893237022	-0.7407478671445314	0.6178429111140468	1.4765150509749165	0.44105940945848404	-1.4697198830690992	-0.2861775748656974	0.7180665117254169	0.4610050010962824	1.219222423336249	-1.5305771789054394	-0.6601473076365719	-0.3016511194242562	1.587811585232189	0.8583853223109348	-1.9921617457637322	-1.029941913865406	1.2327418296207804	1.6870456891381411	0.11623989761330271	-1.6744300084754125	-1.8901162099801125	0.2908062033463666	0.5252031074615262	-0.05956465363365034	-1.210567828936713	0.4727700042709243	0.4006375958341141	0.18983808111898678
-116	-0.8475294687807565	-1.93973624216532	-1.8796409321058642	1.1531027526352653	-1.2722372976607124	-2.1254622882586016	-1.4125080072980178	-0.19601230273826317	1.9960601279407792	-0.22015429977623321	-2.4739134249215717	-0.8593739845513281	0.18162941886821202	1.1056270571450835	1.073603984983197	-2.250634664575262	-0.8659099914623165	0.14229480886296153	2.3333804548479162	1.0461848947814276	-2.7150762012597154	-1.171166893863156	1.7895694925902308	2.3345129430957896	0.5936246499332792	-2.7330985000270798	-1.8480417681765502	0.7992039898721575	0.5912638887736207	-0.8941327906922082	-1.3990195954286915	0.5803227409969841	0.19513653169478948	0.156784265837602
-112	-1.1466546029704539	-2.0379035421417755	-2.1245799010995743	1.263544794707195	-1.8114466621440661	-2.7975478101670954	-2.027154202111542	-1.07751416887988	2.188181871611602	-0.8695653058985833	-3.1885242381655705	-1.470038648708553	-0.435682236048293	1.886493439679811	0.7696363906502387	-2.795861237142789	-1.158651110584819	0.6977494341399939	2.8027193475533303	1.0519531938696471	-3.3351030265528188	-1.39861464147311	2.0985014385647083	2.7327589919712962	0.9415904855797133	-3.800530662477947	-1.8958558988389123	1.1450374097524911	0.515894352087232	-1.8627232266126887	-1.7136647657997552	0.5285046087272997	-0.10208769116853052	-0.0354985333082878
-108	-1.338190790612482	-1.8790413093809377	-2.083837265475511	1.0710262033124593	-2.1708159391908475	-3.11828207182375	-2.550482266662458	-1.7132053331989865	1.9914885709073384	-1.4080336058353156	-3.5057246596517038	-2.098442549175819	-0.8495594241627469	2.588835471292798	0.3958677639503286	-3.0735647600775193	-1.5849298198738642	1.184160706391385	2.9654469415180933	0.9313136315674213	-3.731485357400194	-1.7312478975455232	2.1469719355736796	2.9249997065127906	1.153597471185652	-4.651127803503613	-2.061855072537847	1.2975403037690085	0.34909593970852226	-2.75695490141033	-2.086268181301893	0.3797164847800623	-0.4168130744900981	-0.3315782240602301
-104	-1.4132451975427387	-1.572090025747346	-1.8178060008883863	0.6584101302689791	-2.295525783465219	-3.068794004321742	-2.889908068036325	-1.8957869958697258	1.4700995646553598	-1.7489889815995472	-3.400000325201835	-2.6422650747345617	-0.8869584180372871	2.9071178362881627	0.06345736964416787	-3.0207667274502015	-2.075885052208235	1.4428933822441905	2.8203120160422386	0.7813857774079889	-3.7901828193339067	-2.0770132489216953	2.010148043325743	2.994190446923428	1.2828006711997162	-5.066464411341708	-2.250837558785565	1.3111865487373018	0.19488918732075727	-3.3428172980787525	-2.359214299921242	0.2574677758868979	-0.6460500343224022	-0.6031267627747366
-100	-1.3792293036924634	-1.2311059205444053	-1.4251046144744666	0.18508171988488642	-2.185667747701324	-2.711113684485052	-2.942274801455137	-1.6212161738471913	0.7849993685930183	-1.8668227148607004	-2.9537048265269874	-2.959339611211247	-0.5732933864424354	2.606775038813423	-0.1588461544079501	-2.65014218614961	-2.4756634172877585	1.414908405546352	2.4057898460682985	0.6851984245166833	-3.466043701957699	-2.2723708095399147	1.8047341062756987	3.016996614468387	1.4143708908611246	-4.9297923917282755	-2.2910537661883015	1.2886408534893534	0.16190312761914985	-3.4587082775530016	-2.3605122506625937	0.2871388487718855	-0.7008845788426191	-0.7125111204277974
-96	-1.2485382525392723	-0.9383867359311248	-1.015385744392269	-0.20448182471623882	-1.9087712716548149	-2.175810093154679	-2.6622416905898874	-1.078888532775641	0.12740561333914413	-1.817028994741056	-2.337284797489426	-2.939601890771578	-0.10977375479639527	1.683821197073223	-0.2840809218863718	-2.06583189442722	-2.6184964113881994	1.1617041796917957	1.8144030525174613	0.6637017710141334	-2.8244614529824457	-2.1694407408300616	1.6265517432154342	3.030578844048353	1.6142104823365586	-4.287329186105466	-2.032811159723602	1.3163764443540813	0.30392864269769604	-3.092568866551145	-1.998151535711378	0.5275581465753008	-0.5502471313889272	-0.5880920872145511
-92	-1.0323222849531462	-0.7306189518601984	-0.6828211528704637	-0.45472952608694944	-1.5759850700642941	-1.6205912787529437	-2.1077518409919147	-0.5417858348519099	-0.3566301456030439	-1.708643551327264	-1.7461030439160985	-2.5664746696524765	0.2444385134962783	0.42139902604521584	-0.39257365366048863	-1.4320497476661602	-2.4126868187071353	0.8209447243944464	1.1903866499410347	0.6674634797410557	-2.030412191986739	-1.7213206247739563	1.5074123106091277	3.02923344800988	1.8878350210210282	-3.335989705246259	-1.4399881326558834	1.4108380043649174	0.5862870797613751	-2.3917839466743387	-1.3190602030829621	0.9331627464576197	-0.24017447172561848	-0.26790109209133023
-88	-0.7467071395141293	-0.608856020820727	-0.48722416039478567	-0.6113145335975704	-1.291248556691693	-1.1768624752849335	-1.4319946729745268	-0.22108714226693527	-0.6120916589541898	-1.6410194593959477	-1.3240586485812065	-1.9352971266522356	0.3156768075602314	-0.7056607586210573	-0.5705464467902521	-0.9079847312891018	-1.888000483514507	0.5270774351164009	0.7010189873162483	0.6150364264218833	-1.2834652629872838	-1.016586420353593	1.412673112163629	2.9879567547699772	2.176260465849465	-2.3365530908720107	-0.6186130627272451	1.5086121521054272	0.9010806656975547	-1.5938065011792726	-0.49462100738576925	1.371361848229844	0.12498760191832337	0.11721853137223784
-84	-0.42719086896806235	-0.5584374652114799	-0.443922965597876	-0.770792065104871	-1.1034284802234493	-0.9092560387543065	-0.8227212408274917	-0.16821300940959252	-0.674905417645698	-1.6427240330229307	-1.1145063610548553	-1.2199581830694988	0.1022007462782228	-1.252585288700014	-0.8402204492336277	-0.5846518859407355	-1.184462663521055	0.34482693585119745	0.4803160714897263	0.4549625802474328	-0.7307764869359421	-0.24363216696263143	1.2761127916542236	2.8938281463040156	2.3937947689654044	-1.4940994940228665	0.23492354095274298	1.5073281488509174	1.1262284488853673	-0.9109910107500482	0.2631043487104965	1.689451213385913	0.43137535343930905	0.4144269217518293
-80	-0.13616794313383962	-0.5637203440738743	-0.5238763080721759	-1.0017598842124376	-0.9894492601208993	-0.8061328509958686	-0.4214194406359999	-0.2771145694411916	-0.6318804605743024	-1.6504585701280365	-1.0635275813907787	-0.6055721625297625	-0.24508544740787583	-1.029706713937716	-1.1255552740289736	-0.45789992693687037	-0.49119084949457303	0.2530449622441185	0.5703489766026097	0.2139820600113906	-0.404565422705606	0.39581999082766167	1.0492463085386519	2.7630195547916245	2.4860892233069682	-0.868415353489835	0.9360704398363564	1.3329497542106141	1.196624752838188	-0.43046435605086203	0.8083733895873187	1.7955809786285202	0.6120237096593175	0.5336999283667401
-76	0.051123380531936616	-0.6121618136209134	-0.6663745028837588	-1.2844201293941748	-0.8792778827402113	-0.8046031573962151	-0.2689796977404625	-0.3761586537400795	-0.5649519548457587	-1.545605178745427	-1.072037217294587	-0.2222905153384286	-0.5267772661260699	-0.20601677842578048	-1.2805699077699846	-0.45225983743923887	0.030410531831494485	0.17945411756030386	0.8935676790565196	-0.002711986417554295	-0.22110423389878145	0.7755915502993574	0.7311685662882846	2.629680388487038	2.467990153757327	-0.36657184269861004	1.402614113127441	0.990766641976399	1.143043634389788	-0.08617539682088782	1.1290324897871014	1.7060080723605293	0.6779584867526748	0.4963010537014891
-72	0.07316953670386407	-0.688517211129398	-0.7994557002864084	-1.5071204862690442	-0.7078253012906106	-0.8335216620381688	-0.3043767206136638	-0.34698021324291667	-0.5141289817227316	-1.2295422522973156	-1.0627994510520409	-0.10810446711903023	-0.6139836891885182	0.7670515756314351	-1.1674424380391244	-0.47755575059482475	0.30344280523935846	0.058441839964657856	1.2750030723805972	-0.06342346950253745	-0.04155823577878831	0.8911876655966471	0.36402615812900274	2.5136289533094587	2.4147612987586604	0.17771971180868612	1.6820538001508054	0.5698676690972637	1.07277404991144	0.28060409355843424	1.3355072703021795	1.5299320182320195	0.7039501053203225	0.4170915175874633
-68	-0.09182367450657464	-0.767868516890664	-0.8628550150067117	-1.5257165393455678	-0.4618238497041393	-0.8491526820678266	-0.4130673994125799	-0.19894321212608124	-0.4752618658464353	-0.6941919309255565	-1.0203889582620833	-0.21172331220100757	-0.5133156763468247	1.3832365239505957	-0.7404713015934719	-0.4807184624455891	0.3507236531462614	-0.1286720183223283	1.5127673110915183	0.11444538802816133	0.2412897789346785	0.8446527698172248	0.002629332470588427	2.390888923330651	2.4099109111976644	0.8842219688025578	1.9046618890357956	0.19902443835554381	1.1023946972670748	0.80882447753784	1.5807669122839716	1.400646683017662	0.7777474502954401	0.4320031095564985
-64	-0.41316223040217814	-0.818860588390492	-0.8286030271590771	-1.251815077482171	-0.1932912911064917	-0.8462342002484128	-0.49534112089980503	-0.055699020483534256	-0.4276728917291439	-0.04547373193942342	-0.9820814107895257	-0.4268800009440212	-0.3437699368857417	1.3397611345797695	-0.0870417801328331	-0.46149480226348755	0.269419460808505	-0.35689040928379856	1.4643679820282292	0.5083985911884934	0.6409240348846605	0.7834933976419255	-0.317444770726773	2.191348785589813	2.4806301531150625	1.7365074113872245	2.19526147288157	-0.017454931468405547	1.2817242113177905	1.5204642972705107	1.9616693208758134	1.3933490479576567	0.9422860717824859	0.6151483043398441
-60	-0.8169417360660824	-0.8181570151653397	-0.7120667678021187	-0.7182356101022178	0.008042848648686278	-0.8437969067250558	-0.5153317438466175	-0.06624169630969214	-0.36833292152869745	0.5365697727961399	-0.9904846524026785	-0.6380907877070603	-0.24854536291790108	0.6818807703922166	0.6001220926391952	-0.44683211929040595	0.18288218928893824	-0.5879399761614683	1.1068350048730518	0.9887858604262242	1.0747045251415512	0.830655930329248	-0.5884000644133279	1.8296006871760515	2.563392632688212	2.576679461649417	2.599323742979575	-0.04590410727593753	1.554423447499103	2.2955667914607205	2.4606413779122334	1.4776153527146922	1.1647162408032707	0.9341348386068072
-56	-1.2099016874283852	-0.7669075708100214	-0.5677009210558592	-0.08435507097404327	0.06679403765026996	-0.8594179131744166	-0.5065078722563467	-0.2985259883019279	-0.3267894975040984	0.8817546941429546	-1.0432740423565259	-0.7582545857358902	-0.3004207305475866	-0.24014194249081444	1.1076716156650068	-0.44594788438739547	0.19289840709144665	-0.799331663020944	0.5478281960961148	1.3761848176543126	1.4213738405581045	1.0405909988833804	-0.8125668147552593	1.2561415402169143	2.527155154523477	3.1902153411428684	3.0655019205898193	0.07306481879383869	1.7811846688122672	2.9346582815463886	2.9608845635999246	1.5335426291848178	1.3506844009630186	1.2696591583621069
-52	-1.5055981836453243	-0.6944811922659212	-0.46688321114919035	0.4283904124411385	-0.028746254669568223	-0.887740252160832	-0.5334038124922436	-0.6814190132103075	-0.3501345506411112	0.9158764458420837	-1.0741953822671655	-0.7447062711987159	-0.4567406762035606	-0.9675430631051317	1.3017177548921894	-0.4187627424157787	0.3515887549583473	-0.9845118497787508	-0.02166300447776257	1.5305584630470273	1.6044429500125865	1.3971998656282931	-0.9730758642424384	0.5010061847435343	2.2470037880432914	3.4344997319293076	3.489688387643241	0.26178428464598874	1.8154656841218342	3.2727997220378784	3.3228053962738087	1.4240580761241424	1.398386117265618	1.486601944984789
-48	-1.6409090715941024	-0.6438823326066837	-0.4652979660207464	0.6397635920584582	-0.21071113592830978	-0.8968721009498796	-0.6365586503169772	-1.0313311789223232	-0.46428477646909	0.7010248881760662	-0.9808120702775938	-0.5959640130255174	-0.5880216345246044	-1.1748237580201832	1.18986618218417	-0.2835399799340785	0.6556559188501516	-1.124947425863089	-0.416681914469601	1.424180027227045	1.6493227440200644	1.8420753432495975	-1.0199661229131143	-0.3223476401773614	1.6881910519892531	3.334485045597348	3.7849144840048004	0.45481434349625066	1.5885459144539678	3.275701514556797	3.4701392562991655	1.0809791060812148	1.2600632874146542	1.5123550853692926
-44	-1.5784953792773166	-0.6439017041161867	-0.5723273739669996	0.5032244908025394	-0.3559297910287013	-0.8407410361997817	-0.7926061133400485	-1.1461725206047277	-0.6340450032438558	0.41067385569837767	-0.6810593587846409	-0.33676707659572874	-0.5584952221121214	-0.8254687169214765	0.9154118872418773	0.03907201801806521	1.0571749183666566	-1.1653125256680983	-0.542531548560812	1.1595909566212645	1.6783897834364234	2.307269805804953	-0.890417633192738	-1.0565892431285722	0.949752209172846	3.0851104181599416	3.9282140632633653	0.6261007769989594	1.1529967755771222	3.0590248030677203	3.4283811959492723	0.5529513345109145	0.9722927188167118	1.3719685043028362
-40	-1.3016538587131516	-0.6825121027880836	-0.7365465741635004	0.1387038674428896	-0.3373798719471174	-0.6777114851053492	-0.9122625566338312	-0.9128429866631885	-0.7518095951172441	0.25316792662597964	-0.16275617439186033	-0.0017774171383879457	-0.30858310979181014	-0.15789873858163728	0.6891479474788187	0.5726381525840738	1.482031222416373	-1.0200589869494399	-0.4285883296636155	0.9225165820672319	1.8447434855615867	2.731946699874348	-0.5546446428600634	-1.5642095764721982	0.23828588365951725	2.9531156942195147	3.954550017863011	0.7796387056693883	0.6589871032289483	2.818307869471371	3.291696063314022	-0.012355087293783325	0.6375755651589227	1.1615900964019836
-36	-0.8141081908652592	-0.6993338448034131	-0.8568048455540609	-0.2164790326851782	-0.07890018055784194	-0.3851184835247396	-0.8770607687740988	-0.3673631837629726	-0.671314178202403	0.38038459324166285	0.5043051230095889	0.3753626039087916	0.11226736725834216	0.47401475786694847	0.6927839500102271	1.2555394140969134	1.8489905549096894	-0.622775135852113	-0.20147092589533414	0.8924244619726138	2.2404055538833147	3.0584962290791866	-0.05983755722435575	-1.7822033121889067	-0.22115848902655127	3.127498380394231	3.9033083817161387	0.9131312943292391	0.2747843556619033	2.7082993915844424	3.1400368134375256	-0.4434155810605065	0.36615076568665744	0.9787822341048927
-32	-0.15279035231638224	-0.6078086480053781	-0.8201453069007372	-0.3181800834251881	0.41094127193648733	0.03333963817881264	-0.5977988228010058	0.3204573086754049	-0.27792006660865254	0.8230376222811606	1.1987186640038607	0.7642990927473017	0.5742364511296906	0.8095433095520164	0.9991664861248081	1.9542547415030538	2.0855588860308565	0.004189302202913038	-0.008689801186735268	1.1541650266117702	2.8292915749642695	3.2203180708642294	0.461109696654566	-1.73670994796966	-0.29407608434816646	3.5999879746145176	3.756857385686966	0.9847417448930691	0.09611910557321003	2.74274873041043	2.9617035314170708	-0.6351134761034017	0.2114697689439344	0.8541578032862689
-28	0.595703481123862	-0.33970647964540585	-0.5530757294042467	-0.035524539559795704	1.0367666456749574	0.5439647422408178	-0.06701443327435111	0.925854024933714	0.4356533874002946	1.4777140580061912	1.7981599523921503	1.13262712669514	0.9345602965601398	0.8181493261661831	1.5424275359311843	2.51176952681574	2.1391704028480154	0.7154248934802858	0.06600410474563669	1.6518862205760922	3.442808619390019	3.1395070473560995	0.8293690064471517	-1.5161822996006575	-0.009143860987584632	4.143941391972857	3.4172069940121523	0.910546419705791	0.09510838961430555	2.775099985745621	2.6361496381960468	-0.6031388625175955	0.13830822671303064	0.7296511512454239
-24	1.2965174880672452	0.10851107510350017	-0.06475260092360875	0.5803782925257746	1.6446528393229924	1.0815349789969868	0.6211078747326652	1.2698228327162469	1.3332828249647781	2.1468994563258157	2.219405883907647	1.4394794666186543	1.1054148646102189	0.696334062248731	2.1468818133510066	2.8050582338084116	1.9844154069389903	1.2783327070386334	0.05251262323711213	2.2068469468666017	3.8438775442349615	2.744997732861417	0.8935714937537755	-1.2196980684003558	0.4462925780472613	4.409527290655344	2.7430357863789436	0.5989972337858341	0.13677425648012528	2.5732223922611728	1.9949582764802434	-0.47305416941417355	0.041861984773087106	0.49655842655697946
-20	1.79550790333421	0.6543722732235097	0.5411004410433681	1.317175146592055	2.0706908650570424	1.5532329043273652	1.2945548263290363	1.2909723487685012	2.166179651513344	2.613013022501287	2.428664439745287	1.6357117850013894	1.0877724858476936	0.729295669144881	2.5988902980038624	2.783819429998509	1.6275589425003059	1.4734767638198067	0.07790790478586829	2.590984099522237	3.8293013476012305	2.007863039669403	0.6036570652979644	-0.9114339328642558	0.8095921257559642	4.091341962021429	1.6341563421952578	0.0068322014822422795	0.05485317097166226	1.9499598692299618	0.9317191815694491	-0.4094541658554183	-0.19018235754634022	0.0716239286640957
-16	1.9700205276342084	1.1492390603613898	1.0962189408281995	1.898837442372339	2.1924683992344467	1.8526378823235765	1.7620841220236383	1.0577291223523788	2.664151423403669	2.715152256786257	2.424067252714657	1.673411365098773	0.9573088264137466	1.103985187604246	2.7282435825130924	2.4740014013770377	1.1063182326041539	1.2081589668288422	0.2832832329273567	2.620150082648673	3.3187031662121442	0.9725692247631267	0.042045824123561754	-0.6107900723295159	0.8625489451565628	3.081094972460851	0.11504292459052598	-0.818967221099726	-0.25732317501903784	0.8752350189045933	-0.5048173057208507	-0.5277040587453425	-0.6094831212868256	-0.5385280237906465
-12	1.7810822680328016	1.4351322614675817	1.431151028834506	2.1151196903232883	1.9683513591661328	1.8878533792515728	1.8850258541198566	0.7220438700565921	2.6542901925783466	2.401618713037448	2.2123091165000277	1.524843331301813	0.8154187181866269	1.7825895502860762	2.4676113066360914	1.9523580025018001	0.48494750138869286	0.5796102866797826	0.722004471386495	2.2264795247131524	2.38824653022514	-0.23592650830784626	-0.6073881968421941	-0.31658005634487724	0.5288916812894937	1.5269718131613683	-1.6330883461728687	-1.7405035451814566	-0.7912729958583679	-0.493746994679312	-2.093397612054767	-0.8376198985886433	-1.173488852399164	-1.2259330718559884
-8	1.2983964648844006	1.4144217932276344	1.4463435374936584	1.9166964244134312	1.4537680112374256	1.6189905364168975	1.6355748135280412	0.445745437211927	2.1495778506366805	1.7433248714301317	1.8028701498289887	1.2053488462533566	0.7367558460707785	2.5030720170720744	1.8711098385299911	1.3128074374432313	-0.15255798360931205	-0.15428513249544673	1.296989318434096	1.4809358082574564	1.23623776123732	-1.4353802167892213	-1.1349823446228484	-0.04304336000542356	-0.097060285263579	-0.22906807007175942	-3.3123505031880223	-2.568296426010792	-1.4300327264920536	-1.8786759329093872	-3.512697210979925	-1.2463393179897704	-1.7635679200469307	-1.8275392009370546
-4	0.6788567883518167	1.0964622469875582	1.1558845013999095	1.4240404331493335	0.7833924869785756	1.0843384238522744	1.112056252532904	0.3330477765734571	1.3530030216389275	0.9027678347683072	1.2210957973168097	0.7832871059668787	0.7378059010951354	2.9052064345443314	1.0861446830029875	0.6397879107534652	-0.7136967164140314	-0.6917897445378837	1.7752850010872943	0.5573134408231434	0.09864433829913043	-2.434741729311242	-1.3904666865528856	0.16014480550387636	-0.8038074949951173	-1.8029893591182387	-4.606766212276504	-3.125904552196961	-2.0102572390346958	-3.006115190545665	-4.470252025762038	-1.6149644810910637	-2.2437231484031366	-2.203997368016374
0	0.10264462951732503	0.5952082261316736	0.6801635605805731	0.8519642331547832	0.12182002483844154	0.3964891721728655	0.5012178408365974	0.39452862639954084	0.5677112326593793	0.07107497733768092	0.5253874050227064	0.36713886168292675	0.7776484469807182	2.711322062322661	0.29266989157217577	-0.0033300809943791095	-1.1127003403227207	-0.8276651480759042	1.891415948860803	-0.3415620020349014	-0.8415508249016556	-3.0876440923936572	-1.3362401690124872	0.22744652571473892	-1.3654442991114835	-2.927329532861889	-5.292325960148903	-3.3086714661031946	-2.400086873670588	-3.720712890767846	-4.818650710337739	-1.830769653466435	-2.5236782963932174	-2.3030338229207503
4	-0.3034062675922034	0.07448917608527886	0.1875115777288264	0.3907526721625532	-0.4027560343110501	-0.2986378066152442	0.00027810671529366644	0.5548347816764169	0.05418271185188932	-0.6047540291776411	-0.1943842167714951	0.06799683702705878	0.7863725403958868	1.8731729936990376	-0.3659228375256118	-0.5758953079942463	-1.2891833749647295	-0.5435640202150046	1.4896111450733218	-1.0605516406939466	-1.5091501436278114	-3.329413405595504	-1.0461457941345536	0.12461744217404155	-1.639175649319121	-3.5354263693240284	-5.306025491669492	-3.109183303612469	-2.547499888664006	-4.023480882023084	-4.596445072013256	-1.85215901860866	-2.589367383141431	-2.168074602375259
8	-0.5162293897946686	-0.3342073849346346	-0.18912710201673977	0.10864849361168288	-0.7563356142021915	-0.8870979525103541	-0.27340993216149767	0.6923934203786447	-0.0974242535754004	-1.0774854394411708	-0.8491625168341896	-0.053258616342785975	0.7022857648284614	0.6094726904740162	-0.8341350534360036	-1.0625190708037253	-1.229682323212184	-0.0064321956434871255	0.6244977696864172	-1.5390198191886892	-1.9368005942082542	-3.1877758422476603	-0.6600620729947584	-0.10890478613298939	-1.6101046759962168	-3.735888471707925	-4.74837635748782	-2.607421629998314	-2.4776437220007765	-4.022369374610118	-3.979929675544295	-1.7056918101161496	-2.486677878777284	-1.895005817397272
12	-0.6116279944236528	-0.5968821629713194	-0.4173157204582199	-0.06787706149368503	-1.0149832938317616	-1.3407360281472545	-0.3411481669872707	0.6910017711359424	-0.010849638814653556	-1.4101238215130218	-1.3958470786138863	-0.026339016788263406	0.5018117415156399	-0.6930708271648067	-1.153777954049576	-1.4759129248549159	-0.9824506019583324	0.5227417336617408	-0.4373876143379784	-1.807970161641674	-2.2169394437130685	-2.766044371297049	-0.3190090648226313	-0.35548213034524595	-1.3651510442599288	-3.7017767335890928	-3.825037231324765	-1.9341684531016183	-2.2486004772635035	-3.831929912429189	-3.178933612426845	-1.4450467788451988	-2.274823183038362	-1.5673137863642632
16	-0.7092343550895434	-0.7884824256063191	-0.5748774990826314	-0.28817307876309456	-1.324568983548485	-1.726526852063363	-0.35648637920020865	0.4885842191758367	0.048683747526278166	-1.7340358451932083	-1.8640696955347653	0.026732891730525347	0.21150720066075884	-1.6496385294272873	-1.4279512130924625	-1.8538597775383872	-0.655114470258379	0.8148960450579112	-1.3204815354386876	-1.945046181536374	-2.436641925381884	-2.208764547493474	-0.11557101429132205	-0.4647236752697855	-1.020277616785924	-3.547184935197051	-2.7628312041146095	-1.228446838138399	-1.9007549237899224	-3.490549078711625	-2.341076606561884	-1.1062272759164562	-1.9836714217647824	-1.213237759388041
20	-0.8996368027861611	-1.0417543623371692	-0.7968569973854073	-0.6688615066807329	-1.8181296541086995	-2.1609487479010623	-0.5321622477447069	0.1059153002806662	-0.168348878197015	-2.171664232493149	-2.339760059171409	-0.06278485788944566	-0.1030567807337451	-2.032907957666473	-1.7567672685138078	-2.2431385460486557	-0.38970723649815475	0.7647348026995098	-1.70750164554554	-2.015352959312968	-2.630766623530682	-1.663131471249605	-0.07775312642493856	-0.32801020062601643	-0.6489323957271733	-3.2660972989590973	-1.7418727830777798	-0.6056259855238588	-1.4369847738225237	-2.9496049806511078	-1.5187085828584395	-0.6922085863756628	-1.6056016643040947	-0.8130884150003718
24	-1.1938787668603186	-1.4564883672181062	-1.1846886843334725	-1.2053042619791772	-2.5273561413851526	-2.7279167106419693	-1.029166457438836	-0.35918715505513	-0.7392788510731061	-2.757343523693284	-2.9040789530866067	-0.43129831443613137	-0.36841666605439544	-1.8460876895071674	-2.1733584349119672	-2.669219963963992	-0.3181137136533983	0.4107549776197122	-1.4863506518030505	-2.030301804184894	-2.7733235289172207	-1.2454905478503118	-0.182817592755326	0.06099167450764718	-0.2545008652937264	-2.766035311391066	-0.8674569704089112	-0.14063414895790594	-0.8448224046358273	-2.139103884064614	-0.706906614903007	-0.19617997060359302	-1.1251682014667794	-0.3464208832577566
28	-1.5236993989621719	-2.019144291548269	-1.726924891880168	-1.7557837918774968	-3.336129656951838	-3.4044105920669208	-1.8581395102317444	-0.7687871436736231	-1.5003080330162855	-3.397595635419088	-3.5592665582439404	-1.1047600479843696	-0.5365944491190147	-1.2855591741529568	-2.613442414361165	-3.1051328103823392	-0.5113114105666677	-0.11076609017301356	-0.7979997376321559	-1.9475972603263199	-2.8058323789328	-1.0177854273848677	-0.3841804256276329	0.594884632516005	0.19836573252663287	-1.9695856521470252	-0.17912450387552814	0.13543748821396143	-0.14267598056533778	-1.0632803413248746	0.08572570957951524	0.3561808755941837	-0.5627862796879575	0.15747511347112694
32	-1.7865189268783284	-2.5823428565630966	-2.28056787868731	-2.108097071093582	-4.0085267919424314	-4.040416707328225	-2.847238533460828	-1.0019158099627763	-2.1129679626523292	-3.897184600527376	-4.189845551402858	-1.9647799680694977	-0.6049899443610665	-0.619797407015942	-2.9374408647760575	-3.461119881474525	-0.9450460648518421	-0.641085563471594	0.04124643270688457	-1.7105655626978387	-2.6810181073210457	-0.9755794977352628	-0.6328456385847134	1.0993628474135846	0.71968924817533	-0.9132645703146205	0.32609778560322644	0.23241762758226164	0.5880284294540916	0.1439891006887467	0.7930157760625555	0.882384834445929	0.004469705268631604	0.6073812827034176
36	-1.9050273847166355	-2.9224040434486653	-2.6296901636487564	-2.088133091422917	-4.285702694562942	-4.412437904661667	-3.701639881325034	-1.011379120180583	-2.2360906544496286	-4.043092240616148	-4.592188346712724	-2.7841045786183947	-0.615705607767087	-0.05406460152327478	-2.99545025069222	-3.609559526866963	-1.501985188506741	-1.0598120662634407	0.6979485732576857	-1.3011704650452436	-2.3945577084166034	-1.0505856249033734	-0.8853603579102488	1.416613456010492	1.2447186677024191	0.22499877157625034	0.6784816367185476	0.19620974312358316	1.2156997888389172	1.250096198740478	1.31188916828814	1.2630782095490711	0.4677143085115177	0.8922759868028532
40	-1.8642324162145913	-2.849219315011003	-2.593856566556	-1.652568455338469	-4.00755595149078	-4.3280935178201725	-4.131189812720383	-0.8520545937960345	-1.7139459805130954	-3.7082736398532075	-4.566692340765132	-3.321133843619948	-0.632267950369009	0.34226447257412823	-2.7043816975025368	-3.4413752468960794	-2.014702076593664	-1.3106886115361052	0.974562165660805	-0.7742949704648319	-1.9897988984415118	-1.1322851152442823	-1.1052721710909867	1.4769511185549924	1.6363271433524968	1.1910364597767356	0.9317893362361727	0.09708625798747429	1.6139688451072494	2.028442854528332	1.5732403953886065	1.3997452223723552	0.7430712561920101	0.9505810117563552
44	-1.7060129599413885	-2.3117110670852434	-2.129170412410006	-0.9169472432827701	-3.1984772601436156	-3.7295169736161013	-3.987073411411879	-0.6607009155758481	-0.6818719489048121	-2.9240500853146267	-4.028027524315071	-3.430911770741467	-0.7026345712088063	0.6162667854962305	-2.0982787556123896	-2.9293875620314975	-2.3345587194628616	-1.3933421338188803	0.8833655692685872	-0.24990329083290677	-1.5378535947119585	-1.1070333691303633	-1.2661992279509204	1.3211964335463187	1.7457053617271612	1.7743513539338898	1.1592744559583061	0.009318213886338198	1.7285485223997505	2.373576158252902	1.6094119508163862	1.2758949962827641	0.8239796140848126	0.8206669667504943
48	-1.4877749643910072	-1.4384932481686907	-1.3645118440509714	-0.10570513430371879	-2.069127077600663	-2.7385475566386885	-3.338499776040703	-0.5931851252838152	0.47946599004808593	-1.8809330415920429	-3.071656696193787	-3.13607620401149	-0.8289154151015562	0.8482350089591815	-1.3233567442861036	-2.16411613871643	-2.396529430060795	-1.342990633434836	0.6072397216724335	0.13600636984342265	-1.1098062964076032	-0.9066052413939031	-1.3581612075847664	1.066489216972901	1.4976705274916335	1.9077571582311668	1.4314393961052012	-0.013385825756668917	1.6106035668717273	2.349817508486837	1.5580214222672408	0.9786567067233127	0.7884325961234128	0.6324627979522878
52	-1.2327910630572405	-0.4868814634905148	-0.5483553395731775	0.5455728159481531	-0.9299694872264851	-1.6161975819790637	-2.4466619429804872	-0.7450165729786331	1.3240582909533387	-0.8546255805372851	-1.954086417986633	-2.61788939768734	-0.962000725224685	1.0634198161932968	-0.5786694869690232	-1.3374184336274324	-2.2477383556836488	-1.217062112596464	0.3766267886189635	0.29647159501564135	-0.7588720898542043	-0.5488700256795135	-1.3959429228824434	0.8398538806691846	0.9496049260959778	1.6831331210556733	1.7707611277695534	0.03976304819081431	1.3894101346222647	2.1340682452681237	1.579299207514728	0.6588951928669367	0.7479190211486427	0.5334691391827525
56	-0.905104396442248	0.2747835808015232	0.06678895635431568	0.8826969839698297	-0.06224887802381737	-0.6568781716928299	-1.6480194288606964	-1.0988522740277278	1.5579262932544193	-0.09504132693852196	-0.9926193927499194	-2.1294832175849976	-1.029473302149365	1.196163293679502	-0.03394247955454891	-0.6768143755990998	-2.0252304026016286	-1.0888298722433394	0.3380960217522856	0.23653677046183832	-0.5213065134238178	-0.1493800725741684	-1.4190417492325105	0.7217895370379777	0.28343522477115024	1.271916386254052	2.1041674560827515	0.12772741881547398	1.1950937479363526	1.8812695694155952	1.7279578403715177	0.4470431495347004	0.7636875490934503	0.5897173866641829
60	-0.43225964794696414	0.6880342346940024	0.34068217787559324	0.8766403176109148	0.38629370830280885	-0.07248301040707443	-1.2050490348908933	-1.5275536737021966	1.1803002327683194	0.26536244086978866	-0.43531709799532087	-1.8748401356091962	-0.9812639926931398	1.1376222343332854	0.2329443985302954	-0.3602480879271309	-1.892194623938183	-1.036087033516944	0.4935199307856134	0.0484376883773957	-0.42935293804486374	0.10973145785045332	-1.4764082394517488	0.7305895071657538	-0.27205118468262834	0.8026272038222549	2.2512810173415745	0.1713802959168318	1.0770287486540548	1.598790283934939	1.8649736595751465	0.37379994894066054	0.7855398635104769	0.7249820810133767
64	0.2287831598704524	0.7611278872346784	0.29899266286701853	0.6111682041950163	0.4296821046948048	0.07523586582023675	-1.1997355192411616	-1.851504201982811	0.47473227857894307	0.24018366574205188	-0.36747887637818955	-1.9152409982009804	-0.825028477016277	0.8327055552439646	0.24948237773372686	-0.45135342960842795	-1.9604787777040755	-1.1096441717742234	0.7317940574289784	-0.1381110396474503	-0.5178784714975058	0.05113726468884393	-1.5983407457051781	0.8476304390487511	-0.5464392886670653	0.28004357148038167	1.979935164221115	0.08996041841443901	0.9732536052927098	1.122196909932228	1.6876699881859423	0.3494979134318726	0.6631801111643763	0.7462142091030813
68	1.0193577979100725	0.628258763157604	0.09164815372931547	0.22919969202825236	0.18537208391117665	-0.13929659093020078	-1.525316234552267	-1.9293727826043878	-0.14690266512497893	-0.055615160473837306	-0.7033038121586548	-2.155009502692059	-0.6302078350368384	0.35617709069925	0.108895592116556	-0.8873156286725241	-2.2382390442604887	-1.2966424194023791	0.9262097454528355	-0.22361427489090308	-0.8124764541140078	-0.41131836072070677	-1.7684291556532485	1.0595552894543967	-0.5006576763864126	-0.3942536105692416	1.1254926891521175	-0.151277377819546	0.7574139218281006	0.2269913101425774	0.8915561415097183	0.22348131182990608	0.23620332717864545	0.4529901731498278
72	1.7437016919934505	0.4355532515973247	-0.11984486847660322	-0.13498422469391133	-0.23020243586593828	-0.5868123158898098	-1.975820178765501	-1.7372045473107576	-0.36620348599482816	-0.49273708338310995	-1.262753125817287	-2.413790935144167	-0.4966583835460154	-0.08373910167532836	-0.09707364415455555	-1.5235341748872717	-2.628257267991974	-1.5060417614106227	1.0289353106269805	-0.18723078024799847	-1.3023192849657441	-1.2095392911890657	-1.9142796944924698	1.3833357060792515	-0.22677804472410948	-1.3065342870150387	-0.27448818018276216	-0.5041620122578445	0.34067800555046945	-1.1765634983874949	-0.6080855115796608	-0.10565502914933099	-0.5416426048908762	-0.2258677178879145
76	2.098829502528724	0.22221228424235842	-0.28028854656979	-0.4089377810167104	-0.784534929202101	-1.178944346312392	-2.3790028035181314	-1.3886706794010482	-0.12487601457300496	-1.002128956171955	-1.8840651464577924	-2.5419855053618887	-0.5007015454048565	-0.24113771258507924	-0.33060279405094356	-2.20700454154699	-2.9741265698683717	-1.5910611112478494	1.0966240139930703	-0.08740661271200155	-1.9133628558488496	-2.1131365245873286	-1.9238918971125496	1.8540060473362967	0.12730276552484385	-2.391612762134976	-1.902329559291623	-0.8268032649146282	-0.22941997589362487	-2.879343025567272	-2.517070763908679	-0.5910341128685916	-1.5179645976842315	-1.143744585010577
80	1.7684874489956917	-0.1308067288672469	-0.4956228124503023	-0.6062220915747525	-1.5412926634975261	-1.9219751309507018	-2.6989478996799523	-1.087181803819461	0.34722614200663904	-1.5959387977360837	-2.5071713861107967	-2.514978164045188	-0.6504748447207765	0.019895045036511287	-0.6171054824507475	-2.8390424179877467	-3.1310596387012795	-1.4143587315136212	1.241484996522229	-0.01565562184672671	-2.5053288873361517	-2.7909209657776985	-1.6835818248204095	2.4852955278591433	0.4646794486234738	-3.368465415079427	-3.2028770365912473	-0.9101654864219932	-0.7379989605390755	-4.355020035238762	-4.178647507607888	-1.0134097312136643	-2.3572316110224394	-1.9564224432187722
84	0.5526243434305023	-0.8448515513070489	-0.9869230960724067	-0.8205507376934758	-2.594376319057129	-2.8963088916133044	-3.048798553398715	-1.0357124779301212	0.6543100459745212	-2.3266065061955854	-3.1821455875163918	-2.4503877101067006	-0.880305109185677	0.6205642207690414	-1.0096493933935684	-3.396557322509722	-3.0265231056094963	-0.92320811515417	1.5410242041781355	-0.033055741256464224	-2.9060792849602186	-2.925867788557108	-1.1230404348629597	3.2299468435755148	0.81155526433133	-3.8130066298536747	-3.560034266066709	-0.5414801226296287	-0.8723244645029147	-4.931079375215016	-4.795446383766685	-1.0597218248314786	-2.6651070050662957	-2.256113523509183
88	-1.522338505716096	-2.1052429622903635	-1.963244910051828	-1.1908657520745298	-3.9625978369802657	-4.172722805932173	-3.604485502679334	-1.3429696525999282	0.440656988700299	-3.211141578196358	-4.000390042695396	-2.5342965062052762	-1.0830935212446386	1.2711307970378956	-1.5303401908384109	-3.9041066071169555	-2.6809587410949995	-0.18925705504318321	1.968674535549289	-0.12539587883284278	-2.9724764748865757	-2.338455671128438	-0.24568746921974852	3.971998204693348	1.311088439492249	-3.3470215712920144	-2.5480124886077804	0.4166434694738179	-0.3649427881563668	-4.083759774387984	-3.772038688672929	-0.47033443928226154	-2.1675877516379627	-1.7556322768708603
92	-4.162528981189843	-3.917700042370111	-3.4821190746130353	-1.8409841014158048	-5.512320981413538	-5.716091618411274	-4.472459781798944	-1.9715355584912844	-0.4294123638755548	-4.170843113859282	-4.993350970059017	-2.8990812228440976	-1.16386460964087	1.598777886168857	-2.1261801665984637	-4.378739822776532	-2.184440368859208	0.6138485654591536	2.388818734813539	-0.20318686910827932	-2.6507544450591976	-1.0688436004355846	0.8686841108324488	4.560279357840649	2.1382405703918668	-1.8494596434628874	-0.15160696170199942	1.958335871520521	0.8618646242316242	-1.7125669674550537	-1.0199830506321879	0.8193639496143493	-0.8535931684877373	-0.4322785426193102
96	-6.863884431675484	-6.040003761300749	-5.371428952960662	-2.810552351531357	-6.960215550969625	-7.334662895757879	-5.586344227991784	-2.750838272778922	-1.80097102664195	-5.026445376103391	-6.061036094621671	-3.5222954661131625	-1.0831054421735637	1.3361219133975515	-2.6675908498171044	-4.783548343025241	-1.647102113379919	1.2905058828196667	2.615189068867253	-0.14619007669732706	-2.003673786826586	0.6178128107685112	2.0858101792125954	4.863370883106911	3.3814089212875924	0.43037459145605694	3.1516425530017296	3.903474559465353	2.6276993685182846	1.7531096891010451	2.9293756411025726	2.6177632742593135	0.9965478752725022	1.4408205711227147
100	-9.055778480554325	-8.035455683447775	-7.258093815598414	-4.001386155516368	-7.964196661868654	-8.710491158428045	-6.693819982794554	-3.438894978423948	-3.2966730511402016	-5.555912003794936	-6.975617867977857	-4.206962097990503	-0.8628007151754584	0.46840822578424085	-2.991789571837937	-5.019109713280114	-1.1523882121555018	1.7179139809150645	2.5022423204188957	0.13378009166319904	-1.186702248438191	2.308028692140317	3.2522492326641044	4.815283763172167	4.957575785517992	2.9333288595526747	6.502425177369576	5.922059044191305	4.541836250282233	5.483147130474011	7.075054627675534	4.531904209139096	2.913903944287997	3.3943507585657082
104	-10.280479405196628	-9.42734334472852	-8.693526246056328	-5.170326219856338	-8.259008386740781	-9.502595877497509	-7.44741676357623	-3.806351890490593	-4.48131464780442	-5.5857410289881795	-7.46234128975315	-4.660446155225692	-0.5548489675818375	-0.7422773819302511	-2.9694626256357624	-4.960025774830655	-0.7380868177852526	1.8999321412755201	2.012892479582852	0.6452644451062459	-0.38376507066156423	3.5678877740424864	4.225642670453104	4.423266876497119	6.608071787362853	5.004733549833745	8.93052098880514	7.610377769329344	6.146349414566188	8.557815530151405	10.300487492304315	6.111840232676997	4.4238533862002285	4.942948328889884
108	-10.341502163526448	-9.879798864216061	-9.316857314428857	-5.990909561290423	-7.76838539069555	-9.476517653381222	-7.554151515961781	-3.7094886209292413	-5.033441054033727	-5.068091379721389	-7.316794376973648	-4.632650840507051	-0.1976744825617567	-1.8713638735253826	-2.5605554516040665	-4.51634692005484	-0.4095612455994869	1.9487179468545572	1.2263678281338823	1.3092713322962144	0.26721754602677183	4.072946061341556	4.887791621265469	3.739392032718977	7.980227927086969	6.161065086068341	9.679268812537293	8.59460733151115	7.085272294275714	10.315592739763737	11.774998635126943	7.01511810438936	5.2207269536768415	5.7591118667157435
112	-9.360456443041924	-9.321344352076219	-8.983310676782212	-6.171820624981616	-6.639812929555664	-8.60168836329259	-6.910208207803645	-3.128840915409762	-4.849475371514797	-4.106023301248278	-6.49999330786888	-4.042858113572061	0.20386433549908597	-2.530580275822203	-1.8336093379456546	-3.687192430723693	-0.17157755748821793	1.9973397204515868	0.2902796261134279	1.990492458086367	0.7219201904189955	3.692749490951362	5.142510401139944	2.816389315170184	8.752015091733853	6.276522620566878	8.451664903283179	8.625790574230273	7.217632752315559	10.573636981971125	11.225430460244938	7.112362366839154	5.250941740130098	5.76172016596453
116	-7.715058784079699	-7.952836493440305	-7.801222781512302	-5.584547505584211	-5.180705057415582	-7.067269784250365	-5.649171338123688	-2.166832441581276	-4.0479407208285165	-2.9109959528860374	-5.1599163878818874	-3.02424859237061	0.6624985320530905	-2.548295729879038	-0.9376720762420722	-2.5739114219530363	-0.05109705390546385	2.1011152214407995	-0.6474141462192877	2.5512273247202693	1.0316750977218088	2.507472270356863	4.90996359539162	1.6779991345955518	8.742543198447219	5.603335843244294	5.484503732185674	7.634138564862615	6.630459291883967	9.631349539281812	8.972413040396152	6.494826777272793	4.679982650385107	5.093426214709915
120	-5.8823933452863235	-6.146291240433034	-6.072307571338819	-4.3370175252134135	-3.7303645516626673	-5.211586462214323	-4.083786000431619	-1.0147048209320741	-2.8908502982585556	-1.7172157721079284	-3.5716597943729287	-1.8638241243989107	1.164871451297874	-2.0319805093961096	-0.04382954899331632	-1.3457264866231191	-0.0937593278901878	2.19065951747937	-1.487365003645277	2.9002938197343466	1.3037658896907904	0.7616513352237743	4.1307368174212336	0.32503828324269646	7.962013224526755	4.6269478681093394	1.433856364444741	5.72593306049458	5.5607213833604305	8.079245546923643	5.740857109834343	5.396915422165114	3.778666009899483	4.015773763054505
124	-4.258650292134904	-4.292115200650267	-4.171114911038772	-2.746332400063858	-2.529805415442079	-3.3978235635801335	-2.571634762946944	0.10055375073794748	-1.6703876214769515	-0.6948356014828608	-2.0270657488189183	-0.8683358408939055	1.638751979505127	-1.290900227148505	0.7155786138587734	-0.1740046884196663	-0.33261635815566204	2.104192490033494	-2.1881880704946433	3.0175638122666375	1.6462981659332183	-1.216246125011549	2.786952250119994	-1.228679653880304	6.589808447412626	3.842468490436029	-2.8620622085790415	3.1328544537602245	4.279982079190422	6.528172476498906	2.35684537292527	4.085980881865287	2.798336021987615	2.787960522288469
128	-3.032160751316698	-2.6698322228735796	-2.420998567190789	-1.2102559774360355	-1.6468331772233715	-1.889685029980896	-1.3713535035795963	0.9793686245987125	-0.6128638371253055	0.10084747497607842	-0.7261443119789177	-0.22470523360263384	1.9646352479923486	-0.6665474755624602	1.286361929506765	0.8340541699332477	-0.747433064481016	1.6858285622949005	-2.745458595973657	2.95216297357983	2.1293170398357835	-3.093937627610311	0.9347742176296986	-2.9158859179310643	4.906510340700631	3.570965996309495	-6.635092241701372	0.1430002149309361	3.0075294895533244	5.399396405892981	-0.5207010494437181	2.780761473310673	1.902047986950415	1.5932872255153003
132	-2.1622028296239706	-1.3941340411273666	-1.0152728531953494	-0.034246101888977885	-0.9827789043409264	-0.7781186680221641	-0.5563375339766999	1.5099490842843637	0.17349378720826394	0.7264162283676965	0.28114721108025637	0.07460019718647332	2.034522289861494	-0.3655069163154192	1.6977735714963096	1.670631642892046	-1.241563317025266	0.8979685283877546	-3.1593222538337806	2.8032610345636817	2.7781197954608974	-4.591904151767152	-1.2688674894721987	-4.5983924749624405	3.2196910300027755	3.8969004055818046	-9.36006448289887	-2.9554166719206143	1.8872481536900514	4.859700190672331	-2.5294082100902986	1.629605289159568	1.1716042727454137	0.5368908034120897
136	-1.4672623835712144	-0.44355746991703604	-0.004403844930288802	0.6922096592592661	-0.3498581341016632	0.013593291829479333	-0.02376274758538294	1.7043509440306677	0.6979308706782321	1.301496979288499	1.0801811190989767	0.20512480982012996	1.8282307340239927	-0.3828688552249842	2.0359623380756315	2.4140357910242862	-1.6570806461458634	-0.1223249357830591	-3.420087328859006	2.694001429431821	3.590876093381419	-5.513086305050522	-3.568721285392921	-6.090389713169387	1.8109081937845248	4.729934203603718	-10.808164569269625	-5.902250275015243	1.0179128621150757	4.891862856911929	-3.579033127331608	0.7364293914321679	0.6604987366212803	-0.3093166641532088
140	-0.7676822523762112	0.26191356712018016	0.6618962271191559	1.104579922748313	0.42238202584436974	0.6558334810864892	0.4133235205705331	1.6897302823320468	1.0489196750861074	1.9406520079253369	1.8174804403194451	0.40075230497269476	1.456042166848444	-0.5444995151123925	2.4001321732005025	3.173496476744161	-1.8289489699917227	-1.1049381466625088	-3.522219410586621	2.745018713696325	4.557215202269773	-5.756702408561427	-5.655314431217309	-7.211809616954285	0.9081178880651939	5.9239029734774205	-11.0033130367945	-8.472206094332392	0.4939281927989717	5.4175796372008325	-3.7397270108217686	0.19504311631550109	0.43832832464177096	-0.8645971395598083
144	-0.0032900201539331686	0.787642953791422	1.0711219283717268	1.4519301616250613	1.4037500584447025	1.3111631837166087	0.9064601636888862	1.6491801697101216	1.3445439304737612	2.6994204453025383	2.6098272734553754	0.8233033993915431	1.1292945118048723	-0.6240043624382123	2.8622383999085526	4.021648873665892	-1.6537014204234992	-1.7660531953092107	-3.4758810909251716	3.0513954085557327	5.660415635122887	-5.324675069716888	-7.240457993346798	-7.843677024111414	0.6729086024461192	7.368953209392008	-10.135712598005977	-10.478459331759765	0.4158103455535733	6.380704386813854	-3.1343958298702246	0.09560247486534311	0.5871732816176581	-1.037915584804747
148	0.7338923197337089	1.1513062686462707	1.29472112328754	1.9295196484487436	2.5343758995919163	2.0517272897417618	1.4849072657288138	1.7295649007998943	1.6827686982584364	3.5540416150961214	3.480432740007308	1.478363867841892	1.0609633895790154	-0.46005689981655634	3.4438936623407708	4.947556483175124	-1.13986682604057	-1.9428545187535162	-3.30779027103706	3.662957659056364	6.86067054923731	-4.321888435896142	-8.141008356521125	-7.956990221914926	1.187445279938085	9.006463028103152	-8.482423760932571	-11.789878815448262	0.857307431917538	7.744543056008432	-1.8952351760697885	0.4948795723341521	1.1514041394727448	-0.7709015588370469
152	1.2610316244712305	1.3367845978364912	1.3660869563898292	2.554420703160693	3.6554107573725374	2.831123344902882	2.0439927526366555	1.9579644153752185	2.1036724991137863	4.417804230026537	4.350055206760087	2.2186405602706634	1.3434638943131578	-0.015956735198146	4.115881909469237	5.853599533560925	-0.4115265001397369	-1.670464630677807	-3.0489084643634032	4.571019161127743	8.075644472713986	-2.940634958472217	-8.334139802871894	-7.60409543978588	2.438680165809477	10.77750775477183	-6.35277746503988	-12.361783950112738	1.8124808027283081	9.427573180238193	-0.18242126657205388	1.3726055587445871	2.0787763543096998	-0.09384740120320167
156	1.4216725790369646	1.3303351368694982	1.2876195875083505	3.158894769322531	4.577574718362168	3.516299715701054	2.4068257747918795	2.211729044098538	2.5734667713041346	5.180475221905909	5.080515848684161	2.826290123479538	1.8775711012166199	0.6325852258923472	4.816738116501015	6.596613390480162	0.34065541539015665	-1.1602814168245994	-2.714974873363853	5.7087778900972195	9.181240058606706	-1.4190369808609407	-7.956624487815507	-6.880323392663033	4.313528050022475	12.562918631306582	-4.046301354682753	-12.260341613332722	3.1649274746143066	11.248111696454764	1.7852303936708271	2.6103782587902877	3.2010643401389145	0.849446115733315
160	1.1847581833491052	1.1473978728889265	1.053190943919928	3.5015799910830663	5.152859674795455	3.957386006854264	2.4226989684926483	2.271414035784396	2.9947719498363887	5.749934658792137	5.543142304730497	3.1269447724549546	2.4042992531155187	1.3595958913808879	5.479628072255357	7.052096349077493	0.9410529112898413	-0.6896516663305438	-2.2928650321291633	6.970127564952168	10.04400346127463	0.025969501519201608	-7.244435292073328	-5.877629265250745	6.6215672325802455	14.17576595542057	-1.8015394165330931	-11.65173050799676	4.711884963536984	12.941042867412456	3.745023241124559	4.01959465919354	4.281745422997005	1.8385355426146137
164	0.6652971489321636	0.8311880805964591	0.6691772920879556	3.424714318211948	5.320146547236867	4.0573282139383595	2.0501456208919953	1.9415184210396046	3.2456555284571187	6.078487857730686	5.67531393525617	3.0748464983555333	2.6314873628934867	2.0536541886931956	6.054577812167274	7.168713551541852	1.3056585755762096	-0.46157866599847475	-1.7485773519237675	8.242490747622329	10.573746654517235	1.270670053134945	-6.434590323414866	-4.657116401358366	9.146175361429611	15.424220046201631	0.26422506504105625	-10.745376559784594	6.238309367642117	14.254019701255713	5.4654440741832575	5.410301671673554	5.1123652329116105	2.6637163094979073
168	0.055002685497413537	0.4255897093995036	0.1610531057821541	2.9556219503167025	5.1106996407222125	3.805089940954595	1.3802462781390534	1.1809247702346992	3.2324836172507507	6.1658911549343305	5.495425687266741	2.7655467917237204	2.3952319561566	2.6454946927989176	6.5168070628618295	6.9837622466194045	1.475705381482332	-0.507058917195904	-1.0541723939983216	9.439578032502805	10.765945407388914	2.328480714641171	-5.671994194969142	-3.250307551760803	11.70498749638769	16.2074889727519	2.1956984941359594	-9.708690618798459	7.602399330018433	15.069620094399156	6.843348962672156	6.664437277180261	5.607400880007713	3.218691579321705
172	-0.49225166315728475	-0.05709629118928269	-0.43763422855511397	2.2858219089017062	4.615889060764213	3.2586247838717624	0.5884698614521837	0.16446262556514898	2.930781833878563	6.040280326851809	5.07094048173446	2.3732430874987376	1.764787311866667	3.096581689645872	6.857514840932289	6.591325266409041	1.5902922113321882	-0.6822386962831891	-0.2163213187955007	10.516789409787991	10.70414158979593	3.338063708460627	-4.96261976896473	-1.6873211818055973	14.18924423450031	16.57881732569622	4.182461728026725	-8.594673135038818	8.7836360709631	15.473898848566439	7.958391646319346	7.7712683481467675	5.843484386949501	3.5474986940463564
176	-0.9495447254049066	-0.6482655389631099	-1.1048506470441994	1.6422958332559454	3.9372281928792785	2.4932660993569637	-0.1561070825688573	-0.7749374489292438	2.3940896927470083	5.7308225487024504	4.462296474634663	2.0514728971185026	1.0238214705367423	3.374140015666296	7.065625172895874	6.08261869802177	1.8112978889510825	-0.7523100953181594	0.7140917759986053	11.462202043204277	10.516129467162704	4.491148937330372	-4.193867195984989	-0.028496034371432877	16.561994510797287	16.727512317386232	6.467167361143896	-7.326818447688085	9.865457509882154	15.721134146098967	9.037086463999957	8.80535028141853	6.01799534231945	3.816818227668148
180	-1.425914164757762	-1.4069383108856885	-1.8471587849710769	1.1337417335496256	3.142465106659544	1.548000689412902	-0.777783868733306	-1.3076375689870456	1.726698632649172	5.247169481381077	3.6768422033938677	1.8498251391437275	0.5297916518186851	3.438919773956112	7.1133165179903095	5.49192999406878	2.2353324833699997	-0.5181270228655915	1.6526112514733096	12.269519774930643	10.304362271042091	5.926069244681668	-3.211835853096949	1.6201019246205735	18.816678953346944	16.881420092876557	9.203895545610054	-5.759067044022986	10.96322152230832	16.106039006577372	10.331164333962704	9.860425924201497	6.3482551414429	4.225724209606951
184	-2.0926539845084267	-2.3813950955347964	-2.699641220906229	0.6768737418251463	2.2487227859942736	0.4057268490084446	-1.3299769129553025	-1.2910633054561989	1.034245369207324	4.578676689031994	2.6645858220536955	1.6911547141292926	0.523204921355121	3.254394046196287	6.958703023507624	4.782350528086859	2.8374254631883624	0.07915033380075208	2.506384127964591	12.914095845996117	10.091677640231412	7.637721519260308	-1.917357201503743	3.1199328820612813	20.92514414272573	17.185050920967385	12.333764998767464	-3.7849974536701185	12.140741317614177	16.812704043855714	11.970966308887544	10.979818316394834	6.963643056454136	4.9010043020487615
188	-3.068121663930373	-3.5694913774014747	-3.704706182663118	0.05667100459930342	1.2380766837332877	-0.9769799088607249	-1.9580025623477786	-0.8732188321955113	0.38042098187720635	3.715368738330777	1.3642283643611355	1.4217194282876398	0.9910541151774248	2.811619036251564	6.569772226912676	3.884615411487455	3.477687111657306	0.9332443452161112	3.193743697686084	13.35266109910027	9.818812345510175	9.453536009762487	-0.3313520542362009	4.337569702641218	22.811382236107967	17.62760157902974	15.551508864239633	-1.43617653484141	13.36563106977065	17.826940491490326	13.8771600372902	12.124948470974362	7.84741828844523	5.835082516243174
192	-4.332079399615529	-4.900039183642995	-4.877686965071499	-0.912951288302472	0.09512530988279845	-2.607219212625168	-2.8087007928507286	-0.44705587512632783	-0.22332847061992667	2.6789436272695206	-0.22459883931197838	0.9046105719615307	1.6621925788874736	2.148598903953361	5.958236202455679	2.76873921648983	3.9680232901526025	1.834331030982773	3.650334348999124	13.5508107796913	9.398465132826333	11.093678446417425	1.4030343258720466	5.191783891921302	24.370235381586305	18.064565612960692	18.39628787164466	1.0889755459948027	14.527356111088064	18.960027646832682	15.783638914312741	13.198307004030994	8.854567505415362	6.897145730724809
196	-5.720400318961919	-6.243998988599432	-6.174401267675296	-2.2292785588247375	-1.1517837018497161	-4.397215355261624	-3.9322087665461263	-0.46221238258012676	-0.7931740859986791	1.5481414755835061	-1.984272594210469	0.10800719978958297	2.1424560492783185	1.3522990907859074	5.205728994577745	1.5082973203725183	4.168060292211035	2.5812494689620977	3.836946954576556	13.525355304902053	8.797680832585355	12.29332253213373	3.0789711397635764	5.691932187014751	25.524261410166808	18.322381927007033	20.437332101721008	3.488690129055063	15.505322417212687	19.968130061279656	17.364053682356268	14.105328524262957	9.792921995233744	7.907514075341843
200	-6.999293786497183	-7.453226547497109	-7.482290725890526	-3.6506197360375876	-2.4115891395717233	-6.151339038577028	-5.229010091931075	-1.1862833469957672	-1.3308379616515538	0.4585100400792509	-3.678022852194598	-0.8587878324760868	2.119480127705468	0.5420340285921279	4.460778225126778	0.29468133971201005	4.062294949765664	3.0775771063350894	3.749781360695676	13.37129303417286	8.098147371827093	12.929082837840602	4.5128955727124795	5.943547710671475	26.281162195609333	18.32337565564222	21.467531150023326	5.484308705788461	16.243547398564182	20.696243233879823	18.3950576317796	14.814306221752746	10.522913906232489	8.731599785694087
204	-7.976407984622248	-8.408510186900436	-8.6446771403447	-4.797897803590819	-3.5461587816351887	-7.616109828793632	-6.473149283278451	-2.542534821766752	-1.7948358013614196	-0.4293156553396509	-5.017176138608483	-1.7807946160178418	1.527326222378308	-0.15056642851962132	3.9001421829936636	-0.6158490165420545	3.7789513969379467	3.3619935427660548	3.4415345105065174	13.249368634151098	7.494344215545152	13.085732426983673	5.616103634960106	6.11786697750431	26.752756051230197	18.15595050042528	21.606019919204925	6.943798047654142	16.784910159648543	21.16244120023208	18.86763567929251	15.376654586116643	11.021356554815352	9.341265654821333
208	-8.580481507572207	-9.054841018703666	-9.511868452852516	-5.3525228365228	-4.415725220022019	-8.575342156694068	-7.403948765181338	-4.120390881625822	-2.1116464084717057	-0.9824794506063309	-5.772000775069433	-2.427451366017881	0.5798997864387259	-0.5973027929484374	3.6668131258892815	-1.0031347249453557	3.5383465200734916	3.5632164388339436	3.0392041129627336	13.33076282950224	7.222359639052892	13.02532860328364	6.412971957227992	6.391944869115797	27.11606400319379	18.045740082002364	21.249975150816745	7.931635836602963	17.242238954880616	21.534437125196202	18.98347086881939	15.893113096165251	11.376201600916524	9.80939004328787
212	-8.865062691240915	-9.409930205429221	-9.998311017542337	-5.235510336055289	-4.932529437009451	-8.9444570315556	-7.842039088477121	-5.364483342931812	-2.221278423423183	-1.146210786786577	-5.873754009675812	-2.6529943876042013	-0.3423666945396599	-0.6928209644945391	3.8123948477812446	-0.7834874371774629	3.554388037290681	3.8063967131833514	2.729701750539196	13.721827472374759	7.452664356489007	13.070076909445076	7.001021367516992	6.879069787777282	27.53173058234453	18.242139770227205	20.893873161969722	8.654943444334892	17.72358699138506	22.015861455645762	19.039133023830225	16.445047337020284	11.720529526682922	10.243916485672242
216	-8.945096947020293	-9.541348433246837	-10.11437127420732	-4.656278121636362	-5.093526350512885	-8.811278320954344	-7.769419650489081	-5.84488438084245	-2.1242310947192293	-0.9646688079320296	-5.452468858304152	-2.4566895899736023	-0.8844872690757832	-0.3809612383760865	4.275039185220968	-0.054699983309685965	3.938084353994671	4.1271057024706845	2.7054548195243635	14.409152948239527	8.205015161779444	13.455312694910438	7.480685692020066	7.578075389802746	28.064414907171507	18.885257673266572	20.90500254121408	9.336827254563984	18.2566775814698	22.711309375642855	19.263385724069703	17.032232241543646	12.143772094584063	10.704312297498134
220	-8.913789726640353	-9.525839781552595	-9.955156301159592	-3.9952978986958017	-4.976758467506914	-8.398941018833774	-7.334866982061075	-5.465506539850825	-1.894899482711261	-0.5623574838745259	-4.786137568787746	-1.9755952308366864	-0.8868827797432581	0.30872312110203404	4.904006468789228	0.9406958198638935	4.6489791752741745	4.440762031787421	3.075066797122067	15.254766425718815	9.330609298036714	14.222727739664794	7.894815425013796	8.360753991952649	28.64752190032821	19.9250087234979	21.364677375258594	10.086759541794123	18.755821180673447	23.54641145483325	19.694093654500826	17.55265422204123	12.627123800822213	11.149463625414764
224	-8.787029244172306	-9.410471892439572	-9.650721525622064	-3.5892388730028624	-4.701476562074005	-7.96476314441117	-6.780703527497068	-4.500083911978224	-1.6439504581907327	-0.09182287729445278	-4.179648388800429	-1.4145642483282879	-0.44404458887523307	1.2294701306773195	5.522540078525188	1.9200953196685218	5.518089757338915	4.589184749460785	3.7807643318088577	16.049234349738366	10.572833034524423	15.206468543760678	8.210879305136222	9.009676910541327	29.114210055277866	21.135206169172914	22.053375188461207	10.840622874546563	19.052825879630614	24.28793138093961	20.160753199221062	17.83893389966317	13.039194074134864	11.448539704981934
228	-8.511357285944971	-9.19434449735536	-9.30257127320516	-3.5444793611682375	-4.371492374827301	-7.683221320781175	-6.3261599380990265	-3.4396824749887323	-1.4499673806775633	0.32957196152447815	-3.8292946718810326	-0.9479351615814557	0.1729506398841195	2.1232833808696934	6.000836357224833	2.6833844117126544	6.330997451056784	4.435777652985308	4.581572044249293	16.59960361104413	11.676818818175116	16.118249852493808	8.35303113735789	9.299422240620338	29.27994339226177	22.21305460089985	22.58312791844695	11.40289017659377	18.977945279844082	24.652498182997682	20.379922815366932	17.73525805763977	13.194397893017914	11.449620217979694
232	-8.025230387453085	-8.840567566485865	-8.941228844002715	-3.687000742186579	-4.03271864826563	-7.572898368789205	-6.066890701235308	-2.7354452540952514	-1.3033035960670798	0.6617437584382053	-3.740260591600451	-0.641925214100425	0.6764019114582955	2.690875761867691	6.302577479662473	3.1916875758651035	6.928719026238356	3.957062949680397	5.131008612075966	16.80871959257183	12.491254774981169	16.686706500838866	8.263127306102941	9.088785148561813	29.03297416986285	22.908985080099825	22.60459894195231	11.565954179172795	18.447929335747673	24.444770751271168	20.110443064460387	17.175414995698745	12.945601430633369	11.06863877362908
236	-7.325574856382631	-8.311930635447498	-8.527958848403056	-3.679430713900638	-3.6652388480154485	-7.503041725288818	-5.941271766921117	-2.57352947539028	-1.1051436634771754	0.9451207494715571	-3.73713826189642	-0.4342389989856679	0.9120251513342902	2.7128996780565924	6.485542757826018	3.5644075780521276	7.276398640381301	3.283498040492313	5.129816996020625	16.70914645744725	13.01346012644593	16.782096820422247	7.95314405340657	8.387984254640246	28.387929844709202	23.1212539089096	21.982635442546055	11.23732563996344	17.51628871309984	23.6536330579561	19.285816143934948	16.223813969658924	12.264833419351655	10.348848316767178
240	-6.499816401283633	-7.609230975966761	-7.99720666773624	-3.235298386988517	-3.2105784335139416	-7.273396473640834	-5.7760925147136435	-2.8050513196696354	-0.7318424564004139	1.2678550449786001	-3.5605347066629798	-0.17740447774442616	0.9172863937106858	2.16825079370477	6.660714132658411	3.9994754690282717	7.466586094124756	2.6584789685840065	4.483882415894861	16.438470798950952	13.360219921713023	16.46589465752429	7.516729335880481	7.368617992870638	27.47827332234766	22.91366571363293	20.85394091109398	10.500697109413581	16.36097140949818	22.460212650812945	18.055259659004694	15.059499702579004	11.270988435898959	9.456511473622163
244	-5.696733937185733	-6.789276105905601	-7.313312512053239	-2.3006818236438513	-2.616097682069915	-6.722492201044917	-5.3832354409679635	-3.0580403727570955	-0.12857335773431292	1.7162790255130034	-2.9984567089671	0.27956446934688667	0.8698299505207179	1.2870074478080527	6.933491689342761	4.662337291390351	7.659596900674805	2.341373437692116	3.3870496664363148	16.172506291565806	13.687230075611524	15.94692130830967	7.095386010375667	6.308513625429956	26.496560983517654	22.458934727232187	19.548116634605712	9.581721281655648	15.21684642764561	21.159215873702138	16.717979388943505	13.912585223357986	10.191478703517037	8.616338708104234
248	-5.053312765714512	-5.9517230837282264	-6.5073790385936405	-1.0961377593022203	-1.870474095390422	-5.8088679166999855	-4.658827769914836	-2.9583082124406577	0.6269735082055572	2.3348641336619194	-1.986879939784941	1.011952755280453	0.9664319133200343	0.49107205743783555	7.357648830911027	5.601482854052195	7.992997626151408	2.4988338884206653	2.272236818298798	16.05062862158543	14.10312744394625	15.471176108399973	6.814961416204521	5.492224679431805	25.615009243189647	21.94591516675986	18.42095751879917	8.737492539280284	14.285252535039161	20.03505320259018	15.587018927321365	12.981330838807322	9.272763228846824	8.016964892173661
252	-4.627137172460668	-5.19881580947557	-5.670455441463505	0.004075888068369145	-1.0092189286500872	-4.625054824596052	-3.634138098124488	-2.3327124059909603	1.3377327885231842	3.115575544120622	-0.631342945889075	1.9814194390815643	1.3080893721933025	0.22027172092614428	7.92368457701	6.731736643007661	8.507384278752854	3.131619683942175	1.6279543597127473	16.12875934343407	14.62205597046811	15.204542121646401	6.726442796890655	5.102064119808956	24.925407346737366	21.5016745978131	17.69021029774374	8.133685091463931	13.663310970142128	19.254054974581543	14.854154549288857	12.366179435025957	8.682444550527665	7.734283904575594
256	-4.372058857369816	-4.59127997192864	-4.909712302209881	0.67917090482899	-0.09525796746999175	-3.3471810733210305	-2.4601473746175824	-1.2870228258063658	1.7784997179904938	4.012021531466078	0.8510148503751978	3.051430932923929	1.8537306738781296	0.7175627332690473	8.577639558116491	7.884192446830167	9.12305638870966	4.07242583200327	1.7691796973383653	16.374330479288673	15.17118354781705	15.165306053019876	6.781952364011249	5.149806009642033	24.422338424057298	21.161161369302697	17.35456843762924	7.776442984974523	13.322311367731585	18.818300199680742	14.521221124226113	12.047009437662838	8.44609830631237	7.709174613562328
260	-4.168853749240281	-4.124128331262382	-4.294705380087087	0.8340435603065044	0.8105657676259119	-2.153112882900094	-1.3399434055830326	-0.12824693289802463	1.8240106059752603	4.963579642161769	2.2312779370240357	4.043765534681831	2.457072490210673	1.8951927375628157	9.252905822280749	8.888131119222225	9.676250433333488	5.050651060704142	2.6825909546834077	16.696544605062073	15.63928027972848	15.233674964590426	6.855873567437897	5.480919824113668	24.028776108156414	20.88722032995527	17.2266978782597	7.529887180390718	13.138090100496504	18.59267611577773	14.42414661580421	11.907055824734938	8.445536592141424	7.784698943510808
264	-3.894902696312556	-3.736181964978058	-3.825942983504485	0.6378962977516492	1.6700216489589546	-1.153904315896181	-0.445488094158759	0.8117899874218628	1.53798365204653	5.913074955316282	3.3564085875647014	4.806877600931427	2.951554052530342	3.3559873019364925	9.894977544597662	9.638221716388486	9.994204495946258	5.791944965998082	4.0182733434314954	16.991653399483013	15.933723409478247	15.225841483775243	6.798802358628131	5.846919521828523	23.64535897960785	20.61854738751837	17.05087275968506	7.204349022795875	12.95660397119397	18.385320617033678	14.329842531264473	11.791364640029471	8.480419137524546	7.78265188159581
268	-3.4887289912833586	-3.3515450869818877	-3.4466092499498817	0.4153249849323928	2.464298957324996	-0.3722684075970236	0.14090609514900704	1.3431285585824981	1.164345619122993	6.807235223749663	4.183147896695647	5.26482485395613	3.2290944971573787	4.569952953244693	10.466579410830287	10.114416096900078	9.971310590364412	6.107625945883438	5.245746122467434	17.180435137287635	16.015350301362	14.98991294890948	6.49701212196332	6.014456256940202	23.19822114809516	20.314327188701487	16.637275653795697	6.661448938717347	12.662301985242674	18.040016128769743	14.051593745040714	11.572500199664082	8.361296632637314	7.579141597685796
272	-2.971308462270506	-2.928851358648452	-3.088642350981835	0.4592826652852012	3.176385156241263	0.2340338373235882	0.4412477601354987	1.4835343323445238	1.021217701240948	7.5888972090808435	4.756450164230132	5.432532773607171	3.273659936269105	5.130849825302685	10.939765902555527	10.358075115755113	9.614444708391876	5.9387407152917655	5.905619129529442	17.22846980513511	15.902762372874287	14.478222810430864	5.9165830462803255	5.866375431508406	22.669633808121123	19.97705645285868	15.948439557817556	5.88309954111584	12.222158401148853	17.50194926611456	13.52869125765242	11.19871995005847	7.991157034725391	7.14722822292178
276	-2.4246683059510548	-2.4878206190240326	-2.7203845909100095	0.8774059988757662	3.7783579730960613	0.7291907649703412	0.5568844065911334	1.403984185488789	1.347634192878984	8.198109606071782	5.159960733737488	5.399311052041878	3.1428651730342665	4.958459841607069	11.291051836116857	10.432180378324363	9.04135892492667	5.351905809241643	5.825182423189557	17.150831179232494	15.65547271590586	13.76687046389922	5.116998182729015	5.448982701849331	22.1055602469232	19.650762508369993	15.10324855805937	4.9759130352275545	11.692741364521634	16.835309939794733	12.839300123223532	10.710180255552167	7.402935963059872	6.554776651999364
280	-1.9440627049000632	-2.0976989216294784	-2.3662128388745196	1.5570560654428958	4.236231316361429	1.1652463645125646	0.6215454324288565	1.3020722833184184	2.1831860487177215	8.589838006266845	5.47349070120762	5.294028268799391	2.92699407792194	4.337133396642564	11.508902520686467	10.395603153685265	8.438319184933086	4.5062141304686065	5.191827284102589	17.005863146761588	15.353012999872622	13.021222081687563	4.234151829519755	4.944226729307799	21.6014193943142	19.40338320601605	14.308699571723128	4.116561402417961	11.190077753425015	16.191020924697774	12.149377792201747	10.217113469077315	6.736714346089576	5.924741253199425
284	-1.5954923589478431	-1.8367150975584798	-2.0882263130871106	2.256382221247152	4.530733573918663	1.572014566267251	0.7528138141698845	1.2880706754588718	3.345113030571125	8.762257553866196	5.758620247606878	5.246895776852959	2.71780227928628	3.7671050930280363	11.611249894390467	10.305434200971026	7.998348215890096	3.6098794845993094	4.452023494924272	16.882699923805944	15.08377929693909	12.431272475327921	3.4432148846477824	4.584321964133707	21.27391619079536	19.30746455086271	13.764455760536176	3.474669686127815	10.840508433628882	15.744872053448702	11.632690400317781	9.852497075954915	6.17346619001042	5.383654103991809
288	-1.4053940737527464	-1.7470941499469215	-1.9421464155753725	2.7585377623529888	4.679043281185819	1.9653688619583918	1.0174416277946712	1.3531624044586543	4.513185012866778	8.776804901851929	6.0670094336874	5.357074724023515	2.5974287921176598	3.702423086355405	11.658122033249176	10.235073063758534	7.864138106518251	2.879916660667142	4.08330105704295	16.88151355295933	14.94157691997878	12.147895782317793	2.912809126175527	4.54685972973122	21.2249354780284	19.425601910183584	13.589014019035764	3.1529104630021907	10.733849498351296	15.633995970354615	11.403900117692295	9.719915365474222	5.860472664341913	5.023679720592795
292	-1.37359189640384	-1.8126559211742161	-1.9384995649986423	2.9890906735293212	4.738170611816566	2.3557448327669155	1.4149385654965323	1.4241011106775616	5.37368582322474	8.749926544986195	6.448030455522046	5.669282422057288	2.637571089761061	4.313102234441274	11.742442101395664	10.280357334884437	8.09187887056118	2.5051209863357	4.35841463895944	17.08470149495121	15.017393074267344	12.24232384451835	2.7614457537549484	4.878024565778654	21.504070227689862	19.79819292791964	13.794303859215699	3.165231219883315	10.89406582942872	15.91275211131342	11.490262956219366	9.854904149923446	5.859294876564125	4.887725817737803
296	-1.490031119399349	-1.9714500854308923	-2.0350670763133656	3.030187837579614	4.781068789808844	2.742409937610382	1.8780409050255533	1.4518175088467202	5.748607620984208	8.811176277802746	6.935329896582993	6.1588311039878	2.8885271476296555	5.400063024238466	11.954867332792936	10.533369037736854	8.640053727270434	2.610040896501711	5.2223133908981785	17.523120835885326	15.375532111449068	12.694231954949657	3.0244774742059692	5.478433118339916	22.0800399222806	20.428510614316522	14.30543514454631	3.450685730805068	11.2744998647231	16.538228946892445	11.842744797370452	10.212902996981011	6.134339317092849	4.972989069780835
300	-1.738869305035131	-2.1526043360721543	-2.1626157706019318	3.0398774070284165	4.8577155944249	3.0982873361564582	2.292330497676167	1.467540856470902	5.651270852125956	9.044092155510588	7.515840988256992	6.73126791208233	3.3492829715090835	6.507482989093867	12.337080924357236	11.03146931724099	9.381889319574725	3.218780747870064	6.338883383959237	18.15098185724935	16.01907726058111	13.402990307347226	3.636741390583125	6.155171855644988	22.834134997891343	21.267600959488064	15.002287826807922	3.90350364653193	11.775875061821507	17.386112169239052	12.369614569904979	10.687565776544321	6.580652220323927	5.24248455631356
304	-2.0828773922784714	-2.3090782107228724	-2.262307638178603	3.1322419564320594	4.9691510075041485	3.366423598373156	2.5372095043973846	1.56868087849338	5.247234808071585	9.443430876731359	8.108959177524893	7.245788555924893	3.9390511413304865	7.171014290824373	12.851546255089586	11.715057343469198	10.139177296788734	4.230109680939873	7.27651641915908	18.847652387716987	16.866348224018125	14.215013468138862	4.439063060997033	6.712910158375017	23.586765229755784	22.21072382087644	15.757628401072747	4.401206959102864	12.27953430890194	18.28957362325686	12.969784703887742	11.15117070243682	7.071357232360162	5.634787545282807
308	-2.4453573165189373	-2.4266815124279058	-2.310207122692068	3.302469722039263	5.074280249182082	3.482484331875297	2.537623875886817	1.8441301537683963	4.757358539014215	9.91643140196537	8.583167054440427	7.561746101361307	4.49907873925127	7.16399429419903	13.390404667425388	12.429370848745808	10.731338473882538	5.423249230997554	7.729707698379872	19.45462221955856	17.760698273639992	14.960216484445882	5.214350687213448	7.038120728843002	24.155759750413935	23.1161918056509	16.45835681574645	4.824350821712508	12.685018507402118	19.088066052881484	13.552869762535224	11.501173944045822	7.501446704998656	6.071841701436431
312	-2.7077162197414326	-2.5080637868501205	-2.315245384092922	3.4421420010445343	5.126668440272959	3.41825293631603	2.30747198475952	2.292212718898388	4.357207287277918	10.3293790556469	8.814503647484287	7.595729808703485	4.840946185287551	6.608007891183815	13.822386706740012	12.982130017882453	11.028683634569802	6.504225714474405	7.662385921206093	19.83629221676388	18.51905436608568	15.491610487926017	5.745332703389937	7.141550046056233	24.425928054175188	23.846069275731963	17.011484103168296	5.070787417007063	12.940284696332828	19.670787761615333	14.045273745361847	11.69544026283025	7.813892821610929	6.468896372675175
316	-2.7423481871985507	-2.543307536379669	-2.292054170543686	3.429620495720313	5.12369202273897	3.22552847047876	1.9644201944345419	2.7937855649983714	4.1221709147329	10.580358478536185	8.765309311670991	7.368333321087909	4.835266101073376	5.8985833972779185	14.058623278409197	13.23766991134128	10.997534724125984	7.191431027375609	7.303587895073397	19.94097513886286	19.00578875511558	15.724251707431428	5.879025921283596	7.1415452776846635	24.40023606815607	24.317922530766232	17.348201707908984	5.072419630595471	13.055374112546161	20.004045435944835	14.392862283607805	11.762603730067905	8.004014948663874	6.751837713360963
320	-2.4704656538578886	-2.4956145223551847	-2.2335870209568043	3.233501187743787	5.13198994294507	3.045987359939626	1.6986982779530204	3.1654021660040996	4.039036263758713	10.657574626717699	8.53584287395688	7.014236909323225	4.496572483154082	5.486893640016554	14.10140796915811	13.197617497501973	10.71946618234757	7.310612660070309	7.003470879992497	19.829698512556895	19.196767758539657	15.662654837164583	5.577702985032644	7.193888169245626	24.202428756643766	24.542545256639546	17.434207872242624	4.815757262469067	13.09395309957034	20.13454241437513	14.568299256736646	11.783193558507133	8.10773275235709	6.880683881553725
324	-1.911627407015951	-2.3161480368311214	-2.105288738657435	2.956398956464033	5.266238199289476	3.06818889796951	1.7014443831401789	3.265737525324141	4.056544293652253	10.648076030550275	8.347660997295764	6.7423939534665935	4.005931844134041	5.639373288221668	14.04536052972442	13.017811742340704	10.370986912292338	6.8605117624640295	7.0325436414547395	19.651151607490103	19.195634793454627	15.402240714286908	4.934307562767901	7.40619848288806	24.01971620217343	24.62184136849989	17.28264041351885	4.356022823779932	13.14257809181818	20.164205500237735	14.57995601787665	11.848118752129833	8.180649736731098	6.866866094418201
328	-1.1915218800025607	-1.9759826610267484	-1.8628783178980026	2.792035811050763	5.631967530336313	3.4478189858171886	2.085108990173228	3.0943453233795455	4.138820637743842	10.693161937418866	8.456512429821233	6.7592253514343525	3.646115532252573	6.311015589992731	14.029341662272188	12.945610013702195	10.16578957852086	6.021527275141343	7.4369997790444256	19.57040972536974	19.189020108412734	15.098577461269405	4.142323960336315	7.776477317249827	24.006057678648343	24.701677260021956	16.959094958403103	3.811131467733775	13.266098942641573	20.2035464730388	14.474305116348958	12.01011463947718	8.27373597917186	6.77162502486496
332	-0.4943047451413895	-1.4936531744439152	-1.482490297389274	2.9188387320257823	6.261829837248261	4.229068268588986	2.83326410531923	2.8187544274689005	4.289255608219743	10.912923785313726	9.031364418115965	7.185628872849242	3.6730565932044508	7.1851682481555805	14.162655794626032	13.202816929861893	10.277082417290165	5.097716795448594	8.015211085110217	19.683219859972617	19.356971691851	14.909909210708149	3.4309577855271174	8.18125818094343	24.189828811607217	24.896776136482504	16.567184406414068	3.32900404089622	13.466482128475986	20.319194742400136	14.32233329971605	12.24863049275682	8.41019532941327	6.681110842049053
336	0.01950263040804266	-0.934894440197907	-0.9798912977274283	3.393550387397685	7.084417325253214	5.312113748490058	3.8079230689229058	2.7068705490434946	4.538807380660974	11.341505975698945	10.062375043259497	8.005987147145223	4.185893525045649	7.847702006553645	14.465375863746992	13.87308403327217	10.770238849150534	4.412611950223972	8.421072938638737	19.95925898281084	19.78133005869952	14.933590851273358	2.9885401650315657	8.419498422346326	24.43494027644247	25.22282021830092	16.213594395710118	3.0350983066223916	13.66402717955194	20.49568171094869	14.188970529972192	12.464107481958887	8.569704987824023	6.665055258135732
340	0.28971332238484665	-0.3790963282550625	-0.4033734192200749	4.107658375859629	7.947975138624698	6.490462763611936	4.8138012764510565	2.9953534527493493	4.910153853417262	11.908612221215384	11.351713151881672	9.074712730384451	5.066468226038964	7.995514849503207	14.855835877104436	14.8545388800374	11.576313943245761	4.19688795937458	8.342552163995673	20.247146555326182	20.400033899300528	15.166035613870086	2.903783790886424	8.295317628897644	24.48435204999936	25.574277813238773	15.966941793183441	2.982225887398582	13.71550938004452	20.63108439005019	14.099202120469831	12.508332220921938	8.68721101474903	6.739153844984783
344	0.3876705755936441	0.12755183843357018	0.19443215380693468	4.832763182836287	8.688995339390521	7.5421981621101235	5.686905369705665	3.7625043297187295	5.379616246946339	12.47641274163241	12.596896139765718	10.176875088746778	6.0278124657077505	7.571962814287173	15.192582092074547	15.903525312325486	12.51921364484466	4.512628067067403	7.660241584511067	20.34303469290147	21.0319518511963	15.506217917393531	3.145320169137077	7.703708629231646	24.07460015894404	25.76418488673391	15.830823858346442	3.1279892842473616	13.469520534840386	20.573854394467144	14.021180117492989	12.243124930942109	8.671480156939625	6.853332025391092
348	0.4789572346038901	0.5979523643655595	0.783097324778393	5.332214342006203	9.206358886363113	8.326025941808394	6.359420283474036	4.872654425716529	5.865027412865569	12.908827749085589	13.52487274569917	11.113353701189526	6.753603918190488	6.765902502143812	15.347774466865829	16.746683078446228	13.386169399796922	5.241200910686917	6.505821688438881	20.092073389824147	21.4614657813863	15.804244955215305	3.58503936816117	6.683054907138139	23.072736681859244	25.611877376742477	15.747908552464475	3.35374235260134	12.840583768850173	20.191554972214583	13.881517375230858	11.60623738219609	8.443180062911535	6.915764314357
352	0.7363049965388357	1.0871107550830679	1.3582889999428422	5.473431096562995	9.497269606453829	8.83005521452266	6.8658742731316424	6.022875770621337	6.242625220750117	13.133308377486115	14.006880724828896	11.76936432727984	7.053111058547587	5.897319301974714	15.271918258256077	17.20214648672012	14.00978657046365	6.134501441726228	5.207092272009605	19.472469280670726	21.539205496766193	15.932276685543911	4.053670396107019	5.418128476768539	21.569057410142975	25.036359723776574	15.635179480178287	3.5179123789660256	11.868993729188945	19.4428729520101	13.608719791385914	10.656702014720391	7.978813151242152	6.842001420866477
356	1.2487014500562552	1.6381996828680327	1.9176522444946362	5.283794389735873	9.635437941065923	9.147643066198855	7.289336662962161	6.8705997293575045	6.388869746290308	13.161506619602422	14.094075167357776	12.135002105592534	6.946046811686551	5.266476617867975	15.01473232293129	17.246934847202745	14.322967493134858	6.910103303629105	4.1552538766855065	18.617587996207998	21.24657053351577	15.841640432415812	4.403230655997169	4.191040028481141	19.87283892382493	24.105029998955104	15.431929549355994	3.5195350558112937	10.73260781439447	18.41652102589045	13.182310071087983	9.574598288204394	7.336757641388577	6.603369696157684
360	1.9698445747232758	2.226649755578201	2.4285669265466807	4.9286308164138255	9.708643888757074	9.399222350231646	7.685597400334501	7.180638772001245	6.233698829171091	13.063101735512491	13.961154902495613	12.276282279491207	6.634745581088233	5.038246618901964	14.693338357067926	17.001201586714764	14.364451372119477	7.350325565853833	3.652196398097206	17.76236529634086	20.69313044091893	15.57782550693442	4.553236949868928	3.292423239978446	18.402660323410796	23.00999254139266	15.134718856747003	3.3426663791185622	9.694891905149216	17.312520937125047	12.658739058005576	8.6068258068221	6.646600229648391	6.247136577092487
364	2.734201901208376	2.744546883329474	2.8171777654092827	4.624406326062534	9.756977056664828	9.650435423327863	8.03616998550896	6.922564965890124	5.801794514313059	12.914190259753202	13.795762027241803	12.28096768139588	6.381916983704103	5.212821470450952	14.427861177257235	16.645475345547457	14.237770044619493	7.375330429529716	3.8105657004469955	17.138637499453708	20.051139780918707	15.246619186054327	4.506277549810487	2.9282874987103003	17.515834764126378	21.980670873459218	14.799200974293324	3.060617677590676	9.004940010223697	16.367469746273766	12.155273406810885	7.977112749940293	6.061012729600979	5.8755855411958455
368	3.329435816941883	3.0432484073098225	2.9946010037156046	4.53628777312339	9.751912092383183	9.875652288298797	8.258673647056568	6.277712329273591	5.22642086616857	12.753632513271365	13.698176349387598	12.210762946770885	6.364764674329684	5.671237454400984	14.280878984635164	16.32065768889684	14.047751391229614	7.063884717272828	4.534865844721218	16.870428042733412	19.46495241972779	14.950645409030592	4.331603516132844	3.153544894839578	17.353561357553655	21.176546043336117	14.50726028594349	2.7977216173108217	8.79179570839367	15.75502487019553	11.79578396680054	7.796313266143838	5.690165028510911	5.593802437964409
372	3.5878412632956977	3.016968957913281	2.9120602534204596	4.7115993380799415	9.629484152323633	9.987704251822045	8.269794443232104	5.556741223610958	4.72309302091225	12.573268858636407	13.646677936431681	12.084218948372117	6.5899963212524835	6.2537321886481	14.23283954841612	16.066034276453763	13.848532641732593	6.613585455409235	5.581490979407846	16.92038341064928	18.98469157194131	14.730751000406086	4.125771035268244	3.8537375829673914	17.776285126627982	20.61582941572347	14.316192590808214	2.668026678978602	9.003103233494935	15.507857283539295	11.64470192830259	8.01279352072423	5.5507731297539555	5.453608975946537
376	3.4492173107800888	2.680285208610738	2.612139695248243	5.070225225998961	9.354363417849788	9.912267659910453	8.060118654882091	5.067591654380854	4.521624553708507	12.343621222802637	13.542047466419968	11.894183128844587	6.914668542570216	6.828629476472747	14.204056703945334	15.824680288415664	13.62949558631637	6.258718951635998	6.661985857356128	17.11360545605988	18.558410597675767	14.545074426167842	3.968945016377082	4.7836918710094976	18.42397685167729	20.179096170976507	14.219438516955814	2.721359484477494	9.42387769227145	15.503702124553204	11.667520493613631	8.431385972670316	5.56175278213102	5.426266179689887
380	2.9713613911949333	2.185508007253729	2.235663885194114	5.447980390145318	8.967286087284096	9.654317831460151	7.727084140342062	4.992434965880421	4.771683204047629	12.051301925750145	13.294362034611233	11.639069527804116	7.152642708839506	7.312406521454941	14.104762995394756	15.502813300092557	13.340783085519421	6.170685275710801	7.528997879092914	17.223607973482345	18.082221939210058	14.29595180716791	3.8919803997958864	5.648252472922151	18.874050092728464	19.68636698520881	14.141453707277218	2.9201710150424383	9.771256422168328	15.526298483749084	11.741750687518016	8.7964849249956	5.590456948470902	5.419348226216143
384	2.2926962317755852	1.7592592194962857	1.9674646804726927	5.668241009706401	8.57965467194197	9.310502028800371	7.43921421080153	5.324726568129844	5.459188447520585	11.71981140992448	12.893583265176323	11.342534036609436	7.19732139677602	7.655478458149802	13.882749522444543	15.041588745287799	12.939528432601827	6.382542594054086	8.023900011785058	17.077396349705985	17.476871446353655	13.890115702845868	3.8677623174290527	6.197995647040774	18.825418424760425	19.007959317854244	13.972720110901472	3.1587445656180764	9.8233785381256	15.374602278992919	11.716995209675243	8.904298759867439	5.5274257520358026	5.330016599549594
388	1.570815440026687	1.5864689310073683	1.9429629992067337	5.6075882770104135	8.313324907294565	9.016672111634506	7.347999077364833	5.886289104859007	6.376895411603744	11.398735971281994	12.419901816482117	11.048277827025213	7.084616166347683	7.823400477684336	13.543791736740271	14.457847558712288	12.429221121878511	6.767210943302619	8.092046717240445	16.63003726575245	16.747102695144388	13.299079861442582	3.828670253623942	6.309928401274773	18.224878265143833	18.150434448193113	13.628354038162515	3.314713946556689	9.52165791968571	14.967039070488227	11.49519631344568	8.693844773277203	5.349454866254667	5.10693071983329
392	0.9286881661809836	1.7049503283370158	2.1668064539562195	5.235774027003109	8.220519998776432	8.861950851954338	7.496851902153812	6.411396964098423	7.175637703898637	11.129789324316976	11.990166633851274	10.79426095144584	6.960652810642594	7.789755801560784	13.138908353057914	13.833739245773849	11.87041851861406	7.083477002379611	7.771551112580868	15.976430852607725	15.992258031522844	12.587758032488985	3.703478565402423	6.022111400658668	17.27978129792548	17.271999315523253	13.099957433051275	3.3077375805312115	8.995957351860145	14.38770672026633	11.087685557028257	8.272639253710762	5.134557234198354	4.785194384891202
396	0.42946061383537865	1.972289914873657	2.492531770135185	4.624129283674317	8.233675935938042	8.822231270450617	7.780929068947572	6.655662519817161	7.494205932769622	10.913406344516611	11.676568001830535	10.583765956860102	6.975063783201424	7.545608024619825	12.731684652609005	13.266677822950172	11.357004136975736	7.080451470618452	7.166237336185555	15.300283393377335	15.363944968533987	11.89592739916489	3.459749451485309	5.507339940471524	16.354833561613287	16.618207889561614	12.47360798547494	3.139094106378138	8.500052430626832	13.849983180364186	10.618171665086225	7.863721350843034	5.019495474540127	4.476157653951474
400	0.08045677820396302	2.131264442784968	2.684072249311626	3.921863307587871	8.1848668845476	8.759463288126181	7.988120058872463	6.4871020153294054	7.1206459819305445	10.702825519242612	11.452874154739057	10.376152966051267	7.170444947258916	7.114350777783841	12.370028464557254	12.81517693145094	10.973559351872062	6.62070844886049	6.4182133512577275	14.791433297005806	14.996294937418757	11.38303372370201	3.132568351466025	5.000202166330781	15.80667205634443	16.410722691110852	11.903269737708364	2.8942241595629037	8.289820650151757	13.595455135352509	10.268590901198323	7.699483852020633	5.122637735784845	4.316083420346834
404	-0.1471655365089359	1.9431692312771358	2.532470696731126	3.3086059009941073	7.892156104189212	8.492611863629017	7.9012312689612205	5.929377540876929	6.109793170761999	10.43501088368831	11.205035181365767	10.10510728192114	7.4381880572396675	6.56021497977494	12.080192535418414	12.475152937863617	10.75746819641178	5.764063820591181	5.69086121076013	14.574036561409661	14.947318993023366	11.164439173167482	2.825206511040257	4.709543693096117	15.836132009578156	16.74598498884838	11.551967591683695	2.7090916565207968	8.505880334359677	13.780631030575904	10.196454022413167	7.915008048101242	5.477336392878819	4.402676094383579
408	-0.2974284283758049	1.3191921677661618	1.9674720714486262	2.9332339689584317	7.265773278011887	7.901855448799733	7.407333355321718	5.143439279921779	4.788169848750877	10.079679463686999	10.801343890575907	9.715337728767029	7.571042041737007	5.988680347581451	11.88092038015981	12.198509185510318	10.685329410277996	4.76900862443402	5.1511659492137944	14.67486663928009	15.179944953739753	11.268630952994755	2.6760334901003544	4.747312056953398	16.421611744428088	17.552608445674156	11.526614160046046	2.713394635025558	9.115407920711393	14.40590759454899	10.46446702222478	8.489778497242128	6.011836513599648	4.750863540098728
412	-0.41809603466332684	0.3783073415741627	1.1036652298718994	2.856420032918848	6.374487860798055	7.00780676026109	6.557494623794259	4.361093986944619	3.6306857971078137	9.674327825916468	10.181281064077451	9.198858237883513	7.385937195250007	5.526490674370927	11.800094574699813	11.93957230414503	10.690722438523657	4.0028791326549324	4.939015376018954	15.036177597230171	15.58909507630294	11.634154290389768	2.8034522462636384	5.100424276826036	17.353935197884745	18.62559504574833	11.83701321474332	2.9766189976880066	9.93779466027325	15.32047935432488	11.017004938920577	9.26402566478197	6.586780054628524	5.288190351486249
416	-0.5575739131201543	-0.6019543990196095	0.19389030288381084	3.0154712124031464	5.428207383756031	5.977416977095973	5.544188008615796	3.8003029727354796	3.0545887869961565	9.316494918189537	9.407423949332033	8.609408356864408	6.8460774248845055	5.285655485159642	11.872259110040076	11.695967644725892	10.701605769795007	3.7909042739524463	5.123577104984133	15.55240722544342	16.053768117427115	12.142834632733402	3.2515120424193835	5.647881493614005	18.340398742147094	19.713718364534287	12.395356146988426	3.479814520633258	10.732801410280212	16.29346080481023	11.710719079014819	10.014415715682828	7.065779668134742	5.888289913569777
420	-0.7580268363887785	-1.3144065108492282	-0.48539879795547036	3.2336192049401444	4.683225619889859	5.0534877649511305	4.612873065746193	3.5945415406072723	3.224804631674435	9.112900710939892	8.649668671704166	8.048322657292243	6.1080422247214985	5.330219255341318	12.111940353331423	11.518226594454429	10.677666637165018	4.272859562576325	5.669259057036594	16.10555454002586	16.485147434575293	12.669256178340351	3.9618382353891657	6.213458045530788	19.119689893133675	20.613977380205686	13.052359548039613	4.123291958889005	11.300689668734126	17.108272509295997	12.377919165831278	10.546729061201658	7.375892143700661	6.420407755854238
424	-1.0395063135604965	-1.5630701740855486	-0.7564007620787665	3.2846057332080223	4.318192947929398	4.445627201300284	3.958276977082117	3.7610471153669396	3.9705734152682344	9.111199355963718	8.109225252658499	7.630113105583228	5.462216840304687	5.648280129477256	12.476851431816849	11.482324571229643	10.629186603412906	5.33589504802108	6.427871687872747	16.583085971925676	16.847902255436768	13.12255760694441	4.787693488431035	6.630141241500248	19.534744213374825	21.229213661000998	13.651716197832535	4.767859446885652	11.545420617518095	17.63203044254395	12.888700452688651	10.760585757744241	7.523526649553506	6.79088113977606
428	-1.3837742770544015	-1.3451944555651973	-0.6088476761704795	2.992704860760797	4.34381436204928	4.237584103375836	3.654330244374777	4.212205399368866	4.860107886441566	9.25164697218627	7.920693377524144	7.440618496228892	5.194674478767032	6.13229082466638	12.844949689859659	11.63873669546853	10.60520741646173	6.6557569335742475	7.160898190538634	16.876766162224246	17.145990328414637	13.460182155957714	5.544980035133572	6.785188657795803	19.537897060656903	21.564914648922965	14.074576342333764	5.287314878465999	11.475501985187298	17.828939392852465	13.179198231801406	10.658194515021798	7.559616069780992	6.957368356305183
432	-1.727007861545486	-0.834737715997806	-0.18335661245783016	2.327460998380928	4.597410667256179	4.359774101694044	3.6485776809127386	4.8011588929075355	5.403244958587122	9.373414969620535	8.08615205630562	7.505805950287943	5.4420723777700974	6.591651899861585	13.0308169989607	11.969325035393153	10.657837840828362	7.83056018759668	7.603562335844354	16.879938082992606	17.387714342086568	13.671691860013546	6.0769324149245545	6.638103468347822	19.14701838427561	21.678796713454776	14.2564305899215	5.608186707642448	11.156524630035609	17.7244414835704	13.238940205527525	10.304944966047945	7.520375709620054	6.917684060751079
436	-1.9748569677083625	-0.2834086112973252	0.31497883717167385	1.4455436431627922	4.825008380152009	4.635917175032495	3.813129415421602	5.381492124321974	5.283528314602268	9.279944396431233	8.474204042020219	7.781755427740651	6.118673785973953	6.804440958009647	12.845764127723813	12.377233473999512	10.801137896924084	8.5449323438436	7.551382045753929	16.50016780502077	17.55397029259455	13.747693027119025	6.301401599233313	6.2128014407656	18.393512679390923	21.618867819563114	14.176530802220396	5.720335945945724	10.653276416584507	17.353895143563555	13.075683560737072	9.774034475445005	7.386451225705251	6.69014499882556
440	-2.036211723908742	0.1026599628121548	0.7190510016406865	0.6421388371467607	4.807279097817621	4.872278678036814	4.012300004365766	5.854993328570834	4.499307144249472	8.833166100134923	8.879652954570778	8.163473108661673	6.955769521317765	6.59469412092324	12.17805001045211	12.714221922245379	10.984177561684122	8.684161164292862	6.929739934591491	15.689308126892211	17.58710475296011	13.653456653455581	6.219054206405331	5.571902737854906	17.29884524746231	21.384342139613242	13.832254374866954	5.655068860081454	9.997702573330004	16.731967883781234	12.684538809222177	9.109932876474728	7.087950211749422	6.299786551782557
444	-1.8615314913480585	0.2474069142055654	0.9644988154855594	0.22379976454497577	4.46571825807329	4.9423069829137205	4.152288426406128	6.190403445827033	3.344443789621277	8.030293444386103	9.112100578190446	8.511318185298096	7.632889251511278	5.907633766517764	11.055801363688348	12.833932844184348	11.096150370239307	8.348746278665095	5.8245739789772255	14.47812648932515	17.40785403624959	13.326361622543136	5.8855109066187845	4.792008864701878	15.891578634194028	20.929361290542232	13.219944920541305	5.446709142284758	9.198268867157463	15.862372358327825	12.044791191208478	8.329533555935281	6.55482338204075	5.778892025662386
448	-1.471600051979147	0.2107966387910242	1.0875147553643356	0.35810196309276665	3.8920104405367772	4.823738085965763	4.191517342475297	6.40992449095761	2.245279783302161	7.019093495767262	9.067465759272377	8.686659790995538	7.931627253534137	4.850184428367254	9.656355833469167	12.645359961054492	11.004853220811608	7.770105342320846	4.453814495285961	12.992110219578446	16.951045947192956	12.70196529996187	5.368422971522939	3.947850455807172	14.245838129315919	20.20214647914585	12.336884467448552	5.102555738917823	8.276490190590687	14.775587998278722	11.1471633629694	7.4527554323859935	5.781572804159035	5.177302347463236
452	-0.9598483419026351	0.1245148625806421	1.1684732407632676	0.9726871227501948	3.2885427391947863	4.577051151163784	4.120154847233107	6.555826170581919	1.5417718848403104	6.03919170762238	8.750995613892188	8.588251092208353	7.83007381369654	3.6631042864821417	8.249996164473496	12.142088859419855	10.612900707152756	7.181585770595046	3.084776155312885	11.429812402477946	16.199949223625428	11.755454033735859	4.71556423904039	3.1024529855600034	12.504353491683936	19.19074435157244	11.201857538551524	4.598131168200405	7.297429543190752	13.559635128118728	10.029687856147198	6.532945616440468	4.8612651702216025	4.566382873450239
456	-0.4632644343600786	0.10329772505906068	1.2635998693988284	1.7640888646409525	2.8565893101095825	4.289711941378991	3.937016000344414	6.652897341143722	1.33181583545127	5.317557798311518	8.251890161661096	8.184320429165679	7.491310100715166	2.626372807547513	7.101934415052738	11.400338144129512	9.909268354192928	6.7169236967254795	1.9407328318234482	10.008116696838869	15.204800567385494	10.538393947697312	3.9562826056729676	2.3055927695237863	10.86290166019588	17.950309708097794	9.88160607704109	3.9040059944768286	6.369569285523608	12.356914489065462	8.79710767432264	5.662784085281702	3.964218129639749	4.027233590448668
460	-0.11530065507388407	0.1802984173514156	1.3657392228930876	2.326892131652628	2.6908204487574787	4.0217552083519035	3.6442394164583596	6.687085611626253	1.459245201241297	4.967739569519431	7.689865569726802	7.529152851168939	7.156594735196716	1.943561549048057	6.375553591843948	10.549804660864304	8.990769363591994	6.381784422974457	1.134920594211017	8.895096756411668	14.077033961040938	9.189294791862737	3.129576675143012	1.5943167169372616	9.515033697900677	16.598304706628465	8.504326798902174	3.0289382858096974	5.6103844500990565	11.321472139384781	7.60751817689882	4.947675215627218	3.270082703917297	3.6253628639242312
464	-0.0011305517954147838	0.2967469684738084	1.4134999477938655	2.344100707811573	2.7336947848919073	3.780681600562118	3.2614326394707525	6.614267332543744	1.6432698923584055	4.941548334996934	7.16314886191967	6.753911478156753	7.001265984978532	1.6601743656204744	6.079609378723948	9.731225942838243	8.039096811978622	6.103509410707064	0.6564121229765078	8.159764269254532	12.962327924426589	7.906771163051237	2.311487430458611	0.9920616124855196	8.581773736267674	15.282644233265618	7.24526784974945	2.05015277344935	5.09505890513548	10.557283374834679	6.627482874349978	4.459221828646332	2.887541048388981	3.3830935869632706
468	-0.13246877458029002	0.3450370124211779	1.3379318680362313	1.7464576915516168	2.8111042905405834	3.534278383868553	2.8430895733577777	6.391958220556193	1.6639946657130629	5.058225142105918	6.72175596447451	6.029130920446853	7.034329396607701	1.6614086586013668	6.083665355581384	9.058203674334823	7.258932572157576	5.819995388595719	0.4180083264287613	7.763393859336082	12.004706352442495	6.892148477319457	1.6161550242628016	0.511479018827353	8.066284159322091	14.143160784299276	6.284370406496771	1.1081702681219388	4.820716845739017	10.075674031568205	5.9774002877954775	4.198966492541939	2.8068246770565155	3.2682294763066193
472	-0.45337590460751787	0.2357136601218907	1.1152049274898592	0.7583588938639838	2.728861563468563	3.247191182521235	2.4792332586636334	6.016897186346881	1.4919644556524023	5.0968890061440435	6.37108181298561	5.508336053292496	7.098178368767055	1.755841608382783	6.191555484398343	8.59407518124394	6.801509840005573	5.542993054700356	0.3300002805007527	7.594649295705725	11.314151735350528	6.283587439884978	1.159511563234624	0.15677455028052814	7.859899977866842	13.28490921481088	5.750792965674735	0.36087888388119627	4.708706367048427	9.799559568459173	5.693969712186608	4.095524300725469	2.912437431611646	3.2081084170406857
476	-0.8658436514928489	-0.04942719625868458	0.7923278192542947	-0.20190423676059602	2.3800506531706374	2.9166212008271573	2.2694029750747515	5.55072306185247	1.2908894983124726	4.90701578808705	6.095828994619277	5.273381696738482	6.969927770183386	1.7962309076735101	6.235538943759951	8.348643281839182	6.707923872224277	5.35376547415394	0.3566394737299277	7.530838947356088	10.949236842167846	6.1113519514282295	1.00072979674403	-0.07553632538321031	7.801128367755216	12.77394291513659	5.679768547976858	-0.08353353270659765	4.645695197773921	9.616847013988838	5.72865198596379	4.040119637779415	3.048080913477431	3.125382653928625
480	-1.25815236250798	-0.4414673734486192	0.4730791735625937	-0.7201105338035387	1.8101806594922332	2.5874388152599477	2.2790734710372744	5.114912973841458	1.2943097320303387	4.484049785736968	5.886918053069089	5.30532501788586	6.506342394614324	1.7694030955464195	6.147300704694401	8.29218957714773	6.897932512033857	5.339304433693624	0.5268528448154544	7.495835285335089	10.91798112020086	6.293948157632258	1.0975260706848236	-0.1965615148349982	7.7603764338065915	12.64907547618183	6.000844940293659	-0.21948626582043845	4.542077529883675	9.453273749326138	5.979598983926401	3.9423248668318647	3.0973617952347228	2.9777989312330013
484	-1.5273226460996305	-0.8066453317303536	0.27660041977665717	-0.5827396497318793	1.210019943043321	2.3428444803214585	2.5056018766085337	4.849928366813946	1.638452644979821	3.9758565325492077	5.758903965715292	5.498373971408467	5.749382481364331	1.7952964260550808	5.976982578445947	8.38024518758215	7.211672287853069	5.515396104239026	0.8823953844680277	7.489041786359321	11.192476244324721	6.677286131212762	1.3092765775049413	-0.2279791379179459	7.7079520030917825	12.934278455503266	6.563264830231107	-0.1515120264042731	4.376613605893472	9.323037123983566	6.3377737838948995	3.776428928377421	3.0364539546597404	2.7800927091979815
488	-1.5963805873620436	-0.9938704346359515	0.29234662578205256	0.12853014436695986	0.8388038852494724	2.277780527086071	2.87660693396041	4.8564362403326715	2.2557835521965397	3.616935005592848	5.751940235874476	5.71342419135502	4.929288851690484	2.039361948586458	5.855716213700846	8.57895372132118	7.485568027670582	5.789435372040796	1.4100086653396064	7.575131397195433	11.728313416433776	7.100271683886281	1.4544607364172562	-0.20282703586867878	7.731314639598959	13.638345683950277	7.189864617314866	-0.046409420551906305	4.2057304276139735	9.32747647791523	6.724412424276153	3.5951368717977856	2.9329824373581146	2.5974636012301207
492	-1.4286943638016458	-0.8895191527796622	0.5500311837614512	1.091625568494826	0.9105200148482222	2.4646627840757867	3.2820076859581118	5.14462612760555	2.894779913269386	3.6199314502874316	5.916621193252886	5.844851002241461	4.357458103622499	2.590720885411573	5.922673687286677	8.878073669906795	7.624234180274585	5.993574127323734	2.003167385765853	7.841291407814947	12.476306883783556	7.4550800135263655	1.3977043593403984	-0.15949241776729564	7.989696005676345	14.736450158106539	7.7353915972913025	-0.05158888908116682	4.132915009554407	9.598064398374639	7.102807027050046	3.502772322394143	2.896260969479026	2.5130357678861515
496	-1.0374915573628853	-0.46037909272307626	1.0133062575505953	1.913636918004835	1.495794769325288	2.924289219148862	3.624617329029263	5.616771683817062	3.256722442033914	4.076106538018147	6.289346202230058	5.868744835341535	4.266836632446267	3.3753385458604135	6.25372265190496	9.285984015861784	7.634615878856772	5.968414291571827	2.479841464457386	8.34428499022421	13.381226505827467	7.715225200247492	1.1188136310940293	-0.1298621889650372	8.626621224557766	16.143680531750892	8.124865511408073	-0.2212919587270276	4.25521706460451	10.213467572174899	7.464125137557484	3.602640142881747	3.0104443950940607	2.5851359302102197
500	-0.4908029424673541	0.22801071347843596	1.5931565721342826	2.3251631201213487	2.4826505121492684	3.6099121479445637	3.8612425229814025	6.094932540764118	3.167409173597909	4.9098486776367825	6.867277128047534	5.847580418128125	4.685328471752226	4.158622254362549	6.82311008638048	9.808178876909093	7.6060457037580065	5.649831280748975	2.656172030418444	9.070461250292647	14.36993309207634	7.921306113270888	0.7250618320278849	-0.1269530501736684	9.680300688145039	17.698553040642597	8.358145692703863	-0.48936256642767106	4.611859309950413	11.133555384182955	7.801309565874876	3.9431245227441525	3.2855222142237746	2.815809004350116
504	0.09734835451105116	1.0216697428657833	2.17036747384469	2.2937171401287206	3.610788574639128	4.407611835795678	4.009654511818734	6.388311369979463	2.679000132472625	5.904714569442615	7.591117362883832	5.887337669767249	5.415820584928662	4.644074905114437	7.5104889680068325	10.418607685487537	7.647434692148383	5.110608564825225	2.4429516730618763	9.923545812347799	15.338810881988557	8.135178545439652	0.4001047303111675	-0.13923390174521655	11.03224942282984	19.17333788799334	8.482793786566402	-0.7027276736637105	5.1574764121495225	12.186423270929016	8.08976075990979	4.4865689164373945	3.6514837649660703	3.1463894764616476
508	0.5957512244442065	1.7181202129854667	2.621880524691423	2.0002076575323584	4.564729679026923	5.156053530073036	4.11922167691686	6.3747219878421415	2.039064879037647	6.786542875321681	8.344284036549896	6.069393142635239	6.136151775126603	4.612761962688612	8.14537904590218	11.039523096822707	7.815671901043692	4.530283916479613	1.8987561416370708	10.743198367651422	16.15270038341269	8.387909868043755	0.3134670845700524	-0.14114737475044867	12.418700186846479	20.315780588356024	8.550153710712742	-0.700171111246459	5.769453510976743	13.116856541895327	8.28478143507659	5.113045202697491	3.993675221850533	3.4798638732790077
512	0.9001731849831406	2.1296119636173874	2.8492185997552673	1.7041562752613229	5.087930666475499	5.685977921435302	4.225068558516077	6.056684955564053	1.5496062001205184	7.3261198812530814	8.974255539170796	6.394107325622788	6.563979609129449	4.023418893192674	8.568166711155545	11.545986146386296	8.074365595458913	4.112710942375192	1.208161708642495	11.348529787021544	16.66538043582923	8.650300957774347	0.5413799272220142	-0.11333275557752884	13.50556560921227	20.91345972503062	8.578255631723334	-0.393894731003955	6.285595401153103	13.675341571613219	8.336723306588516	5.657365307829563	4.205765236726434	3.7196559812093573
516	0.976524946608303	2.150491947466648	2.806467287607344	1.5808825452945439	5.070963846755152	5.871532425361353	4.3159527669658155	5.564933285968205	1.3992066348035246	7.417143326152663	9.333531356134806	6.767602426608515	6.5963673425071505	3.0341784877465403	8.682752587331088	11.799961060295853	8.305504777919776	3.9980833429484126	0.5977995976613859	11.591922730742974	16.76021953165912	8.841499306290642	1.0407075855682668	-0.058526400328929154	13.998343432369982	20.85890955426991	8.540246941938927	0.18740643513570807	6.556741221086201	13.708627666194706	8.21398637605123	5.964000210009486	4.232144345088789	3.8060445689429074
520	0.8804046489422005	1.8043173506004815	2.52243685085497	1.6267132718023676	4.5808110121467225	5.677316651315567	4.336636532324971	5.105512606128374	1.5654846390300141	7.099961739734232	9.328440642646681	7.040156823503389	6.3454379875193485	1.9328939865902488	8.48259732965772	11.703412980095278	8.3677949694129	4.213571060986512	0.22294565978982323	11.40475270252901	16.396430927841273	8.86975762988873	1.6825679498153399	-0.006709001475770321	13.742997134796896	20.189199396659006	8.38284490376211	0.9137529111680323	6.495017035298436	13.212751355190814	7.920774439840834	5.938684925344397	4.080861558147743	3.7350144291991456
524	0.7342666965065979	1.245078322128086	2.1034512466729387	1.6840661721626313	3.8215868376567186	5.179239259994967	4.222296227285283	4.872149932004424	1.8452603770397737	6.52673385879624	8.956594444549859	7.0761151135127	6.051005348187036	1.0158312295061955	8.044410685256222	11.247374506210043	8.170294741029704	4.682137954334744	0.10022028510301287	10.821503611899521	15.640115698427543	8.682867028248767	2.3213171900315714	0.0005734629798171834	12.78116032234493	19.083167981604788	8.065304735801615	1.6168570477671935	6.103989585724162	12.331087081293756	7.502073269022953	5.581302628730831	3.8092102908282253	3.554652205075659
528	0.6651038510696451	0.7036586386081067	1.706400151712872	1.5629837473508426	3.0446617526431683	4.542083251929559	3.9426238437293035	4.958991515037123	1.9889907786696872	5.887835487759156	8.312517145150608	6.8171562976381885	5.922047600099536	0.4827107476921764	7.493912201080911	10.528882000089492	7.719605903208843	5.270604120298961	0.11997958242403609	9.970604871372053	14.658741913979004	8.29794023326114	2.8516254353052206	-0.06203143282964515	11.33538910864896	17.81108088764853	7.594038467307609	2.1580889170519595	5.477952466485662	11.298804254615352	7.030285340679191	4.985821234512842	3.4910895736290835	3.337908974803181
532	0.7362110000142622	0.3988046338026091	1.4863811693810984	1.1791970700056016	2.45100592948075	3.9589171309653883	3.5305845648318583	5.314542280130655	1.8587107611458296	5.336833463546054	7.556202869411191	6.308515055941427	6.004446014503317	0.38895118138341017	6.959481221747847	9.723766302354147	7.116825562628667	5.841376289878408	0.1302854266453575	9.033492065510496	13.675500835223657	7.795496920931055	3.224401704276771	-0.18226619018790102	9.73077199386478	16.653835254583967	7.0337185682095855	2.467534297435236	4.769893634197411	10.35939118630843	6.581252081467432	4.3072991262405935	3.185761443677917	3.1472630421332703
