time	FP1	FPZ	FP2	F7	F3	FZ	F4	F8	FT7	FC3	FCZ	FC4	FT8	T7	C3	CZ	C4	T8	TP7	CP3	CPZ	CP4	TP8	P7	P3	PZ	P4	P8	PO3	POZ	PO4	O1	OZ	O2
-200	0.5662857279785302	0.05161797987303406	0.3475584975050675	0.3525462439696017	-0.05934290200390397	0.5964295849046826	0.5066074716175151	0.2905941002184689	-0.24798130926465445	-0.9686667298656004	0.3396402886875499	-0.09898348127646556	-0.5879601821359961	0.034390054556327605	-0.7854171971518389	-0.6868512017074873	-1.263000365883191	-0.9708370541856823	0.6095903500425058	-0.2477991723718419	-1.2874994245447866	-2.6111349993584456	-1.6865321355200529	1.8733813715366463	1.3680230344565354	-0.760283527838922	-4.368563164171854	-0.9640220975378494	0.9666328405770648	-1.1025695772944044	-1.8676332188183098	0.963518915127926	0.7352868896039978	-0.3241281501215965
-196	0.8730598070036522	-0.14784675799235392	-0.0004774740070156733	0.10449459377370932	0.01800276334508847	0.416647194764107	0.860226211760175	-0.014537349306596586	-0.17952264800046136	-0.9930260156355505	0.0633869616577047	0.04455230746345732	-0.28357586193014267	0.02808331691088889	-0.634398995228283	-0.7804694156015256	-1.0669920417549565	-0.7633295039931884	0.7522027473531899	0.11036348315031407	-1.4970036707275702	-2.3591773450415747	-1.121633288412655	2.9851841851206053	2.26901864432621	-1.008934376076648	-3.8006317519552306	-0.14510758184513303	1.6396844345656392	-0.9892522071657693	-1.4957503042603977	1.7785235598483438	0.9673314070120687	0.04491020727739784
-192	1.0518567535546441	-0.0763807890870948	-0.14584970437419653	-0.19564978728965451	0.3504099837039229	0.5418943749097718	1.3855094874687217	-0.4520308661969123	0.060204882022727585	-0.7754693607778763	0.20828661270006374	0.43003910671378565	-0.11029928894805305	0.21807849352136519	-0.3969626416674434	-0.5325943814182373	-0.6744039637704687	-0.6809207183812432	1.2677296368063093	0.41152280465177016	-1.5421838721439576	-1.9659295032457336	-0.654714821116169	3.9513006110566398	2.8055734563565493	-1.2148017852629984	-3.1721165100118056	0.4309633065310171	2.129594559061157	-0.895845649364794	-1.2087550132750913	2.3981153904449743	1.0955322953221205	0.3776387264730828
-188	0.9069491601933888	0.14926663003428606	-0.13500262762793927	-0.4818190920109102	0.7109050136737348	0.784089682506753	1.7142236189477582	-0.9442158913615064	0.40193578499404453	-0.4791083025756919	0.5625743255716713	0.7866396884130956	-0.23809848665681657	0.4153291274551942	-0.1745347376231544	-0.15480039974706786	-0.3125127844072854	-0.7915793637317399	1.975672240037542	0.604296563530145	-1.5117118320445007	-1.6142777163756956	-0.3919218172668707	4.506050575323755	2.9501244947336587	-1.4651430808269312	-2.722759001533287	0.6427040679917386	2.335234636132908	-0.9367883777808633	-1.1804506748913526	2.704488032188548	1.0861842604870184	0.5356639014071306
-184	0.47132235646459697	0.4097608615543357	-0.020463105239463784	-0.6294562204681183	0.9123449302527028	0.9675753092178738	1.5891488750389933	-1.3222928013795492	0.7618646602468868	-0.2587768726967946	0.8748706557120013	0.8783459045168563	-0.6586599333346022	0.5081116544292691	-0.050015456848229486	0.12388147382453556	-0.1728625740216862	-0.9989852880051484	2.59040998758521	0.6432086213084884	-1.5007474384564603	-1.439080830755403	-0.35856789259979954	4.476198661946976	2.7046592167279107	-1.8383464766818636	-2.5873229438307965	0.49522489184278645	2.191572422216445	-1.2028628557353411	-1.4811509810245524	2.6240091257602676	0.9272639131976715	0.4325915564105579
-180	-0.003393791374563839	0.645966647424572	0.17797629490263517	-0.49667528146276657	0.9117473340856935	1.0276817057412295	1.0210090849847608	-1.3885078395119328	1.0826996537529574	-0.16227813024080742	0.9933172439291877	0.63765066701115	-1.164098855894246	0.5438478575327084	-0.031153459023260437	0.17920777156406914	-0.31229394595454507	-1.1037663193491831	2.865681164182087	0.5139116035837845	-1.5609412153888362	-1.4709981642777248	-0.49584871405343073	3.8591568372566876	2.0793302006675543	-2.371088260386258	-2.7524804999476276	0.10555302325063604	1.6834428267891441	-1.7359768108407738	-2.06392669156643	2.1448974555221545	0.6210006459769849	0.06928183865936591
-176	-0.18781891417767355	0.8696453549363146	0.4705010640663104	-0.0011822743078646514	0.8189415314978926	1.022442695897279	0.290728985529255	-1.0244499419096673	1.3445669378665863	-0.10992894293925679	0.9256287789816765	0.19899579832380157	-1.4476668798136203	0.6883826834464796	-0.04514253500627485	0.04044073064845773	-0.6336116774774327	-0.94012987376318	2.7006888321401563	0.23885494410291236	-1.6857007699368247	-1.638318534529415	-0.6954513174618361	2.8208587098427382	1.0847947570115228	-3.0503630561108293	-3.0810105722840624	-0.35660907536116904	0.847388444191574	-2.5208175118698004	-2.7992691923038624	1.3166037764686807	0.1734508420618117	-0.47103777408883535
-172	0.13188065555177608	1.1245025367956085	0.8600885250310915	0.8086507896034031	0.8079446533785318	1.0599880191743734	-0.20786337501974347	-0.28434285449717595	1.5493130644782531	0.03666798016111869	0.7953072170205152	-0.18609231663450165	-1.2743711439382839	1.090097186197354	0.012127043648738733	-0.1540515567943229	-0.9534970497853393	-0.49311545366718884	2.1671986525178513	-0.1357502635866306	-1.830920930054493	-1.8202931834992944	-0.8502630569925439	1.6206749636739972	-0.2492119067575802	-3.8241474531898043	-3.3854873094914066	-0.7394807916090952	-0.23255778790409712	-3.486885300415821	-3.532714119575017	0.2376079106292313	-0.40619596736396485	-1.061951992214764
-168	0.9208623743649569	1.4281806909742685	1.3023126092455461	1.734544868858305	0.9885067318754457	1.1971763342195467	-0.19514748404823928	0.5948448762180402	1.6974060492575525	0.3631926467785681	0.733434496458345	-0.30080470366826023	-0.6211243852192262	1.7388703779187342	0.20283974655914505	-0.2580312483948594	-1.1144387693878506	0.08202551284584586	1.451776381641929	-0.5605201707039632	-1.9507679890017862	-1.9180335950109464	-0.8946285225215536	0.5039225804003863	-1.8382434798559517	-4.616836536195171	-3.5127680212977395	-0.9583946442248784	-1.43297779198297	-4.516242492717457	-4.135166634609757	-0.9623770093462021	-1.095026132679966	-1.5854388435389608
-164	1.9015196513804598	1.736477609064912	1.6963531928148983	2.4839880403746513	1.3190565075949954	1.3803431952912135	0.3290081611909712	1.2880829540156644	1.7747279360786299	0.8210914114248683	0.7802335600227449	-0.09180808044142465	0.2986842684357293	2.4149103103702227	0.49439793700326057	-0.21013197249765075	-1.0742187472878584	0.5503017888480483	0.750359116090297	-0.9994162295857864	-2.023900742189336	-1.9032089662184188	-0.8202066996847008	-0.38626792929400855	-3.520200482063886	-5.340071664679236	-3.400259009359507	-1.0086574528977206	-2.6049442225491246	-5.456634984544854	-4.525714862841246	-2.1412515586197385	-1.8398895217219131	-1.969139809405231
-160	2.6930038860993784	1.9562962005814568	1.9217524479983832	2.7846639086035547	1.6188014704841471	1.4702178202702956	1.0797702046789326	1.5407098492823839	1.7556556418915532	1.2325277297372876	0.8601682164409549	0.3019385926252821	1.1416555614257633	2.77616643204725	0.7619622330501378	-0.06160311757866088	-0.9198478437087964	0.7399746756944572	0.18005739106971366	-1.4334465229083002	-2.053997511446235	-1.8182495786536848	-0.6651633961096253	-1.037479398015382	-5.070592867447007	-5.897128567111914	-3.0808880251347133	-0.9438204145444201	-3.5965926556381045	-6.142761214959769	-4.665689933441213	-3.1633808532955796	-2.5478577549503343	-2.193895334426767
-156	3.001078359656282	1.9996321150838605	1.9029476594563832	2.510555022576863	1.6768780904394465	1.3372867073628114	1.6470655161281194	1.3061944213313876	1.6204438168621418	1.3862915004062004	0.8445923903122198	0.6371538622982015	1.6120743710824914	2.5418674881655314	0.8510606267422697	0.07458299379591846	-0.7988707999087042	0.6442229135460704	-0.25207528408303825	-1.8493831110991892	-2.046020264228216	-1.73042845289122	-0.48565730329920853	-1.5321294030607613	-6.258002742226185	-6.185399993538639	-2.6400253706081362	-0.8361535647262259	-4.281718243279056	-6.426517947184026	-4.537827003466184	-3.917857637050499	-3.0948018949573726	-2.2723610343781964
-152	2.7502202918234513	1.842323298571237	1.661608214951571	1.7541836455878967	1.390117045707516	0.9625765060917616	1.725474114829998	0.7827549556996676	1.3700779641846235	1.1672055691813852	0.6541649682695043	0.7143483143890709	1.6102046925898974	1.6645195442136298	0.6651390774146184	0.1123897951984017	-0.8149557689118253	0.41120123759401883	-0.6108711346462057	-2.224133962737873	-1.980194802053101	-1.6735485749906995	-0.3331272891693867	-1.9756132314393633	-6.918847066577	-6.108096584157396	-2.1555817072804575	-0.7458158116584085	-4.589073646403205	-6.213861926602767	-4.13324974923862	-4.336566437262892	-3.3562376414439172	-2.2208690587238995
-148	2.094569677786671	1.5464900692995285	1.317912456046065	0.8000842312639781	0.8416317084044116	0.47403359293464997	1.281391855819362	0.3182194820952852	1.0310434076980741	0.6383462532139227	0.32948359763882173	0.49668750041491466	1.2677724329411502	0.3964251567845383	0.22756016196971632	0.05757280797131706	-0.9535676216845752	0.23304240346721988	-0.9519461369321993	-2.5160098012343557	-1.8058091356461534	-1.614766593670909	-0.24460960862867406	-2.427393191884727	-7.011764985501341	-5.597674832516399	-1.6550239282784365	-0.7085992079964204	-4.519339550052167	-5.495133386089501	-3.4550397308856278	-4.406127918563096	-3.250073663135295	-2.0427071996613857
-144	1.314935084837762	1.2315463988681834	1.0348263952831276	0.007719225230695366	0.2701396041248631	0.09109294391521507	0.5641839489997668	0.22721278610084236	0.6456001384647734	0.024457260904552316	0.02201859274907873	0.1300065961178022	0.8552113749846587	-0.8044221380904893	-0.317248373422734	0.006791613513220437	-1.084398386124767	0.21370346790241382	-1.2636181084200835	-2.669310086186665	-1.4625337086945422	-1.4679959975372576	-0.24390421746186067	-2.8699500488301224	-6.62061784980066	-4.643097388942589	-1.1124768229053774	-0.7386871557659146	-4.139698494949878	-4.353482712244597	-2.5344498093512513	-4.16697882553896	-2.77146600977213	-1.732709999478172
-140	0.671518204900954	1.0114418242667285	0.9352145171395427	-0.3451401880610236	-0.05499698580327128	0.0068821492431153765	-0.04175912578291597	0.6232202633381717	0.25500586564531086	-0.39797708291663697	-0.09111993736864957	-0.14646489881253133	0.6213272794295294	-1.4919769726277736	-0.7666975240423632	0.0822608245322444	-1.0391097042551622	0.30696672123654967	-1.4696028195470558	-2.6317112379386978	-0.9181157923406413	-1.1466157407421584	-0.34461587580458064	-3.2273964800413046	-5.903319820758392	-3.306287995573934	-0.48457583662713427	-0.8352751710783888	-3.5565357118458056	-2.9430680200658053	-1.445063468145694	-3.6984655763708902	-2.0042257258358127	-1.2967482772512329
-136	0.2997141472878807	0.9347853636982434	1.037181613210836	-0.1849608565667483	0.016569003420958732	0.2764685445004246	-0.2361956232783277	1.356621023567659	-0.11233959318646639	-0.4453285027227758	0.08330294468828563	-0.14455938302735663	0.6603997929112031	-1.455842133661083	-0.9562005376515911	0.3443796625979322	-0.7177764159200275	0.36794677283849503	-1.4892293177198548	-2.3776037632994957	-0.1997254932844608	-0.623935757492249	-0.5466704354789207	-3.4165987882184	-5.014917837832934	-1.7164429382857218	0.2388043844631093	-0.983854112525315	-2.876760475524964	-1.4431678020280434	-0.29969441815050984	-3.093368522463433	-1.0982702942776101	-0.7690548281326335
-132	0.19524890135106857	0.9648689007240354	1.2469524113643822	0.3304706803561325	0.4308472264856101	0.7804098109569008	0.03569195783067619	2.0944127983620184	-0.44256937392076673	-0.12329593269690166	0.49108269686690115	0.16127285320572496	0.8840759970278714	-0.8337511399199746	-0.8374118783789023	0.741230843579927	-0.15771652718301896	0.28156384754618446	-1.32036196852157	-1.925191993621108	0.6027110799831226	0.037274416441983906	-0.8251484611659069	-3.399210444451266	-4.046826352392609	-0.0403627528721272	1.0018150781133603	-1.1513862580793572	-2.1752755587016828	-0.00689147411037017	0.7732256631402611	-2.43135260921787	-0.22135019246482612	-0.21410395150964853
-128	0.27377104690095766	1.010653731655498	1.4139977657857727	0.89650416147861	0.9586592292423683	1.286875483124853	0.569561241619247	2.496891969098786	-0.7277753930790782	0.37967646026119667	0.9549230313033455	0.622651337005227	1.1039370270513889	-0.04479772958770036	-0.49670651429655	1.1304928035804114	0.4801357972420583	0.07378641497340951	-1.0841581794069288	-1.3363114561674587	1.3682117427614178	0.7082127314806725	-1.120452162774768	-3.2057347216731436	-3.0115702076217357	1.5624251326214178	1.6924827056115355	-1.2826248374980727	-1.481917615963718	1.274421331049058	1.6664191442378256	-1.7614203647010955	0.49386414760832226	0.29343220517460594
-124	0.4491682041271898	0.9877532099580977	1.4167152607435114	1.2101396291697277	1.3202077117012807	1.575617547825537	1.0368771526860918	2.3902165829392823	-0.9565193628956897	0.7961571792528663	1.2726496425922273	1.0110096905931978	1.162301656649516	0.42238172782114664	-0.10630290183408136	1.3617073263120805	1.000486490584671	-0.08239618668018756	-0.9894633268170308	-0.6980276090164583	1.995609039990258	1.2582118479433155	-1.346036669193747	-2.9205024168665523	-1.8771988106062927	2.9793667718052146	2.191148513983873	-1.310195085078611	-0.7928797582635214	2.374305957521689	2.3238503874281298	-1.1007642718180053	0.9856946443466874	0.6974828225645867
-120	0.6721298677640948	0.8700237252203934	1.22920941996173	1.1079410286587115	1.3325283493731161	1.5515183171200853	1.1839700907378747	1.8452471448086671	-1.108239051881836	0.9215774512865218	1.3305038180137867	1.1581226558055746	1.0281826231746574	0.26000332766691897	0.1650921102170326	1.3689109052428678	1.2859660354571663	0.01875457535419382	-1.2214031188644958	-0.0926476491138693	2.446427100680665	1.6233527619384156	-1.4169411623466397	-2.636423819561321	-0.6248846038300329	4.162136544209633	2.4319374499909294	-1.1791558235915212	-0.09845770870622927	3.3036978161371144	2.748940937731222	-0.44913211351486937	1.266627546927195	0.980161008744356
-116	0.9130854583575226	0.6967462283663122	0.9278976893839681	0.6321344359650491	0.9943721269297593	1.2811090913852614	0.9741348003588444	1.123315927530416	-1.1540976733633441	0.713468907462275	1.1625032395576373	1.0564823123961151	0.8032984713300206	-0.49893173449433154	0.2333187753031844	1.2146931856004919	1.3644168342474394	0.45493826155242584	-1.8147110893208829	0.43027895580375625	2.7553603579573243	1.8395185424137677	-1.28468310508626	-2.4038948952063834	0.7083931547399521	5.1162061562112395	2.443138116390263	-0.8741078354700919	0.5919576272324099	4.073031415192658	2.9897780342911355	0.19264768015383202	1.3984627688386058	1.1624070376612126
-112	1.1171081037927324	0.5340576158391341	0.636621294798478	-0.006951235682848501	0.4645047772124005	0.9342025494831011	0.591586886342843	0.5251266943071171	-1.067605015920279	0.2954975359131812	0.9198443866394082	0.8578959681785644	0.6383257492161717	-1.4990313015284202	0.1287681159106248	1.0543971035085575	1.38763272411955	1.0833820077246232	-2.592288725983787	0.8642738439673628	2.998565427838896	2.015921826041268	-0.9606016254014047	-2.202713722389732	2.023705000536388	5.865965828390544	2.337089055836478	-0.43373906502887655	1.2398179738213597	4.66344498410606	3.1068222444295874	0.8086936453428883	1.4528343640840211	1.2829616037402034
-108	1.1805117100474485	0.4205237914435438	0.4469911444822652	-0.5455338345105684	-0.043946586438327606	0.6714278442597027	0.3137590281194252	0.232552721509304	-0.8381534793673253	-0.1271339055666215	0.7709279040899711	0.7731643895655868	0.6203013046816009	-2.246693367054085	-0.03560169404697235	1.0402235958539126	1.5337084493061641	1.5948724706437443	-3.215893260465855	1.2332410781241585	3.236591092521142	2.2627329769226465	-0.5111104833096373	-1.9536066005974027	3.189399234348664	6.414660914438083	2.250707143823126	0.05964095130406051	1.7862058832847583	5.023375975323787	3.1402904908050493	1.3649522031654602	1.4776396714096993	1.370442267772571
-104	0.9830557083105644	0.3338359883939768	0.36209806708467634	-0.7921323160199251	-0.38552403352676745	0.5470477328793963	0.3321303418833906	0.22799852432861015	-0.4837663459484835	-0.3878023316605875	0.7926112989441308	0.9333705282487821	0.7104333025161733	-2.3636233746934354	-0.1373846378434066	1.2208203046493535	1.88952707767264	1.68897974064693	-3.3378691589005713	1.5621124466557157	3.462972870666624	2.613048308450905	-0.02638100826040165	-1.5634133776292987	4.084004868686682	6.720743162353044	2.2662427368167393	0.5125306235724701	2.173542970891726	5.091905104179087	3.0925657671096247	1.8181072427623206	1.4851485453302553	1.4257510864500682
-100	0.46268886210925825	0.20538367279173592	0.3003465227650286	-0.7027800661463357	-0.5460185990853027	0.4872926163291374	0.6325486882451922	0.3308639518013676	-0.056811876451584094	-0.4416816521460457	0.920233724178098	1.2991441455465755	0.7734338025592913	-1.7785590842165402	-0.11490337521629793	1.4984545669870295	2.3840107857595156	1.2679473129684795	-2.778521769184248	1.847528691395619	3.5892269520739375	2.9851021691296014	0.4207150627481451	-0.9822168325421136	4.626781451941547	6.703264696363237	2.3550958573962397	0.8586441852825407	2.366734975561434	4.83253716202387	2.9313712046046145	2.1300296729669186	1.4621978961267257	1.4250898325225996
-96	-0.3132159403999254	-0.02655535929651007	0.15519645770943918	-0.3766531040695654	-0.6161583050430132	0.3542742720242446	1.0049668525118358	0.3216363779530524	0.36156621484068835	-0.3675031950731965	0.9866212581520262	1.6737087922754512	0.6755939705004049	-0.7509449701423152	0.005117549082382251	1.672877426692223	2.813628904868316	0.5183202611234655	-1.6264818865719337	2.0474200197025874	3.4795699031717175	3.210414401531934	0.7980005124925361	-0.2420170003025858	4.784574496587103	6.27660797441798	2.379962199878014	1.0806637975111493	2.364102834454798	4.259248722766938	2.6110498839259213	2.280671352350379	1.3927532399299862	1.3411899771207179
-92	-1.1375374765286288	-0.36146375445657813	-0.12777627972290526	0.012262550151680589	-0.7039995771753612	0.050661958626153504	1.1718127697923117	0.0764612255550161	0.6758763177019931	-0.29618030711735943	0.8254153111598926	1.8125439836516106	0.38582950733047006	0.27314591338813166	0.13444565202624187	1.5494209488850241	2.947308294484421	-0.18477556062777062	-0.210191323822536	2.09786867565737	3.020249597553436	3.1164083402153215	1.1066693039609945	0.5443605170811272	4.562167632982367	5.399036870676603	2.16052960804006	1.2042673795812824	2.1938869897765194	3.4411463650607197	2.100297207297967	2.2731428088970964	1.2757062879778818	1.166319367325102
-88	-1.7362598136934528	-0.7158321720170078	-0.5038874732647022	0.3037648193319445	-0.8482938387434263	-0.4011958827379933	0.9558204984374628	-0.3665066054150681	0.8016076067713014	-0.3150495878848436	0.37820348048090374	1.565316077095015	0.008443834238787454	0.8928573705065246	0.18630923283745285	1.0529047224164392	2.651865237216427	-0.49750262373248255	1.0530246469614244	1.9511421869607415	2.1904778425225535	2.621190064488088	1.3524749244875507	1.2270019023434022	3.992830981664066	4.113573540792204	1.5737203319871262	1.2711422411296636	1.9009171676325913	2.4851152834137973	1.4051549399185113	2.130213493690942	1.1266672582790958	0.9224212146358319
-84	-1.887949461938708	-0.954794881317402	-0.8429441430744073	0.41167592898381156	-0.9889335607356047	-0.854715225922801	0.38838538429430824	-0.8383933880619406	0.6969911438510759	-0.40812933341934055	-0.25715672904892284	0.9670505499265961	-0.277233838335086	0.9424936151550698	0.13497132028835004	0.28297233510099323	1.9667593191082016	-0.31494849840755973	1.8497270298986748	1.6135939318925587	1.0971642704919504	1.7889139607086462	1.5179635248006282	1.6825294452149122	3.139048806848223	2.5597035820230873	0.6368765218867618	1.3090089526505755	1.532667036955278	1.5078349075395183	0.5795404896409269	1.8854969692309718	0.9648971533255877	0.6526464207383956
-80	-1.5319930276338594	-0.9615920161764921	-0.9959998105651762	0.3353112629530878	-1.009590146376811	-1.112533447317771	-0.3020023397927084	-1.1368784875776559	0.3897798945599525	-0.46678331376479903	-0.8648635127166371	0.22644795420217675	-0.32676729477397565	0.5436688647848998	0.035732120185282504	-0.5213855491825904	1.087893364066993	0.1691494132778109	2.1005806869878034	1.1587944001504973	-0.04795710730365597	0.8153474310316556	1.5610247811006004	1.8655685139285032	2.097771639295921	0.9470561122825276	-0.4713605630418015	1.3193505969115746	1.1296566696256132	0.610780833609599	-0.2796128087136775	1.5732995231960745	0.7974069098367167	0.399794786159118
-76	-0.8056635836287368	-0.7067274433412646	-0.8781900979758068	0.12762637404167362	-0.8252150395539529	-1.0376600000885954	-0.8127997497064533	-1.1316724987068274	-0.02128993528176501	-0.3652184000331124	-1.2177342145692545	-0.3829296519625016	-0.12409360675475559	0.0072002862398330815	-0.010067025174115713	-1.0929534407677794	0.26984780958710186	0.5900799617174362	1.9619321773586091	0.7013012749131918	-1.0041716073432505	-0.05248685912947301	1.445204373525587	1.8219641401067088	0.9936117504782794	-0.503500400702508	-1.4704349003860195	1.2884213891878447	0.7195612173986756	-0.13652978803019625	-1.053278324328948	1.219024893543962	0.6090689286113271	0.18462735367891078
-72	0.0126981436885671	-0.274842798015958	-0.5200900422316681	-0.14982135556064888	-0.4532633710384661	-0.6370272024283735	-0.9287687516605164	-0.8222939947348203	-0.3984101106598369	-0.051722802091187535	-1.1931544512188368	-0.6656185371759811	0.19994725236478772	-0.35104301483216166	0.07535450886536263	-1.2654888597962808	-0.2974832646488598	0.6505153162744768	1.7016340451193754	0.3399975887297539	-1.5979868133253954	-0.6214995368524954	1.1830388277702553	1.6539093214239509	-0.05109722154352686	-1.6296315152032028	-2.09205603071355	1.2116700380251169	0.3142529122047871	-0.703634617936323	-1.630424256976714	0.8327747562363741	0.36750656273561777	-0.000826731787769852
-68	0.6243259294959637	0.16703420835284583	-0.058949000984610006	-0.45284041648020773	-0.023000087530955858	-0.07079105061301019	-0.6325733049634222	-0.322338639876023	-0.6198168977347344	0.39944982427835135	-0.8368976095050786	-0.6017202123708781	0.44144293554432296	-0.3757722070266539	0.28249803114139055	-1.0544534895023727	-0.5700610265644269	0.3160462371476166	1.526726361234803	0.09917446945900489	-1.7955652430023392	-0.8293070772213864	0.8600599744063161	1.4571814500258045	-0.9628548597821599	-2.3799583851807578	-2.193714374725686	1.1110156746470425	-0.09154433733954004	-1.0997961731800077	-1.9382983397183886	0.4083888818443597	0.041316032305355015	-0.1810397054154544
-64	0.8298396447211099	0.44347271211237943	0.3243531576550555	-0.7504166941770047	0.2814715199516605	0.4166361381025291	-0.10713809701572667	0.20670083112981819	-0.6349931939305488	0.8066487887997418	-0.3430894306580592	-0.34632071765246447	0.44353881366326847	-0.12636503545328256	0.4970306145516979	-0.6478579027985202	-0.6472586377014613	-0.15967665572383122	1.4691536389451625	-0.09627170091403037	-1.7151108936876445	-0.7548773269667987	0.6126554592876968	1.2672767607164495	-1.7516478255869747	-2.824453823587934	-1.8148586704209742	1.0293937895534353	-0.517155407553561	-1.3697922195182917	-1.962375039868172	-0.07043266278604181	-0.3784551908951547	-0.3737896671394627
-60	0.5931877478881786	0.4460239101116146	0.4853679525518769	-1.0059441302651058	0.31136548440522294	0.6058217867814517	0.3638181379192618	0.6224238260766938	-0.4924826609575285	0.9625174378889384	0.03701084842874287	-0.13647419179792236	0.18697251332283876	0.19585730085991612	0.5445424304565224	-0.3130978934012458	-0.6939465386036358	-0.4058922518972787	1.391065713231366	-0.39026144048387706	-1.571380372848442	-0.5624528513059257	0.5629497156235189	1.0434255573631623	-2.504609816903397	-3.1160390298372254	-1.1492834062169908	1.0023859713995775	-0.9857354139236109	-1.5832931955417535	-1.7491437152569933	-0.6177258475920034	-0.8657453038292179	-0.5728298411211875
-56	0.02925153255527925	0.1720259483285699	0.3712308695480379	-1.1640309065993735	0.02648962282406938	0.3964329053883396	0.5363538251686639	0.8364633300643416	-0.3204765609756187	0.7379528265441359	0.11106121512029318	-0.1617800887314829	-0.20258657583110076	0.3864347328919914	0.2807241671150311	-0.2660548084217515	-0.8357549288629746	-0.19041377257909642	1.1013607951014113	-0.9158154106859878	-1.574172135193383	-0.4107955385803794	0.7457904796844429	0.7042060476643419	-3.326430312341317	-3.4147658261868945	-0.44806447512034814	1.0263216469601786	-1.5047157964862972	-1.8113733484311776	-1.3873763049383736	-1.2266956536793194	-1.3604104484543318	-0.7463706712952216
-52	-0.6662172658312382	-0.2865890257275431	0.028045756671549477	-1.1612577409035552	-0.48612695809653045	-0.15606668552096278	0.31339204232246964	0.8130102137066239	-0.26146399908809687	0.15493239423258973	-0.16908074872720302	-0.46969860673572533	-0.533387838447484	0.36018595008510945	-0.31810754457267965	-0.5665718898773743	-1.0876654359059472	0.4137398888155604	0.5080745803403124	-1.7029184060017528	-1.8254059507059293	-0.3759651174589824	1.0752069922957392	0.19370932828156848	-4.2500982177241236	-3.803695192270372	0.09716596429849896	1.0476633283867036	-2.0445730634567236	-2.0921380467045534	-0.9731641387211278	-1.85408496388578	-1.7832801296987002	-0.8523937442239503
-48	-1.3009051051673737	-0.7938904742224259	-0.43707266339578044	-0.9650943254900068	-1.053753015718741	-0.8743216373303614	-0.23374968708150015	0.5492496476611295	-0.39583092827995037	-0.6095306857932363	-0.6927887779864417	-0.9558421349234616	-0.664730606785004	0.17577722624268283	-1.114768621491205	-1.091611740217273	-1.3549792732361108	1.0526535484439898	-0.3010254792719509	-2.6254281931394976	-2.2642648162895065	-0.4286555637027524	1.3751709426492429	-0.4628595102068193	-5.1690702307848015	-4.2352819335818435	0.4291608322752377	0.9841599439568854	-2.528410189920699	-2.3987057148453395	-0.5746967778001287	-2.416810029603708	-2.0586197324276068	-0.8622639753506112
-44	-1.743547792801029	-1.2288160293072057	-0.9115706063143807	-0.6096841081485008	-1.4897465668259098	-1.53857159226111	-0.9259041524398436	0.06746762973917599	-0.6912176591587739	-1.2884187665834812	-1.2473936049438956	-1.4347985946669715	-0.5859031066407014	-0.035388376474440396	-1.8462545825121173	-1.5954086740267899	-1.4988118372269112	1.299205895958407	-1.0876007052618846	-3.420042983003405	-2.686366312873949	-0.47088369608248	1.4636574946643002	-1.1443146438317695	-5.834671005776684	-4.534522521968179	0.6250335558369505	0.7706025223349637	-2.8413348126200204	-2.626946442647383	-0.2104333186797131	-2.804639570784566	-2.133580679275092	-0.7757976035558257
-40	-1.940047974456708	-1.5225744208995216	-1.317982670317433	-0.20200680145283434	-1.6620140033721773	-1.971748704700463	-1.5721647699717056	-0.5721410498479022	-1.0076099608730826	-1.632005687407902	-1.615856047365363	-1.7439471439200158	-0.4123785485346499	-0.16959115820028722	-2.226361507516795	-1.8265749169963128	-1.423382636291253	0.9208095050451746	-1.5874521692251007	-3.779806365960446	-2.831870787146478	-0.4063892354241611	1.246646997165324	-1.6737009244623606	-5.9357051699503085	-4.463320244010741	0.8274586775869236	0.4023966481062843	-2.862562649175312	-2.619018309656535	0.14814798496512702	-2.909578316018279	-1.9890291640608257	-0.6193248613933557
-36	-1.8985968780266331	-1.6631269412966136	-1.6227059323349462	0.10893430533323988	-1.5298668107508	-2.09435057111303	-2.0457098432390097	-1.25141799133968	-1.1666527957071338	-1.508034702308301	-1.668807263929367	-1.8192610694729694	-0.3060427300355744	-0.21920973007170122	-2.069054836771378	-1.6448352295355448	-1.132223364832451	0.032948009586595	-1.6565595823425525	-3.4827484996602744	-2.502723925947465	-0.2016343320285733	0.76991903587505	-1.895653839093634	-5.229066358715601	-3.8212165736043087	1.1507990331205127	-0.05028846847235328	-2.5094361241879644	-2.221071237678467	0.5515410886190892	-2.6617288522275344	-1.6408128696976778	-0.42744818221890807
-32	-1.6683239894707482	-1.676429744302578	-1.8199350787943878	0.19431574593598225	-1.143228289578836	-1.934127206687538	-2.30649160756473	-1.800235147699411	-1.051280257431832	-0.9521661376755098	-1.4118651116010936	-1.7052624182562717	-0.3729323139311781	-0.2619150870386181	-1.373482581485598	-1.083059785015781	-0.7225473504897386	-0.9571943854960667	-1.3432151045264935	-2.4936554368956534	-1.6546478229708534	0.09775949244851258	0.19914475033071918	-1.7451279119300351	-3.656141748734217	-2.538155549316871	1.6165249306873437	-0.4680417764290869	-1.7717245772452703	-1.352577086848438	1.0392279598700982	-2.054248089372238	-1.1305654020375646	-0.22036552373562274
-28	-1.331790086244792	-1.6030667979774866	-1.910338039343425	0.003938679573426475	-0.6209756120262425	-1.6005510051371588	-2.376930469233813	-2.048267359330575	-0.6811671835867672	-0.15387313029063823	-0.9755032037901429	-1.50627421952466	-0.603528736498087	-0.381887643565169	-0.33214840209071195	-0.3317270270555362	-0.3285706332971021	-1.584236856275455	-0.8485951402220052	-0.9909964178814279	-0.424527673841577	0.3984677781535115	-0.2638180249229128	-1.2743368116629799	-1.3863230908678517	-0.7200677972733427	2.148045772851242	-0.736714301633475	-0.7209410053170975	-0.056118026234086175	1.614031191565527	-1.147787091218327	-0.5126165734700193	0.007699425778470317
-24	-1.0008903716566495	-1.4871166906957698	-1.894870872481841	-0.4076446880538955	-0.11962361603575558	-1.2406710354952313	-2.300296539220996	-1.9050310802046022	-0.21650485639746195	0.6159985049907738	-0.5561959133410711	-1.3162864413406976	-0.8881029464233745	-0.5877400621833964	0.745274661089859	0.3445384195688906	-0.05017929884043248	-1.5943499763289624	-0.4029940356570374	0.6984184366712638	0.920783219396895	0.6175364240313855	-0.47998383520058713	-0.62245303235256	1.2392556636039682	1.3763128484309668	2.6226398878639445	-0.8006175736240817	0.5117259012653893	1.5010143480550906	2.237616771770605	-0.05121259378377894	0.1586733009385379	0.28102916408157674
-20	-0.8004955033118899	-1.3780946696773837	-1.7878057911557799	-0.9007761455681661	0.2004479015773146	-0.9939569209753023	-2.1139879173311504	-1.4278337919425517	0.11526409507498726	1.104134199215808	-0.3368369630415515	-1.1724197834931718	-1.0936751338048978	-0.7884798626066003	1.5565357168953204	0.7177470904348721	0.09109346545585553	-1.0850410434031128	-0.1354220059075201	2.226587766747791	2.0896241612128534	0.7307684999135623	-0.431035308941724	0.05461758361378232	3.8352930448975044	3.4289634141179683	2.9445347711607353	-0.6830820423999869	1.7791147187137335	3.0790133398519712	2.847223751508961	1.1133164139295637	0.8397815802352546	0.6203550680710526
-16	-0.8314076641072573	-1.3311593498953713	-1.6332806307564287	-1.309545990498646	0.2135217929455971	-0.9559885835353049	-1.8512687636365426	-0.8301377275488792	0.1355697807227064	1.1627256840913773	-0.4185390163821791	-1.055912491993501	-1.1499873370700109	-0.8511959888902129	1.9224519681077012	0.6849793178430422	0.14619849585338032	-0.4295418251636801	-0.01892781252850581	3.3517014895693835	2.875078670872228	0.7817579488090268	-0.20746630377841352	0.6507001502774586	6.102644428104266	5.155940996503984	3.092096320928559	-0.4639862764088085	2.958456747215063	4.446838844516219	3.379493704846505	2.240933651034691	1.4989169798200295	1.0183495257415978
-12	-1.122009751348106	-1.394560333545724	-1.5053782425066584	-1.5105769596108425	-0.12871998516009017	-1.1544873685299017	-1.5586289128052577	-0.40502136843466424	-0.18187099649287675	0.7960611561703757	-0.7870436886943633	-0.9302484369633297	-1.087867614860515	-0.7069038730893543	1.842876906510513	0.29967015906014755	0.1928738499778612	-0.04039404158526499	0.07617914657432874	4.006069650072414	3.219917050815193	0.8480292537259363	0.06050391107423015	1.133907076833815	7.894222239590489	6.39348886783016	3.112622968444483	-0.22977721633118423	3.967879285331189	5.453262792170555	3.786169280983444	3.2547357000192765	2.107378239079406	1.4275296890456752
-8	-1.5966780145387218	-1.5853552778271967	-1.4827548228021192	-1.4696752987949198	-0.7634486536777936	-1.540967222137874	-1.3046334948979506	-0.3898226906947932	-0.6834584457307932	0.15084119103018098	-1.3226890530570155	-0.7843893150552824	-1.0090038750922805	-0.42702555548619514	1.4708164893209081	-0.2625637345837486	0.2815247468993105	-0.12286793409559196	0.2628052228014464	4.276623238256519	3.2108311572071515	0.9857708786871626	0.28218856382649804	1.519254799821782	9.18868253295315	7.113892060438808	3.0723307055152054	-0.027331437846558337	4.7534074663313195	6.052641853309857	4.033401002237295	4.093792905008405	2.6248049669752995	1.7691143706478565
-4	-2.0866918511158867	-1.8670319271633338	-1.6073449809500837	-1.2456676928541368	-1.5118458232856173	-2.0006744811090607	-1.1640710801298506	-0.838127968579426	-1.107569930141277	-0.540896116321594	-1.845018024554729	-0.648050366196014	-1.0078738902394817	-0.2074737692601528	1.025659081730528	-0.7813569287599904	0.40755846993544553	-0.5641350731911744	0.5356867895906666	4.317563046045002	3.012695543312254	1.1886079281361384	0.4493096459488847	1.8130216552736345	10.001246427080822	7.383949261142477	2.9986014290442493	0.1505368944182097	5.260793195793702	6.278382285479175	4.090480794115888	4.691287982540402	2.9882180615320126	1.958788747610381
0	-2.393412345565491	-2.1464893763707966	-1.8505873633391907	-0.9525328254492423	-2.1187796539218358	-2.38174890870529	-1.1810719937069227	-1.571996565664574	-1.2197233407696768	-1.041434046976955	-2.172369474648351	-0.5685924873301585	-1.1014375658836884	-0.2605207257845854	0.6937210542330198	-1.0740137073103486	0.5245028720964728	-1.0210479472130563	0.7611610870217345	4.249359120130775	2.781858675608928	1.3865921462336885	0.61887925707014	1.9716464231302866	10.298758480773037	7.29582164829735	2.855178348962022	0.34126314434675215	5.418630109457702	6.187755092257059	3.9237093826411935	4.964713084083956	3.116894952534039	1.93891787039462
4	-2.3756799637895822	-2.301290983111918	-2.112387174995104	-0.7035102230429908	-2.3352944791961114	-2.540465348505375	-1.3354152407308786	-2.2508695068750844	-0.9375262832813196	-1.181830880042287	-2.1767816488620646	-0.5686637148804853	-1.2116507261202583	-0.672706185072973	0.5627870545483376	-1.0501958105275266	0.5846785888215275	-1.1407885522650494	0.7658640126919286	4.100093354363835	2.6024913722135206	1.4860336743029352	0.8552383758886738	1.9091967296081473	9.980565045907452	6.912205201817159	2.5684390003207347	0.5695481882020742	5.152708994253844	5.816184982874138	3.5076296240939158	4.834059226229011	2.939093582362217	1.7028294758719724
8	-2.0199496695064405	-2.2326033059019146	-2.261947864543647	-0.5641272649827285	-2.0186910578305413	-2.392714732804801	-1.540744777604134	-2.529856437017878	-0.38051885270368047	-0.9102471447851294	-1.8211995317254606	-0.6182882174140395	-1.2096207111336235	-1.3228244748096034	0.6130756124276577	-0.7253502589032248	0.5774333462441473	-0.77524155182612	0.4630408573380906	3.8149721526148253	2.471968882995329	1.4261273109669406	1.1719745367978236	1.552215333834329	8.941252685860565	6.254100306933303	2.0891547150317877	0.8148481229236327	4.430488575239873	5.170682417212616	2.852483026932084	4.264497746191186	2.4334492621971955	1.2998151746357627
12	-1.4546186887255121	-1.9193634938418171	-2.2034463826814616	-0.5365014062687552	-1.2075459926635197	-1.9536668012884737	-1.6835290151052718	-2.229820245835089	0.18456800235402554	-0.30419954580751624	-1.1723320454562838	-0.6455039365683488	-0.9946989391962376	-1.9123072575925426	0.7544910888696292	-0.1998494560441194	0.5379468785055537	-0.06422395987984991	-0.05684882015538067	3.319328538143549	2.331317180469581	1.2163722484395754	1.510832067489837	0.9128069854578351	7.177616578100184	5.32917498196749	1.448043700376939	1.011429664919225	3.3101320183150835	4.261709202497054	2.0289149233137613	3.3101620590559744	1.6618996816637868	0.8184257725079533
16	-0.8952234364795547	-1.4435315095695447	-1.9321929167601706	-0.5757371172674118	-0.13232763078181825	-1.346311923442625	-1.6840907292762168	-1.4327795469349476	0.4800438570777244	0.4524995971222426	-0.3874666979067046	-0.5820637926664776	-0.5616266117221353	-2.102651113923494	0.8796657897674302	0.37829011583186606	0.520209251520918	0.6619653089022761	-0.5451108799523101	2.590997212544054	2.113791937259624	0.9317622161228684	1.7741684868841805	0.13069097664738533	4.868706690893732	4.17290448088899	0.7659571747514773	1.0838149758631785	1.9602810094932102	3.1453647534112563	1.1673427790733117	2.129902119027421	0.7724198679495771	0.3560107341361019
20	-0.5470085130232332	-0.9664426421560668	-1.5470193585437977	-0.625110863061029	0.853415069809598	-0.7691960315357499	-1.5439814290165554	-0.45155727749304514	0.35957270769888616	1.119209048306471	0.3216814092620665	-0.4160845865234925	-0.015989858616751146	-1.7024159388475648	0.9011681653158641	0.8489123561406989	0.551098583737394	1.0890146466416766	-0.7239762526353315	1.6938966469913275	1.778058882038848	0.6665940863945569	1.8853733491980198	-0.5561220631863809	2.366300338492829	2.8667147087198828	0.20565798826746087	0.994288918845863	0.6263777001778867	1.9387128304171102	0.420560060869798	0.9532655453456162	-0.04160426919089018	-0.013528329286096194
24	-0.5166329728434238	-0.6661840660441821	-1.2110905616700736	-0.6511698348771029	1.3966741526627016	-0.4329477537668363	-1.3521790470316328	0.3128392688482183	-0.11743865877541819	1.4603640996301959	0.7405389528651212	-0.21819989328130496	0.46964856863656274	-0.787525055804354	0.7593234758279487	1.0654441091340479	0.5953817352521767	1.0992383929156078	-0.4453208435259415	0.7520914058770306	1.308243748222881	0.4724883723250716	1.8358116103552555	-0.9053189731628977	0.08490174242280114	1.5150229892627032	-0.1118934077179655	0.7710841874681776	-0.45165240650586647	0.7881026248107692	-0.09914021914008732	0.0024755143032307134	-0.6153733714779478	-0.2625625126885338
28	-0.7792181949015596	-0.6650017483134026	-1.0798866721545297	-0.6608572585586991	1.2726094690617502	-0.48896455641318826	-1.246228453350768	0.5520136938463202	-0.7222616058234069	1.307290789164618	0.7082260233164239	-0.12294156818344545	0.7306799274116498	0.3134489051534418	0.41230451956602576	0.9148901081828308	0.5539109096847308	0.8188685158082272	0.21049992687008143	-0.11690895229863668	0.6903038603520294	0.31795602956604313	1.6864966111518565	-0.7846381644465914	-1.6582164722538355	0.1958651388706843	-0.1780530507837509	0.4980312573256608	-1.1329534025198167	-0.1937105799791056	-0.3742316653816787	-0.5947480186705247	-0.886241135743871	-0.4134899665406482
32	-1.2120972841177882	-0.9810344552066893	-1.2330254285199056	-0.6983225924027069	0.46574726583192894	-0.9772433613899669	-1.3492772545127139	0.17905753805729208	-1.1855357855428816	0.608988700759662	0.1654308136101136	-0.2733348303092703	0.674973605359149	1.1600830525672876	-0.16782751637048096	0.33905953083264717	0.29918220563692577	0.5100407587525541	0.9579725241316448	-0.864932475290468	-0.10803215923451964	0.09582433825379816	1.5221204719260581	-0.2466985577076819	-2.768397085829683	-1.0777435275523968	-0.10985591234843013	0.2687807076343822	-1.4313831293206754	-0.9806253885306286	-0.4916110920415009	-0.8569028355898242	-0.925781724499784	-0.5227226005708162
36	-1.6750403600363715	-1.5278304776718348	-1.643434281968281	-0.8192922452268656	-0.8283115604468613	-1.813482756804453	-1.7140111879943152	-0.650622545030157	-1.3446366753007974	-0.5417377339036975	-0.8212941268212376	-0.7563976626372461	0.30954259555865954	1.3997077906555306	-0.9780279373271645	-0.6414617283838218	-0.26693281463939866	0.38435736201520193	1.447639461677093	-1.5297937354564897	-1.1274529667045414	-0.3200111977127098	1.3899993861390265	0.4836132812210867	-3.3935160551223813	-2.350605481888778	-0.09164068079699561	0.13435395028048647	-1.4986984691928347	-1.635887261075165	-0.592200098926744	-0.9324281192126178	-0.9044991112760822	-0.6500635726728646
40	-2.0860834069035556	-2.1625244562863664	-2.20024942796236	-1.0586398813222473	-2.2826485576218762	-2.8238696980706095	-2.3063964785519087	-1.6302880007591016	-1.230886694661475	-1.9233291100580012	-2.0740618653384484	-1.5662878712209793	-0.27714896132114014	0.9267960763420107	-1.9569339702789432	-1.9140295934036238	-1.1638253897847068	0.4563610542219446	1.4466570579243854	-2.1965124551629573	-2.376357787808257	-0.997784194811312	1.263804909376338	1.107125279492375	-3.8267445467654007	-3.668853988921238	-0.2738928787945709	0.07562921922185822	-1.5404294690340683	-2.2563776912941607	-0.7832953910124816	-1.0202184889784562	-1.0018609736897215	-0.8260182121402735
44	-2.447160953065287	-2.753346913061895	-2.767650597260401	-1.407277461313604	-3.5612957387655504	-3.8106295966260335	-3.031250230765408	-2.4493815837054322	-1.0452833149268312	-3.243578187382652	-3.356417885889263	-2.60990595158628	-0.9586511230106993	-0.07694249580745931	-2.97129034245854	-3.2865819848052054	-2.3139645994892217	0.5274111615216558	0.9555413698866843	-2.9278118536461935	-3.783539047225436	-1.8934274864076044	1.0583965751628885	1.3843492234564534	-4.34438799714915	-5.008046614400575	-0.6868966204466914	0.017980111717485862	-1.7090065436130297	-2.8929672168170537	-1.0655895444669325	-1.268411394731529	-1.3092563119257687	-1.0331357691429868
48	-2.8115124631469746	-3.2288002886315104	-3.2427263178016728	-1.8049424841133075	-4.4320540316263015	-4.618881213924383	-3.775783290866844	-2.919259063979677	-1.0344828341115095	-4.228465546422539	-4.4475450403457355	-3.7440519238357517	-1.6127961833288988	-1.2386387555321006	-3.838662853086018	-4.532236087800368	-3.5612599759787757	0.3097253433990795	0.19649335692386963	-3.7076272870868947	-5.179634557998119	-2.850318186239307	0.6891443115954966	1.239414927214406	-5.064311968415013	-6.2363018832111505	-1.2202261655517324	-0.12033315717595101	-2.0309808202964605	-3.4998962790817023	-1.3241621222442754	-1.7037827925581033	-1.777472849172896	-1.2132811515693278
52	-3.2188916125090663	-3.582698574557461	-3.579967251322169	-2.1575415079957243	-4.82533549044171	-5.176811682028684	-4.442512024153609	-3.0209627075217282	-1.3399968113446166	-4.71283577682804	-5.209382520874673	-4.818586337321544	-2.1452956145482487	-2.169134134538111	-4.388704765683501	-5.455139146383347	-4.714696872251808	-0.384363471491276	-0.5156388865803696	-4.433493126166125	-6.331177695502129	-3.6568794158160953	0.1403327282700378	0.7823434452331772	-5.897301658999905	-7.147672635152103	-1.6829968648380607	-0.375167488104612	-2.408566945670662	-3.9537110228852708	-1.3993437254861618	-2.2305498066852976	-2.2443854752142087	-1.3007725444377278
56	-3.6399140266072196	-3.8375782869724233	-3.774847497946233	-2.374703401292048	-4.821865069613071	-5.495073304607719	-4.957355009914302	-2.866355411922084	-1.9055551242401443	-4.694506633350147	-5.61766813767222	-5.703446373844811	-2.4953260358752005	-2.618972294870885	-4.53518341826778	-5.950629219290071	-5.597873673610868	-1.4999731741227829	-0.9367005205346862	-4.962249266493742	-7.020329457678204	-4.135024537136971	-0.502117453737921	0.24023748873614817	-6.610623819827113	-7.55824659346609	-1.9135639619198141	-0.7125890833029668	-2.6941142014194512	-4.138510693591792	-1.2036368816504401	-2.698667281013058	-2.533203118604277	-1.267256971974434
60	-3.9663648505205593	-3.995338906691303	-3.827105989330406	-2.408303016304263	-4.584264743674868	-5.630262837500041	-5.259770856929095	-2.6098666125208276	-2.4967181619550596	-4.323285091928993	-5.741741642760576	-6.2931895097154715	-2.633063786534526	-2.5578572685511864	-4.316301334927582	-6.0292520370847305	-6.085060581102764	-2.7279167106419693	-1.001358744954112	-5.178642259874404	-7.132142048948639	-4.212887753340532	-1.0752533647092575	-0.16006393690228152	-6.95806167753146	-7.410732250576809	-1.8745764446613755	-1.0462851497936867	-2.7886116434263513	-4.0421504872310745	-0.811830637789497	-2.996798746172214	-2.5628812248373305	-1.153298375078924
64	-4.060260762453905	-4.0112490552717395	-3.715377321399603	-2.2761731090298265	-4.267833698941552	-5.63426588543305	-5.294591890318964	-2.36431383489677	-2.8255531716533953	-3.8231055640017613	-5.68270157332956	-6.50101183203623	-2.5572748119639117	-2.147531027140261	-3.8726651570773187	-5.789804444000313	-6.115263446627094	-3.6360666660059713	-0.818339703401115	-5.04227398552998	-6.699983103048768	-3.9422087569841353	-1.4105335438401734	-0.29141190574504483	-6.796591741568283	-6.817624551726362	-1.6721641975146415	-1.2834891048451338	-2.7009663513655298	-3.790901412929504	-0.4562830317421306	-3.111094943774879	-2.402528041495845	-1.0629711124285606
68	-3.830442180499351	-3.816030492684785	-3.409032813048293	-2.0586647935389433	-3.9539151091884666	-5.519153104199023	-5.025472151465955	-2.1622922365909076	-2.708849184826463	-3.3808870230192567	-5.5039129118241705	-6.263814433495692	-2.2952589930758776	-1.6345498520590713	-3.367911568721572	-5.354564176391913	-5.689120278299926	-3.8735291860058014	-0.5653508887322332	-4.5850982550253025	-5.880126461441949	-3.450414648881314	-1.413053985842782	-0.15972651500905993	-6.126136764318148	-6.003386482340464	-1.4797069989038694	-1.368752595306744	-2.5283539231361734	-3.582392445102667	-0.4083953191459792	-3.111852638017351	-2.229681486222402	-1.1145174475187556
72	-3.296522609017168	-3.376584282933074	-2.912907831467026	-1.8659477186776068	-3.6352333930741154	-5.257166372377566	-4.468696582955907	-1.9721175382414018	-2.173046106574133	-3.0581443232573213	-5.194097028969906	-5.567364678631744	-1.898181672072176	-1.2309882609759157	-2.8958303855262555	-4.802968966755505	-4.857430445805015	-3.33664893261581	-0.3586525609974892	-3.866843690646094	-4.867109763254942	-2.8527982162928605	-1.1018557520703767	0.13831165398009657	-5.041352736142658	-5.1674146521757	-1.4025865757816243	-1.2937759128330781	-2.3671362340290485	-3.5415477663270063	-0.7959691265990747	-3.0751686018550863	-2.2102222386824204	-1.363205071822215
76	-2.6057176524177774	-2.758402817437558	-2.31359147441387	-1.7870292618456067	-3.253902665505999	-4.81461428380374	-3.722760667938579	-1.7447229579744536	-1.4485322200442847	-2.773538820893606	-4.686252105325333	-4.479333389417088	-1.427946087093025	-1.0356794569569991	-2.4301960406935685	-4.142231453927857	-3.708567848379076	-2.2151551190715777	-0.1876387889416171	-2.9232616350755287	-3.7958278560170418	-2.1741177980844886	-0.5885555729311542	0.5000822531472037	-3.638714065901631	-4.343964088916578	-1.3602180446614827	-1.0678346130113743	-2.20996331610617	-3.581702223317911	-1.4568326436454595	-2.989125721060361	-2.366185420737992	-1.7357383922622742
80	-1.9846653888185473	-2.1445271914697446	-1.7888835623398875	-1.847447033032483	-2.7669188906429856	-4.1996512306993905	-2.9637324735201025	-1.4595818482741385	-0.8563199617700373	-2.3698768555889016	-3.9252402683337397	-3.1654446045110722	-0.9404866671659047	-1.030006882928047	-1.8538984013481041	-3.3341505443317128	-2.3589687287853875	-0.8997210837536607	0.04786929848625262	-1.7496135190659268	-2.6892220906072173	-1.3283395733674563	-0.008004554527159922	0.887187895919093	-1.949261302794958	-3.3527963076818534	-1.0653141710087655	-0.6712405664662913	-1.9007670831374257	-3.3703534518025653	-1.928595895666347	-2.71068023950934	-2.5162172253976505	-2.018188471467064
84	-1.6556038814706369	-1.7867629482934226	-1.5590898951267869	-2.001460547162374	-2.2035469953215885	-3.495647660012839	-2.3939194618819597	-1.1439386577334756	-0.6493229849634002	-1.7331507162205286	-2.9468858167633196	-1.8670088005612193	-0.47411566853029846	-1.12589752389841	-1.0571958992015644	-2.3637719094678404	-0.945511338707784	0.20216801711538354	0.4358382512055987	-0.33656367574594626	-1.485531564776615	-0.17553484395531566	0.5572772011992115	1.3407822813514834	0.05456816018751741	-1.8907259654946253	-0.13458101417418503	-0.031185153793039728	-1.189728733873665	-2.4501004157196085	-1.6130846698088834	-2.0133635946939674	-2.338178151903064	-1.921178216852067
88	-1.7520390704742927	-1.904069895705381	-1.7954471065966926	-2.1634814684604637	-1.6817903476215634	-2.85659765475983	-2.160134310036908	-0.8606981017316703	-0.8953257776543757	-0.897005198121327	-1.918359870835623	-0.8372365215144159	-0.04914356383194669	-1.2289546697106033	-0.04824598866441114	-1.3064167466558385	0.38396000765181	0.8427841046035894	0.9558246111579418	1.2634726730871988	-0.13056506183561523	1.367063161259496	1.1124364109563216	1.9365315388424174	2.3817167221971927	0.268339543857191	1.7049152808059764	0.9509397125077079	0.1289896514735344	-0.4762320804493172	-0.05949472993492475	-0.7114832979358856	-1.5343924722078794	-1.2073341577565229
92	-2.27450727842185	-2.573890679536707	-2.5288889344263263	-2.2636496963569774	-1.3686908448949127	-2.4580502448011	-2.2814614715195267	-0.6792163831728388	-1.4594869576798957	-0.06545393897458768	-1.1042320700422823	-0.25839927727309586	0.3203331820029735	-1.2837585178388384	0.997839805944747	-0.34445121797380435	1.4854077063250846	1.015776154814562	1.4597803317407396	2.8894603179459026	1.3225420680033706	3.217911950570011	1.7252216295553668	2.7118513515669296	4.929043280554629	3.0700201910709657	4.408760536506889	2.325611347048928	2.0685851521717336	2.54562734914847	2.7648742129137727	1.2038090198641167	-0.015685083304977716	0.17395020977447914
96	-3.100726119795931	-3.67220186260053	-3.608860006757645	-2.2939240874548585	-1.3994663918447998	-2.422328227603081	-2.6301784448975236	-0.6443405135099154	-2.0877878613212495	0.46952974677750303	-0.7639729957365589	-0.17841559603468185	0.6117188319020611	-1.284066197014392	1.792592163328449	0.2867450706871711	2.237100595548153	0.9131476260018664	1.7473140910855873	4.286668766643022	2.6717379025715267	5.088512884644195	2.453804009918022	3.6107518581780393	7.437900524433997	6.093900188319215	7.515979747869679	4.009386052499344	4.374729622286169	6.155540927604505	6.356406195804644	3.493897190809495	1.997151369774572	2.0102465101986633
100	-4.03231333668218	-4.898946749716309	-4.741462218711332	-2.3145289362645305	-1.7958017542322107	-2.7533185412510535	-2.9824247284930507	-0.7585383634489494	-2.536493056568993	0.4786551582649311	-1.026883003503256	-0.49828195446095314	0.7899914959989325	-1.2544956175602422	2.071599716678283	0.40305682915014973	2.5584371025340977	0.788517890369871	1.6867427783341573	5.189967142353136	3.618016233846344	6.5390467478642735	3.2722604192133122	4.478637684005027	9.53901669954911	8.65354535779057	10.226643536497102	5.742740139767332	6.576239569273056	9.544799780589198	9.788739179692548	5.716489300600211	4.01995371757276	3.858813752922227
104	-4.857995020998902	-5.882671818186012	-5.59342573661038	-2.4094042717183526	-2.426314109398438	-3.313538542964686	-3.115355483772667	-0.9788065527998997	-2.675724976459776	-0.06431194378589684	-1.8075729562898937	-1.015896317778126	0.8222213962776672	-1.2207090823824833	1.7450108484079918	-0.02625092484879809	2.4260573325893935	0.8056159595176815	1.3029671874528168	5.438839421845643	3.8936316868705747	7.119163495209434	4.038859834010623	5.10834025046938	10.871667834490154	10.053714726814077	11.645936936539218	7.12996004211821	8.147517183714164	11.841628998423074	12.027441948088217	7.372848015290377	5.487347588990017	5.188636766685108
108	-5.405203328790917	-6.317575915598726	-5.914541706411212	-2.610598319138243	-3.0347561759622446	-3.85981749513771	-2.903446905435004	-1.225796338801219	-2.5170907910692732	-0.9344600415478808	-2.8116388249935795	-1.505939241421868	0.70436763585592	-1.1893188923372242	0.972310957837967	-0.8366036990024333	1.8820896101163447	0.9550465321270083	0.7667931894969862	5.059377657514386	3.4011316213568157	6.5359668566672156	4.529027927408077	5.3089341983271865	11.21429249793175	9.88576123602718	11.102634401900183	7.756005744425536	8.706338860464896	12.449094740907924	12.313684432411913	8.089663485129762	5.983399376067685	5.575569138755072
112	-5.564621911304684	-6.069012626583954	-5.620899186248047	-2.8406739163204193	-3.32920908087373	-4.125116814688841	-2.363878959409587	-1.4017024004832583	-2.162626976275121	-1.7335596040826553	-3.635332575202771	-1.7973009302538163	0.48055022833613525	-1.1406367988398345	0.11249520601242084	-1.7130539374016391	1.0313999626822203	1.0786790820544292	0.2959654025711643	4.264046181403508	2.2881796302244886	4.776264655452077	4.520484436066122	4.964189993722728	10.558753940626865	8.214996317149753	8.410479524358841	7.3351068311510454	8.153165796675978	11.277004213471661	10.450247738203062	7.750884513359365	5.408895478897563	4.868494498358868
116	-5.291146265022488	-5.203071104264631	-4.804469573288581	-2.9164123461523914	-3.094694845015626	-3.913036098137501	-1.629035587966243	-1.4146107399510952	-1.7203082994896468	-2.0602500386673874	-3.916280498153724	-1.8145039035761668	0.23990800916182284	-1.0363359425128977	-0.43185767422361376	-2.305037492654461	0.026132563063089042	0.9799778436714237	0.028287183421957504	3.3630971823659292	0.9124808884470922	2.1275978034662226	3.8877041241719175	4.057035435923963	9.092835403373364	5.563427434226401	3.959688653485413	5.8215975614432365	6.68784092168294	8.759770371255287	6.865203840088902	6.519531233539766	4.004957665822292	3.249073497198489
120	-4.5966286543187005	-3.9365584750922733	-3.6734318640470094	-2.6244490080375993	-2.2808992805114245	-3.1670107761532362	-0.8671288468402512	-1.2052222459881732	-1.2410165040154773	-1.6900430875070382	-3.4684858234572706	-1.573317404589462	0.08809225238970239	-0.8433114864992306	-0.39988005060325393	-2.3587484300188537	-0.9624238585968773	0.5558242187771902	-0.05566594363105772	2.6300320558903247	-0.292414962507115	-0.91182100542645	2.657239430394387	2.659167521438713	7.107030850586745	2.695112460007629	-1.4019063675771648	3.4277315053228605	4.704765784782985	5.660302147879521	2.4331822333892763	4.748324859074865	2.2303149643854754	1.1560133666415886
124	-3.5455489069113866	-2.5384011204527255	-2.4585843024169387	-1.838050360807367	-1.022090432447546	-1.9845821807346509	-0.1979663218030014	-0.7679798583668234	-0.7121936064858806	-0.6713170988299896	-2.340681785395889	-1.1439555854525492	0.1056170684412855	-0.5537231550541624	0.21174776500646494	-1.8046548320983475	-1.7797647669680128	-0.12910325792618946	-0.1024608907496882	2.1925971452668365	-0.984986779587122	-3.793803205448423	0.9976688002193181	0.9041812993109422	4.884138571805698	0.31343534509678966	-6.646418077854417	0.5406276570022034	2.628272765199576	2.764949076347422	-1.8534876061373493	2.832369797231278	0.5602101669472691	-0.8891799427471019
128	-2.2504715862675684	-1.2338728873571825	-1.3340116705592515	-0.6091883167145108	0.4217212487540581	-0.5725501761286075	0.3522890797303676	-0.15554623266525927	-0.1011051682065336	0.7118144613414216	-0.7757704238378768	-0.6070161446504455	0.3150725356730242	-0.19433654795695632	1.1640139788803001	-0.7626600842294061	-2.32120298753247	-0.8672273137131715	-0.27695414354018366	2.0069167563313375	-1.035828826196429	-6.08193539037579	-0.8459885695079136	-1.0383390162001622	2.634301178956939	-1.1805952757592126	-10.884072276292331	-2.4191927848772328	0.7740770558840833	0.6197634323685058	-5.211761461450942	1.0804588767429288	-0.6887704712644092	-2.472707265332942
132	-0.8644847848046904	-0.1573571111759308	-0.3885599961007369	0.8207484462996966	1.769170399013804	0.8304154255881865	0.8348089435481327	0.5367822633542277	0.586294887969821	2.0831937737321407	0.8985147453510972	-0.027578188036789426	0.6738718731079022	0.16867458777756777	2.1080233997528257	0.5268475996067273	-2.5523602898052995	-1.418930288547062	-0.6506911499761203	1.9226549815272935	-0.5459787831826933	-7.550434093485815	-2.6370944910226406	-2.9826984330211683	0.5016503321379957	-1.7608113244423182	-13.595642055518054	-5.129009233876668	-0.7023980599789347	-0.5786530360871067	-7.258792382033419	-0.3393212548271951	-1.427364464970775	-3.4100737485620223
136	0.4334141899133485	0.6402190311480371	0.3537943056234026	2.1059894508596457	2.8185255456335407	2.0287492224017045	1.317769285689676	1.2021931379483357	1.2720830408404231	3.1463148514465775	2.39064597479916	0.5455962405734907	1.0939654084242212	0.445247350999119	2.7602395941663187	1.8046328975891257	-2.509170525891516	-1.6418675142796708	-1.156265494288352	1.797621007195452	0.23741863608022493	-8.1915092261446	-4.21028517613763	-4.745507705151313	-1.379267331455734	-1.665319438544496	-14.700545273858813	-7.426383476580995	-1.7667859748102293	-0.9177778936102627	-8.011950472630657	-1.3737422193175841	-1.7425993636957575	-3.7526686096813062
140	1.4686117135162329	1.1537408799606195	0.8917560554877902	2.9397885725185433	3.5023035914688125	2.9141678736543963	1.825284714858762	1.7535911754203253	1.825742240110903	3.796060314131079	3.5244471937841215	1.0675330135095722	1.4757046662265965	0.5525059090016327	3.027109853731184	2.876850836166215	-2.2763614597068416	-1.563576217518414	-1.6405854183737891	1.594784017351121	1.0571426126492698	-8.145953157839207	-5.485710607030039	-6.170595630325285	-2.8302559781143004	-1.1861065596198097	-14.460099183767637	-9.284069037839275	-2.4214303432364517	-0.6005465969182139	-7.738573054802801	-2.015942568457598	-1.777906174939319	-3.6909282114302036
144	2.106642002508999	1.3884202206843341	1.2145397632452273	3.1831977287033104	3.8738598725741804	3.465713492226477	2.310536855586133	2.1384448951136408	2.1202421134823526	4.11791228208374	4.249896038769555	1.487283345282141	1.739487762827759	0.44803440457713484	3.0168476028568247	3.6486830619244355	-1.9535785864144288	-1.3607255186058191	-1.9781659791593587	1.4079997503971686	1.7612771943447065	-7.604469756954124	-6.442891581481065	-7.156634789517904	-3.6271543411230773	-0.48555871721699895	-13.287610020468122	-10.732050868595094	-2.6401500635246915	0.21266087835979616	-6.761078817463608	-2.2481739464265678	-1.6240494210247916	-3.420578947967872
148	2.283566707567678	1.349395152499782	1.299059506951208	2.9112150595596784	4.042251576708359	3.7164511586771654	2.6756279400983267	2.334747546977033	2.0891478008930116	4.289319027561624	4.600025165388006	1.752817983970251	1.8424644423697087	0.15784066875661146	2.9442210123114294	4.108541001437234	-1.6218155581535394	-1.2557507721667533	-2.157859081542286	1.4080936873170975	2.345173591414821	-6.728241426646856	-7.082144242525799	-7.672910194098223	-3.5587830453667433	0.46460011484147806	-11.562314004316264	-11.782258004005099	-2.362209314104354	1.4657763205714263	-5.319704996029485	-2.030833477614948	-1.2806360689255183	-3.0457041186683687
152	2.0178341814594134	1.0553203794537973	1.1316101522485498	2.352234357617087	4.095909585148324	3.712086429760573	2.823099129224899	2.3345346391864332	1.7564279988766027	4.4501852876840395	4.633408057912365	1.8304355098286678	1.7783601239127822	-0.2158042037998962	2.9929246826901736	4.28999661316172	-1.3216431107531377	-1.3936428988556575	-2.2714300098291553	1.7469046071770142	2.9115762637061056	-5.615537629254748	-7.3989114574547985	-7.74898145626578	-2.5152084763920186	1.8068650915303284	-9.521043753427495	-12.399372069524674	-1.5417656859572693	3.1598212639185803	-3.5409481436020798	-1.3370457853892375	-0.6977292877701107	-2.5617465908222505
156	1.3969149554269862	0.5575750456084021	0.7348582726045001	1.7602173045539864	4.058240403419699	3.4867031486218476	2.7075028351136754	2.134034628248555	1.2275745837689582	4.621350276723326	4.400516975736687	1.7266925529754202	1.5693139990285856	-0.5174496756840742	3.2187628664766765	4.243027676360139	-1.0488573286278298	-1.7636839106853708	-2.4120211540359646	2.478234761656877	3.584145060073218	-4.311806667885707	-7.38478611035301	-7.438325386340884	-0.5507942424219393	3.649551382387331	-7.250270348363528	-12.52956005747723	-0.21004813856498583	5.255210386359555	-1.4911510906718508	-0.1984772975202095	0.1462365981224568	-1.912689680992456
160	0.5487614856216515	-0.05694595337437752	0.17714886322595225	1.2876869407567766	3.8943569561863707	3.0643367689966916	2.357128852615106	1.741248603239268	0.6481648071136937	4.711802470708823	3.946881284285571	1.4965598545436931	1.2600828377380913	-0.5922622665710877	3.542659035321393	4.028202046714533	-0.7658547739720117	-2.206442112120309	-2.553993457068022	3.537371626506007	4.427048195152124	-2.8382859158381675	-7.046014767977124	-6.7771348782140866	2.1175444072666294	5.946108803041717	-4.74696062796869	-12.15601155072992	1.4980046711294008	7.605074386469199	0.7507821302532001	1.2753745285258995	1.1899450987336535	-1.072593209419648
164	-0.39362984796324196	-0.6891199929004896	-0.44550114757593184	0.9308242774350508	3.5583634286685837	2.4777488645938948	1.8579785776912572	1.1972353428177254	0.15412040015886466	4.601200568980009	3.3375959312096106	1.2300586669383458	0.9160777903316266	-0.349315582823965	3.8267769716920768	3.725432386529246	-0.421034394631723	-2.4989709791033023	-2.5108258660820386	4.783673751197531	5.411512361215174	-1.2135915725585344	-6.419370635037764	-5.766749367459401	5.1787495482347286	8.475133874476366	-1.993475432131265	-11.336091966618376	3.3746178064976093	9.97031590805491	3.0628032606997824	2.9205639288598055	2.2954401911955373	-0.0937730146067098
168	-1.3215644326222329	-1.266329285285492	-1.0461108658128035	0.5739539251141685	3.0465390605302742	1.7843928292045579	1.3125593629123025	0.5918213114101527	-0.16273812908570012	4.239174355294428	2.6734094552253875	1.021091697022211	0.6150695666042947	0.18758137476768216	3.9778644938173313	3.436704626943272	0.03210955850123707	-2.4626758036425707	-2.024322981491859	6.073155387803964	6.439011557534562	0.5433533177962556	-5.567308888684375	-4.397158134802784	8.326065996129582	10.927842112607605	0.9979151462155529	-10.189234707856198	5.211384283259756	12.108119934029546	5.311076150836427	4.572143543143947	3.3101093685501257	0.9085628367373189
172	-2.15956186702993	-1.7721681550105688	-1.5817636211513892	0.09597911661472787	2.42272567137344	1.0633881065223565	0.7978823760868895	0.05194694908258977	-0.27017596295808427	3.6977665330987293	2.0771179146776566	0.9328610277465285	0.42908263098148985	0.8720353819764839	4.01130770624205	3.26881574759115	0.6227345450891234	-2.0362520166485085	-0.9393411851055034	7.316693764333521	7.399514656458402	2.4218611656078006	-4.553616512245899	-2.700266354419055	11.33770749090629	13.04654404207285	4.182985772062267	-8.8414897695475	6.871626359756524	13.8769626267072	7.4149966052718534	6.116453155333807	4.143786896733989	1.8228783561459656
176	-2.859699957303267	-2.2485938015433056	-2.0684199280968336	-0.5281038867014864	1.8017959549235587	0.3917390992287731	0.34302297147930244	-0.3037111453494598	-0.19803221473763422	3.1474077622104195	1.6525868135690134	0.9764714812420745	0.40233907001957664	1.4857636652627844	4.040271748832498	3.2993676579144045	1.357921358494796	-1.284650203322427	0.6394660456724908	8.494171121132405	8.227465608805282	4.422566402713488	-3.417613974525651	-0.7992907742347314	14.104442560825252	14.731154404640906	7.504483204014427	-7.363744717126105	8.322366693465582	15.291275939481618	9.39156911386181	7.512528877364475	4.811787116299891	2.6126472884018686
180	-3.3896794233571654	-2.766750090289408	-2.567645543291488	-1.194688793980771	1.3018555608305624	-0.18622738075922168	-0.06729560328420794	-0.42563775074307125	-0.029273834005594686	2.7749094893014	1.4411047660682863	1.1129585476432358	0.5333061800843479	1.8224052144769332	4.204252232427276	3.54649066029646	2.2236154023296364	-0.3491409114128918	2.3251736105388026	9.62724873973162	8.92706010471964	6.544267637896258	-2.163862461348906	1.0871144505710346	16.604465442696895	16.05769534825216	10.902400942933069	-5.745188221731366	9.61214158492357	16.49269290574765	11.339662523249988	8.7749089973157	5.416697488460384	3.342733613157699
184	-3.7299914265873158	-3.380816212701442	-3.150300256404777	-1.729727383061142	0.9929807161056355	-0.6758394820316149	-0.4701096403650587	-0.3713341643971729	0.1183130663626461	2.6934461525624953	1.4033015930985446	1.2767268387031494	0.773861465884475	1.7705159142615665	4.584868896352786	3.962363709936179	3.1881482520672764	0.6237828119741415	3.600549450366884	10.736313792778667	9.558572745031963	8.7581157463205	-0.7781164030456683	2.7034628323009993	18.852405500497955	17.206922487684626	14.300620042934932	-3.9241452118026907	10.813566180584113	17.657884553196446	13.366091694464311	9.934566472720364	6.082886203666847	4.140294541396126
188	-3.8859648606417627	-4.091800679366462	-3.8559365175168936	-1.9956923672834437	0.8711897708831904	-1.1221896381655838	-0.896347639681825	-0.29029273913524534	0.12478999762023064	2.8945224212046066	1.4402714931364302	1.4089007342053188	1.0514571640170787	1.3601140941612568	5.159391867009188	4.455843437388992	4.206631649840702	1.5319501122897294	4.07029961512021	11.811786621789434	10.19806000995794	10.98653122989107	0.7391808610373427	3.8553709886486924	20.85769266584525	18.350984527032477	17.580575898606476	-1.8581095887001426	11.968059509578476	18.899604749646365	15.496572455381752	11.005781145919128	6.885108930370677	5.112586008515301
192	-3.901402702018191	-4.842094409161605	-4.668358314171781	-1.9825491855157846	0.8671677686731912	-1.57860767442779	-1.35342371122069	-0.3549551656821172	-0.08776748158230245	3.2625434316279818	1.442040916616765	1.4825507364989237	1.3036082950104022	0.7439094167047255	5.814798340421585	4.930478560397197	5.224862085502339	2.3262886942304455	3.6788096335036466	12.814510313105457	10.893501254234835	13.103041615782747	2.3443996847090114	4.494445312596708	22.612815799841723	19.562854717454243	20.56777376704109	0.40981569782739063	13.063456502357297	20.215766855698377	17.62661166509181	11.977495163241176	7.811021308251479	6.2705330690378105
196	-3.8631753823972987	-5.5392117360453526	-5.5146422246938105	-1.8265420152324798	0.8814960099852824	-2.0709352441000046	-1.8220108701480948	-0.6710268242106663	-0.5168030248945387	3.6356284526586893	1.3356533016815104	1.5083304605549297	1.5043051204848317	0.1276226338502234	6.40577219299446	5.314730630807669	6.182926162368128	2.990951768953089	2.7593359877538055	13.69547459005604	11.635888070292618	14.957669220353191	3.9452819724609958	4.739801394893504	24.103702484310016	20.789461083375915	23.051879824612097	2.7287042072067536	14.048891985709156	21.505229895655685	19.542892406713626	12.826910940210379	8.7728242652653	7.5029134560935855
200	-3.888340224939354	-6.095985874043929	-6.287946685174266	-1.7413275197887512	0.8245243409320396	-2.580543749969739	-2.2656400146502924	-1.219154116413509	-1.0677808496219225	3.8728287122221694	1.1055921288233332	1.5179284772695887	1.6628237920740514	-0.3206753126631205	6.817082864716011	5.567952142009167	7.018447858256685	3.516429653826336	1.8639391613630367	14.415287935101478	12.354737250606604	16.416969257867542	5.423156247751939	4.816743838546898	25.323417599638734	21.88979143338105	24.83970254348695	4.876835810746255	14.868953667293486	22.62869066247254	21.00479692877951	13.538912738949856	9.65396211094103	8.616867043674189
204	-4.086842049770827	-6.464531882177161	-6.884333116316239	-1.9040051650613183	0.6417271478663364	-3.0576078814556973	-2.6479332380198115	-1.8652269793148024	-1.5847717483563188	3.8938565155901	0.7784875611677476	1.5343853196505246	1.7947083666312116	-0.5398542271335506	6.996110898474213	5.664891705515639	7.669561366744618	3.8880002400464138	1.4717510901486266	14.94949527780791	12.937746015308964	17.39838977235747	6.667708380077276	4.943865286742794	26.2735976509507	22.705249729051708	25.8162059132139	6.636754972867828	15.490758856763616	23.47114175592661	21.840976659944726	14.113125765454209	10.35884282357788	9.421243643816185
208	-4.509122360289145	-6.647102339174711	-7.238443833195634	-2.361618512866832	0.3201400927567111	-3.4548408897911593	-2.9485044404927536	-2.436522716092634	-1.9157926987916285	3.6831235792630186	0.3895861794649216	1.5475599726705453	1.883644099248162	-0.5812196716892997	6.948212129216484	5.58017776987747	8.081131914716732	4.094875325354793	1.7456663802895764	15.282274207631787	13.268060650705468	17.883834793714843	7.605836849083241	5.233658777374661	26.95371621002458	23.121564806735964	25.982017451491554	7.868090609712618	15.908834417231516	23.971700607812235	22.009422246677644	14.554112397641605	10.83899590616688	9.80638692287309
212	-5.106754290085201	-6.6833014319483075	-7.344398956829489	-3.0067133827591204	-0.11676148295725408	-3.7589146996008393	-3.1698071876604583	-2.8174345422183267	-1.9852584550325652	3.273434153875266	-0.041974794013620316	1.5108895263672555	1.8632714701339486	-0.5498691783373607	6.712867719868044	5.292873369205139	8.216360071418771	4.141744603190561	2.4710493025380558	15.402015647148804	13.267768826365385	17.910602524360154	8.209890344872605	5.661949620256953	27.351808478916954	23.09700197110462	25.448217327717202	8.541798570047801	16.131742436688256	24.115785537868376	21.59452242167536	14.856040917081947	11.088612528461464	9.780506109339798
216	-5.730534539059623	-6.624093515838028	-7.25394867019262	-3.6289918331075737	-0.614044426321391	-3.9960522550781743	-3.329439631639139	-3.006421558419037	-1.8331261826963252	2.732132666365578	-0.5094586001885026	1.3663308585956342	1.639372225437094	-0.5174489008236941	6.345932467651156	4.814531790975579	8.073119143130517	4.05192374160093	3.2152438082580224	15.310619315592449	12.933906522520806	17.550851777587773	8.488348939445444	6.119250758933922	27.45107834560968	22.656984272020246	24.393703399105178	8.726960160156485	16.16651530952527	23.910076080990283	20.752227730808787	14.996857605264015	11.122765512994377	9.4486589193207
220	-6.174687369969495	-6.507249338886937	-7.052286130265978	-4.014010896085079	-1.0875837775428112	-4.20627926718168	-3.441726675880788	-3.0991010587648775	-1.59157430723807	2.15825414112686	-0.990865466477187	1.0857685776954045	1.1458531589188274	-0.46132945897929806	5.91909311707477	4.220740784479152	7.69806526147856	3.859718551427633	3.605553856329591	15.042304954697611	12.351407973576435	16.893983798289174	8.471792199680117	6.502673132691215	27.251316001753683	21.8714141293503	23.009986819346775	8.545863129974062	16.01506801376506	23.36794275106021	19.641570995331676	14.949635467932069	10.959244700418946	8.952897049234487
224	-6.252864821859518	-6.346373065184224	-6.822299463213582	-4.034192551917914	-1.4299349748748686	-4.402740467399774	-3.4984004409201956	-3.210513345242011	-1.406399723316858	1.681990619227503	-1.4221159183836847	0.7051840406733473	0.40543284909883226	-0.2704175107804267	5.5277213910731415	3.6555139926170277	7.188367348641888	3.5986623673180596	3.552867403597011	14.674927674436185	11.67235466871129	16.039449651276744	8.206162431979186	6.785729867968997	26.789981774402815	20.83259958729532	21.4618338996715	8.127545336230408	15.684892614818398	22.517486515414436	18.38201518186136	14.705505333965919	10.617744418993553	8.410484292730413
228	-5.879986271317792	-6.13830374121614	-6.615240080344023	-3.6873648073559484	-1.5306014976004465	-4.54624794765879	-3.4638025673198025	-3.3870801840143625	-1.3470723594987495	1.4482330047282677	-1.6990706877726367	0.32771491921654466	-0.440477101882821	0.17831432774346415	5.286776052478589	3.2907686150436586	6.673656923610841	3.299663296951744	3.2834792054246114	14.317706071944528	11.064950915056848	15.09654899600353	7.757731418096716	7.019597989479367	26.145845347196094	19.642620037077073	19.878269145368836	7.583271961139723	15.204099616764706	21.423036521229417	17.05412097439854	14.292184793627616	10.133028004812072	7.88275239861603
232	-5.124712454254948	-5.880618557387973	-6.439854605628137	-3.075442783220361	-1.3141344752511601	-4.558249462063304	-3.2929482376883024	-3.5663521199783705	-1.3588874305748764	1.5736100633945702	-1.7185933546544991	0.08650476463650446	-1.159507271700211	0.9133052802868993	5.300436960189461	3.251661769286681	6.278836711289795	3.0010785980748604	3.1666827121892207	14.072280848259968	10.650075885586729	14.180291140040492	7.2187313851252854	7.267754536399218	25.41642564078575	18.406703902502148	18.366023970964232	7.003698331316385	14.624735795290446	20.19529337552546	15.729000051840826	13.771591151753512	9.564223265342404	7.382143478828921
236	-4.200871456984151	-5.58985184211867	-6.2755718072758215	-2.3478746354906432	-0.7842920402752546	-4.370939720562339	-2.966401331087827	-3.6122789291733293	-1.2912062373940094	2.0905108399062935	-1.4398788177376414	0.08224555829263984	-1.5085154733718455	1.8013528539954173	5.614953503737423	3.547259083374964	6.081459983730262	2.756434433653465	3.4519321831334637	13.986840212794533	10.45478818161201	13.396460499319279	6.701219541796867	7.52592847831331	24.682758268980855	17.22600169601048	17.02514262669338	6.465944273836193	14.009837115202291	18.97441859223092	14.495649301170559	13.216620411882706	8.98858163471568	6.90329359219
240	-3.399931660651227	-5.310276018086983	-6.102377876133504	-1.6431723791597992	-0.050172578416751025	-3.9889993566889985	-2.527099602994687	-3.40671490762812	-0.9903433893949175	2.9092218802434218	-0.9304779148451355	0.32443377293691067	-1.337705489595946	2.568705790710076	6.182783111221028	4.049828519133076	6.0816793288224815	2.6262235575173722	4.086089600737083	14.033069575165609	10.408008549161758	12.81664082152293	6.311567290583379	7.689604739801923	23.986047684192027	16.187189061304128	15.945739705834628	6.033192142513015	13.412118877880818	17.889678909911026	13.45886227070714	12.68132206576106	8.477231957967163	6.450954420968765
244	-2.9902145787083687	-5.108137117840498	-5.929336532881427	-1.0587125989886899	0.6876609308047166	-3.5236732870783114	-2.0921018070806214	-2.939404241770002	-0.4068891693809525	3.8283374212883565	-0.36356684473752326	0.7114418727078713	-0.6682704074199877	2.9139981196265046	6.866407853910324	4.5434875373569215	6.202168925838832	2.649760716424011	4.729990470388245	14.125599825481308	10.385417912011762	12.455682723069026	6.111727699107945	7.601341228367052	23.333766878343763	15.35367580352085	15.183919868280498	5.74007891159412	12.859008756596623	17.018255190797685	12.704935041775661	12.183482139344646	8.066208819051285	6.04569719695532
248	-3.1212010304803206	-5.053770529385232	-5.803692326197916	-0.6520077569712398	1.1964459389043132	-3.1695833126152473	-1.8218699647682015	-2.3338055551733814	0.34555897029415816	4.601445663278707	0.04276816908648067	1.0679490539290541	0.30117973609224014	2.664350264498138	7.49106166855637	4.82473181460095	6.324318869835852	2.8105449605554234	4.969617354243693	14.179105722868192	10.285253498812505	12.26927086593469	6.092043861267017	7.155818921142278	22.733800830664194	14.7658032998171	14.73620697115647	5.578632340651636	12.357927291186929	16.372320133834762	12.261215179004346	11.714386910426457	7.746109466069174	5.711931214216455
252	-3.7702321911036374	-5.197573648681587	-5.7932209822302125	-0.45105782037341074	1.2972606387764285	-3.1268110196324166	-1.852463479133404	-1.7913904144835215	1.024568078315314	5.034657942458388	0.11860042035438276	1.225622650866782	1.263172623306157	1.8945320796817933	7.923580149672618	4.802775370869763	6.3450937110919945	3.0227324886299307	4.5952830198616486	14.170330965505093	10.094935391688031	12.175691573873591	6.175176128055419	6.393682463715902	22.231397572655297	14.449709855790939	14.533205949330132	5.501270280300081	11.91745755047772	15.922052343223534	12.079043357870047	11.268042535943017	7.477989177897236	5.461945043125198
256	-4.751705157680832	-5.5472321370260795	-5.948340877773631	-0.4604972887333675	0.9415103173326927	-3.502218714454867	-2.219464058040801	-1.4833899698952422	1.372092481963656	5.068639265614781	-0.17772492721509078	1.108563062730017	1.9192010115805698	0.9321945286103328	8.135687807523327	4.545214641539573	6.227062686457133	3.1590404430739945	3.7625372314825625	14.166055643555437	9.911304448853315	12.09320923613018	6.252410872886055	5.516749844927746	21.918819372150534	14.428314172556384	14.46434017344199	5.445021615586138	11.568346948026619	15.640154799074416	12.056731193619738	10.869876834128466	7.228982907163612	5.292061792363926
260	-5.782802567186937	-6.056534275022441	-6.2657956918830235	-0.6538410766306125	0.2398805910252954	-4.2412481200902175	-2.817625277081126	-1.4544812404150071	1.2507437435996829	4.802810179982224	-0.7331776600446563	0.7780097107317897	2.0998587555321064	0.2306416922945015	8.215829828500187	4.244246472133429	6.016362651893885	3.1165914456836092	2.9308748171241783	14.29673382010539	9.901369069850078	11.976504295628933	6.237064345825192	4.806447493815814	21.90457910729391	14.725777588858584	14.426996194654437	5.366596208374475	11.367609949021713	15.53965659986526	12.094511955243101	10.58479115674765	7.00672624726333	5.195552335973067
264	-6.57595442065317	-6.628189070179494	-6.673371774990955	-0.9600533818801449	-0.5709165916333727	-5.126424776485733	-3.4228451165565112	-1.5991303880371688	0.7301864605588002	4.449620712490153	-1.3186384406175964	0.4121396531189933	1.8319216920377452	0.169335797001553	8.322112062423745	4.124669541435575	5.82084225138655	2.8894357608323173	2.6161904268969516	14.687641106716098	10.223238919196127	11.835239380519283	6.107281669456085	4.487722862357333	22.255783024864236	15.360126456580737	14.375133478110573	5.2662415371495745	11.377353639487835	15.677929838651895	12.148966758572413	10.494106266229538	6.867254716701155	5.1797094214317685
268	-6.923741323156441	-7.130863648530724	-7.04511926779628	-1.2659597364888175	-1.2099052637070626	-5.847777351873965	-3.7737932109921077	-1.7220693783197343	0.069442137900504	4.242292393464046	-1.6727050500599678	0.22962698282440713	1.3217303719528686	0.8760274626548814	8.600967385511208	4.345577705855863	5.7603540275097265	2.595870488288586	3.0931174677002726	15.38550468375055	10.94934746838827	11.727201432183655	5.912536129328873	4.6144938352428335	22.946392001392102	16.327434498572114	14.339730226552009	5.181416975290983	11.627077073305585	16.121271092720555	12.252762763559376	10.651757213402309	6.8878774469042146	5.269628988312897
272	-6.749820692186857	-7.427741031966971	-7.241668206051262	-1.4396445714842654	-1.4464945756631378	-6.114060386479985	-3.6771733667994035	-1.6459054905344295	-0.3960755755438133	4.343439091206722	-1.5895912607113993	0.3966343392848494	0.8638262130862299	2.157385343826807	9.117067314017751	4.949733721633983	5.9178037494022435	2.435571902801578	4.222819317646511	16.324945408612578	12.035837143074346	11.734318703589025	5.74097345810065	5.04520891823131	23.846881806247488	17.590137437278624	14.410476648187357	5.154056536059524	12.083621948251553	16.89322467353523	12.48818775838735	11.046200724369324	7.12052915682708	5.492088780842061
276	-6.112997039619877	-7.409301739105811	-7.156933766415342	-1.3698309625372977	-1.1670837372877718	-5.753386482971654	-3.083581201397445	-1.3034820523730866	-0.4046504189288411	4.79926727990572	-0.9728297566647821	0.9649962758495988	0.7141786795704683	3.5780341534876943	9.832359289140523	5.882419571329959	6.317190154338714	2.5871157580860804	5.512240872771162	17.355516389897353	13.354458775182158	11.935063331988443	5.669028744689764	5.522970662477959	24.766763624603723	19.07845301579638	14.687696419826311	5.190955148942438	12.647480932728826	17.937284424317202	12.92679974153289	11.589096040076283	7.549883823406637	5.843828186539698
280	-5.17032097464761	-7.021513444339033	-6.749890310411779	-1.0062637303695845	-0.39100968739017583	-4.761444556612541	-2.0959336704742673	-0.7596129755868918	0.11663369059917829	5.552985177325275	0.15850526054417916	1.869499201822937	0.9859008764170896	4.653470981293108	10.639644595940213	7.055759412117561	6.9358157936459754	3.096928588677589	6.369597418915871	18.31176943924086	14.764389954483752	12.383952109541632	5.719982609612387	5.808582291242943	25.52639382593291	20.703800149143945	15.22961135833848	5.245162950624424	13.180229153734839	19.11724657954121	13.571584667273129	12.138534515251584	8.082379320719442	6.267632945448941
284	-4.117677201365339	-6.281105502482798	-6.050198062880236	-0.37654581570924056	0.7621709089109695	-3.282298318205303	-0.9077582932441719	-0.15508863290731276	1.031568286198641	6.499790175239998	1.6998268322943484	2.979932062254837	1.6162581402980025	5.06111525211449	11.427672357317334	8.40965841077449	7.738183002008376	3.831177463395444	6.413319094678287	19.086683225126187	16.18023486820645	13.102415051758449	5.855439648149786	5.791619286219852	26.021392756567923	22.376844349631828	16.022403676588336	5.236953245292368	13.553163494223934	20.258750864378914	14.338276826897475	12.548830954340197	8.577271439831287	6.659197790499153
288	-3.1258521001096913	-5.274689184222973	-5.141803728473271	0.4248124052289502	2.128150219312606	-1.5413294991679043	0.2903032295526993	0.38522604010596523	2.0721034951346526	7.544277648951797	3.5009286315266053	4.170379628142679	2.417129272080319	4.772546279301797	12.136588065976714	9.926025365564195	8.703329064329917	4.523571956657692	5.664337143902048	19.66675181191849	17.59438891737043	14.07522197984434	6.004311069587886	5.5189871648683875	26.245693140523105	24.018756805813545	16.984729723963383	5.103399263848554	13.69259353995345	21.20971102127973	15.08685585027605	12.721918073959346	8.90467546122147	6.907287580217025
292	-2.2952451647983247	-4.140554894483848	-4.135001648953435	1.2711994615885036	3.5471417814343424	0.23337300062863192	1.3838721478808755	0.8249608853492724	2.9694039746654513	8.627114274178103	5.395617471423762	5.363597379494107	3.181420318200596	4.050168980863173	12.772623029886017	11.589018792456848	9.823960279457138	4.901953684828347	4.526514518753534	20.111865946536874	19.04124255141279	15.24689193690813	6.106485828241053	5.136009680178574	26.264509134738294	25.559453899701982	17.999462082241273	4.845066058324025	13.60036846541823	21.88869661526858	15.685506781076613	12.637290922683752	9.001824356239863	6.9480924430900775
296	-1.639512177142673	-3.0383803767740174	-3.1423678318795165	2.0451011606081004	4.888044821795836	1.8658864451029324	2.3501601159841408	1.225429412608908	3.5701742082102976	9.711467718400822	7.215898495575553	6.527961714475512	3.7875890636184093	3.3177502071538814	13.377409901222846	13.322764363030734	11.07662865703176	4.83354471893661	3.5767214207944757	20.496519036996382	20.526910730034885	16.518093067426683	6.145105823260734	4.788476455042828	26.158197336911	26.926586083139952	18.95302004797342	4.538196552262859	13.341299023323295	22.29706758591723	16.070465047316603	12.348767249400973	8.895866371583065	6.802168352119389
300	-1.101105329594549	-2.110688681041873	-2.262036079417692	2.667602055490294	6.0520496215608635	3.2525620378390956	3.217632047158853	1.688480134515684	3.8817067048297598	10.750360461749551	8.804054238025806	7.639532546782591	4.247525204424956	2.9748351498836723	13.977457011219103	14.959170303723425	12.385505644999135	4.409045685126775	3.2802228844794636	20.851974434658512	21.972576085882	17.750637009627308	6.1508545720255166	4.548868167836501	25.972673350563	28.038053441783962	19.76289553420993	4.301060665715573	13.00634094769193	22.493331852389485	16.267557103093406	11.952749222141545	8.682147957816012	6.568550570116443
304	-0.5928136691385127	-1.4439028465055577	-1.5636352261165927	3.1091551702202063	6.971384507698018	4.356554497209986	4.007221688643724	2.275549882865629	4.032411088299365	11.666672677148487	10.036202405386122	8.645189263451316	4.674063670755276	3.234289876401464	14.548119508252439	16.270441014218935	13.610818828551025	3.91200183834397	3.778971900935698	21.143125480676357	23.210899294425456	18.78873629594679	6.176318629883589	4.403999317494252	25.700673992118872	28.80775825856623	20.38319964030983	4.230428208160748	12.668760267697072	22.546112003623414	16.36268611591475	11.542422265474885	8.466907479843817	6.372582896355843
308	-0.04316689063140867	-1.0429981920612017	-1.0762897702699952	3.382663956684814	7.615380267943423	5.192347036603719	4.697661864818011	2.9552035257114357	4.178842534005101	12.365588156951278	10.855113955747768	9.458539938888038	5.186631666439926	4.053536404865902	15.014286957026652	17.056819872707155	14.578425370602682	3.6845223810630756	4.856967913762725	21.289289420737017	24.042055069304528	19.494882534398318	6.258176787788489	4.298767555827563	25.296766217259734	29.16397850302819	20.792917199089846	4.34420060014645	12.353541343016849	22.49160188718389	16.44051929137742	11.168803186828338	8.305931070338133	6.295611842473028
312	0.5673764333705212	-0.8292314389273574	-0.7774285058420524	3.5299074560689196	8.004202822503732	5.813899025543484	5.239986406448041	3.6140050796816667	4.414400566399876	12.7756194745806	11.29661461839041	9.997914289027712	5.818573460193547	5.176374422355716	15.286519965677709	17.24349208292921	15.143322906407898	3.961529960167166	6.074875816266417	21.211915916293695	24.32122987328718	19.7897490955435	6.390863402443722	4.1931753052701835	24.71001428087493	29.071084902798855	20.980083412606554	4.564255226055709	12.032109230180927	22.31662744609734	16.527473407979173	10.824224444717359	8.173971155510168	6.32530926061094
316	1.1990917890792128	-0.6665993316032839	-0.5916963800750189	3.6117234138854255	8.21634576630406	6.305991633706587	5.607235894351391	4.121991623961868	4.726339805114258	12.891678777571268	11.487636537158615	10.24212739265918	6.4821119144814086	6.248657210786157	15.308629950973447	16.928306536849977	15.254322013488492	4.757732379345303	6.985098344333316	20.876590676051443	24.028068481815428	19.676380107792617	6.527003271789944	4.086276997739783	23.910987793634465	28.541582035483376	20.932727760870645	4.751053321287214	11.641701668910752	21.972669545964774	16.571165043000697	10.453021976782484	7.981370428915139	6.356967909975589
320	1.7760211184484118	-0.4117564846610221	-0.40848430888040416	3.700475444987642	8.37533471853937	6.770441991878445	5.838916763822605	4.41371344405664	5.017376887051579	12.791461912284742	11.606319398187095	10.264622662377777	7.015119534900831	6.954526406849467	15.088976821950382	16.34883304282961	14.983368835766822	5.865562900992879	7.316690903310579	20.305698343508432	23.279685915345535	19.234327267722172	6.6018957925054	3.9929304022113	22.89989465653879	27.631114889954937	20.64012903724415	4.769794452068755	11.119318934023587	21.409925406760564	16.46709628715993	9.983502362794567	7.629713039208506	6.2484950861527775
324	2.22708057794955	0.03035681687081658	-0.11741923511185105	3.868337859877551	8.611792542649404	7.301531296415259	6.043466075897721	4.5382661704877805	5.173527227691273	12.611654249774844	11.817208260264515	10.217288945151092	7.2883972937628725	7.120278340482498	14.699785195430556	15.783930738652824	14.500572167979419	6.961057168551729	7.0512099088026305	19.561008403982342	22.281843129168557	18.584310484695337	6.563715918181629	3.8991832634709382	21.701232855365905	26.420358591131922	20.099437662876845	4.5501246337451935	10.434889767050432	20.611379571374354	16.114692647302594	9.36682603378512	7.075284940022365	5.898972973235187
328	2.5270922120187533	0.6678763611143724	0.34956744224982755	4.171146382291133	9.014392830024049	7.956799487052126	6.352717860395256	4.645992267322732	5.1370529998780885	12.495843855780128	12.21318527952844	10.268058750931113	7.305690746935763	6.758169157131599	14.250201189302462	15.443709334482504	14.006312334937753	7.75386140773051	6.376637442701807	18.716688108872834	21.248733466859917	17.84162898327453	6.39357469851842	3.74207543381999	20.36156649217109	24.999532636467208	19.32274050602434	4.108596791384603	9.613227819967214	19.61368555839036	15.471824606933492	8.609534241873856	6.367535575049007	5.30835531801859
332	2.7152483394733924	1.4188103640020766	0.9880375837176031	4.630176532499381	9.595821356388115	8.7373437660873	6.853165609223299	4.913990008345321	4.946745383171069	12.54257771186331	12.793193784838962	10.524387333047617	7.223753910899958	6.045239433284601	13.851197207765905	15.404464682787152	13.653431857923417	8.098531702575634	5.566445336593049	17.843830063591238	20.33406633965263	17.08145709493499	6.105970367274336	3.438332787415846	18.956813764394507	23.463727891809587	18.339584304282937	3.5250890165974424	8.735319115518681	18.50481791592631	14.577719651610323	7.7840504449772885	5.6372608996161615	4.58268164431363
336	2.880104296088421	2.1490199511629915	1.7216219858571797	5.2185411321491575	10.294416401621401	9.591222738846014	7.539244155922514	5.450337396212365	4.7254676699541065	12.781032529986854	13.485605205820283	10.986708613313473	7.269732933763609	5.256179796299734	13.590716327686252	15.616321524293282	13.498188938393493	8.016468027856067	4.8584017630938225	17.013801531751312	19.604299495791988	16.332031208765585	5.731546387506776	2.947965376086766	17.601213410761403	21.916753713586413	17.194200472335886	2.891415111871021	7.915780047458425	17.399120286881992	13.533527340098706	7.009406072085666	5.038416372929857	3.88072298977487
340	3.1211044709560283	2.7351541450109034	2.435728543807652	5.863713249660879	11.011756869170643	10.441507313115267	8.319994905446668	6.225997432248397	4.625198352580309	13.183001484965633	14.200881922154032	11.559174508474582	7.599483470803383	4.670487868914939	13.525882686797695	15.968530614590563	13.501878704314354	7.634180526532432	4.383954513925476	16.310466725177452	19.058481168312625	15.59625526305244	5.2977275714633905	2.3297021330188246	16.442098576041403	20.47553248004253	15.942721326630823	2.2669317665086033	7.266239147914275	16.404161411830543	12.457708327311959	6.410404189137551	4.675242412207378	3.3352699195577684
344	3.5039117247807927	3.1227211873368343	3.028941146832639	6.47059582030272	11.666163415064812	11.225048036845024	9.074545837379501	7.0709557354739685	4.762431132690373	13.697140659082596	14.87996669827154	12.109394996587362	8.181302049961873	4.4822764283500875	13.685234035272325	16.364484745670953	13.573956455292043	7.08955381510841	4.161677350027443	15.830280263987463	18.669723463605667	14.882612190818572	4.821404921756566	1.7434517101138935	15.627348860386045	19.260049771319338	14.65070339318631	1.6662416416061325	6.857062322470297	15.591503103945785	11.441803903302164	6.069842323237133	4.550821769668727	2.9916982575223714
348	4.032201279950286	3.3498384867969873	3.4564568909162294	6.952805024712701	12.229662864325705	11.918967216916778	9.720462774530457	7.742286662581511	5.172599302583753	14.278595888327452	15.508726080839347	12.539784399797608	8.786881424653636	4.740241038752257	14.068034136539733	16.758850055344222	13.627249683306903	6.468945963739503	4.1414580240592045	15.6571445069783	18.41594119190754	14.222441637370595	4.315180290771477	1.3848704064690536	15.252232513066522	18.365350676898547	13.389830555488361	1.0789928409037346	6.693061811714925	14.982562980971492	10.529924366114692	5.994811519746148	4.566921699437649	2.796713106723768
352	4.6483392598094815	3.523415795013532	3.7431039715676375	7.259647827893075	12.72566124564179	12.53862091713453	10.24942586218421	8.034373263101388	5.799615368505572	14.893730125971166	16.093152959246623	12.827845541038096	9.108733154187718	5.339550004829479	14.634664498573486	17.14092250311005	13.614452327687358	5.8099622579752985	4.2639207732312165	15.819466550941033	18.282083465194717	13.662563289479953	3.799898853244923	1.3853003943753774	15.311567267860564	17.827970459749444	12.232965438475082	0.5040196167618356	6.715366823407877	14.555438958612378	9.73007581161556	6.114350303471441	4.576049793134085	2.6428301267656056
356	5.258319841460347	3.759313097045512	3.959747781292881	7.38526437802148	13.18999859340744	13.108424153610953	10.706742259650204	7.876895884653766	6.521469576582968	15.500910719836131	16.616844135292595	13.013152089642508	8.941787697150719	6.0690088118866985	15.295650443559929	17.487165406898956	13.529902424031198	5.154407965044232	4.496447074981791	16.255523640599375	18.24082942171977	13.238705601646283	3.312397710066565	1.7362190441165293	15.687884291141412	17.608331635841086	11.246217699267163	-0.02828310609173613	6.830531579892017	14.26914116117847	9.044807411246088	6.312131865777266	4.460278499786242	2.4408030448324376
360	5.764684662569594	4.116703976727903	4.176783074324021	7.357521038552951	13.620399440709454	13.62378784554709	11.129573793922011	7.373311501006981	7.194636326744957	16.026235539981982	17.0140323209353	13.144155469133533	8.322459199874041	6.69805525042302	15.913532216902272	17.725969269821427	13.385072674335824	4.5935177687064375	4.836942183680229	16.814495044217402	18.236076308938802	12.94960590907785	2.899180643391332	2.2840330543072236	16.19045253480663	17.605972245588255	10.48048302865407	-0.46209576609291814	6.954579812611051	14.093895876586744	8.49860666036681	6.4797458485083785	4.196120728388967	2.1771149580348075
364	6.088283523446921	4.560486305166787	4.421407211584823	7.219131928337164	13.951061213556253	14.031784975864653	11.490699739055179	6.7619972058279885	7.698051433201007	16.362308460886407	17.18426700068128	13.226302113518418	7.540559749638675	7.071446400908521	16.332162815820915	17.75050349522335	13.184864010900872	4.262555111613572	5.289791093822296	17.30480761927343	18.193111373744543	12.754778829796791	2.6009304457800835	2.8029885221284565	16.632087665527546	17.707414582368273	9.96810433732075	-0.7431704979253106	7.051703912097282	14.033022845124222	8.144963243901277	6.565646631830318	3.871804227590357	1.9256757449168838
368	6.175903304719843	4.971392618979202	4.66036223188606	7.013230782921957	14.073709452382339	14.245254480635753	11.6901569071307	6.313358767782225	7.960128287245137	16.4015559736047	17.0442466305514	13.208167996437737	6.999978047817477	7.16738699057108	16.429471928124062	17.478321031310934	12.923790899072225	4.276126850776083	5.830290779652489	17.571681931954128	18.057117416568364	12.600315062181403	2.436108344603202	3.1069931905503716	16.905094104047254	17.843860581169285	9.724595045333011	-0.8478440024904421	7.146442395287045	14.123411142930681	8.047838190740732	6.593991262953823	3.6467251685577966	1.807506318297203
372	6.001518711196499	5.199378000483672	4.816163050889673	6.778208715491648	13.897434199531492	14.185296022840355	11.605816811823617	6.209015830576184	7.963275889318489	16.092517812153503	16.587423282705743	13.017125096834626	6.99986646792274	7.093833428592478	16.173038441833018	16.92168803711083	12.605116812352385	4.643395412165714	6.384610636803992	17.566144898887053	17.83860011365327	12.45806881620265	2.395751947076308	3.1364838997807243	17.017236666630335	18.02600474574848	9.752202009374638	-0.7937425950991115	7.303102951684728	14.412021600576034	8.24774549309246	6.643968088541755	3.6735107805964926	1.9233380507546949
376	5.567455277691574	5.132020937360275	4.807090747140606	6.556152804034464	13.415069546208331	13.83021446550931	11.174733133712781	6.466591341858241	7.738214950097895	15.48979564570648	15.914947469584245	12.623249975758752	7.568137626613725	7.02309988156037	15.651629408420446	16.221881825498762	12.267876594087625	5.228706823499223	6.83908174695417	17.3693084278264	17.63432689029206	12.35347935418644	2.455047839642054	2.976414434547654	17.068798022090974	18.333702041114197	10.04029939023906	-0.6256200655400596	7.582914810109131	14.919158897879619	8.73216340721366	6.8011059589335945	4.022264947272736	2.2975351752448137
380	4.91387890528774	4.7460722803452	4.590080726478787	6.400603278212588	12.733401266374202	13.242306675855941	10.454803440401033	6.942652207965873	7.354662876633898	14.761795960349676	15.214161834451703	12.088776557918715	8.443066575668169	7.096942406856113	15.059075317509274	15.617195089964904	11.997205703962898	5.800331101078228	7.079184991129462	17.155591921407975	17.60175891246901	12.36059662559181	2.593585007795089	2.800044291102565	17.184045748240433	18.8615035534535	10.558510753676796	-0.38778844377838984	8.000843027895517	15.606440504725944	9.425236678168897	7.105195027532298	4.643862235742416	2.861490957664956
384	4.131404389441033	4.120220650760773	4.186443318287669	6.366298659463751	12.044923751938123	12.556233374365453	9.626056646839121	7.410674076443655	6.910286885934551	14.142521822508897	14.691332779985586	11.56734558999692	9.216879821395143	7.347518902347735	14.63033672453656	15.353008231501052	11.903598755346692	6.146646007277841	7.040512067185353	17.111345247935702	17.891941025383833	12.562427489034873	2.808781855167419	2.7716622282622354	17.436788514936303	19.64741320417923	11.245513887623432	-0.10388372067210984	8.505603768808617	16.367679554622846	10.20137784289634	7.522073726736129	5.388087735877587	3.481471768172409
388	3.3609661971113	3.406265011770491	3.6806166079100953	6.481281264153916	11.550485581799741	11.933178871543983	8.925616241808246	7.6760906979354075	6.513807280307147	13.842875445701955	14.490889512669392	11.246668787217684	9.559424376194363	7.676168899229156	14.552256547426564	15.576562842142685	12.076513259915009	6.193240626911178	6.74911783421744	17.347078279567096	18.570589018665526	12.995854344935204	3.11054658104433	2.9652838632103995	17.80882258687298	20.6231822446844	12.001871078706978	0.22053752783884903	8.993139244262279	17.05051036344574	10.915936442471649	7.953652838653087	6.06386803049709	4.011990060213717
392	2.767233126329448	2.7749707628760745	3.193727008385589	6.7170662710354225	11.369413347149482	11.501674623060673	8.547777154322258	7.666088561730192	6.259126170568075	13.95918651871152	14.639504395717028	11.261337251841294	9.389864897862694	7.907899836601855	14.884888611406085	16.26806636517708	12.534973112883485	6.052239879586507	6.323619349726535	17.84345622326015	19.567478130528507	13.612318958246945	3.497990599383755	3.3375530158654807	18.19884867841756	21.61561388280375	12.697033850084184	0.5761281833407959	9.345420813807424	17.50135798803988	11.440162629807773	8.278248766025701	6.510665400279679	4.344887722489686
396	2.483722203659624	2.3604104459295745	2.843455784294353	6.972810250797446	11.482808084106841	11.311123819403583	8.560766198478916	7.44790790584794	6.196222766491051	14.422510110681388	15.038458786189256	11.620381325947003	8.89769933361457	7.8821615973785075	15.527887305156204	17.24000926433449	13.201556172418787	5.955036148295057	5.924577221217418	18.453599883218708	20.68081850552521	14.277368509485337	3.931980123129345	3.7575917149087448	18.46933932409694	22.40009492940711	13.19386955744796	0.9268270111525709	9.473513579292126	17.613616898889266	11.688296288544088	8.398672082677228	6.64677999725658	4.432871330513398
400	2.553711884726814	2.2219307366539582	2.7035515240122012	7.096776467525477	11.741218537250804	11.317786188161177	8.881849266515916	7.168959599514863	6.310011847777248	15.017190895312776	15.504344901040838	12.189284293871012	8.407140710585534	7.53395793920002	16.249881703357758	18.203844024474282	13.916388476522211	6.102341636509572	5.679306492771725	18.959608030134522	21.638696615899768	14.812881432327632	4.323863018563276	4.07337759896864	18.504245711337912	22.78203195542035	13.38546081978162	1.2070987194102545	9.345890021569911	17.360088304558662	11.632082909779763	8.276876428687856	6.480188830227231	4.285826195386605
404	2.9008114264682696	2.332115167451819	2.7760167051799525	6.951802713008688	11.932759254845823	11.40652272205579	9.319321608856228	6.957348805981746	6.521642191633801	15.462690314354015	15.83533378417734	12.736595121651781	8.173576334344173	6.929651242880289	16.770088153460378	18.869588804287577	14.485605203295526	6.526526434632944	5.618345723272316	19.15480227402647	22.189990941290112	15.06160446179	4.5565252189035945	4.175726880021268	18.246406509108034	22.666336002343314	13.228754010179708	1.347062107499874	8.989873863411148	16.795707660231635	11.301299066620771	7.939463118535105	6.084571346179682	3.95065068201165
408	3.3483500396114145	2.591582530154271	2.9876751824287693	6.490817530456743	11.877749413065764	11.43677041027288	9.655120825232538	6.846200448871011	6.715743524761907	15.523893317129179	15.873541791893375	13.0232820182058	8.23761842555211	6.236920817840935	16.860446887363103	19.0346145149305	14.743479691475022	7.051915150957833	5.663322911269111	18.916858625335227	22.185140553729116	14.943690262258603	4.534658420557924	4.032361974072194	17.703203156597652	22.08352846292121	12.75848766920393	1.3130580153692344	8.471834161349932	16.032516439013975	10.773110362509984	7.457711200958687	5.560804829862906	3.4925010116138013
412	3.6874232199076804	2.8627979683122913	3.213241330617204	5.803225025784056	11.504778832952738	11.2932347966216	9.726239179850346	6.766535741888307	6.785323602711234	15.102343521135385	15.542839011051072	12.894598928320733	8.4254646088547	5.652158246075131	16.428405720241013	18.63132853572409	14.603441201533176	7.3875784687443975	5.681878552396579	18.246280624098585	21.616468374989093	14.48072620550511	4.240866650364619	3.6885723974560487	16.930850939919726	21.166271156277098	12.074667900117422	1.138488170610396	7.87195012966137	15.202053031686866	10.153932545774918	6.918443185505022	5.006813513512576	2.986156217665148
416	3.7615280056397733	3.011708967234423	3.3184590255877606	5.0970086922704505	10.87098691102996	10.921034785354284	9.469827628068522	6.609208090307982	6.679903490367531	14.26727100584872	14.855232201263675	12.333403556202457	8.486556985409441	5.320775018609791	15.546243628352046	17.724588349414756	14.078474009255075	7.300599079773326	5.5749997951896155	17.25875659399907	20.605197854471015	13.777778590702734	3.76387404445221	3.242411605278053	16.012784917457346	20.09162325554794	11.307589502395905	0.9205053425436537	7.265602570309682	14.420396768401568	9.554773306564993	6.399858458573356	4.503679740979155	2.512674086902568
420	3.529867163329153	2.947455875584512	3.2098648467084923	4.613904464516782	10.121413205341884	10.33662984145623	8.92315766942676	6.314360602649081	6.431215270017625	13.215767827045992	13.894843066420359	11.457093209904187	8.271009424308138	5.2882137165069425	14.417131387550437	16.47372623099085	13.268014874338396	6.762807828994887	5.349194513166945	16.139579732200698	19.3480128753453	12.976786580701118	3.2750782883925993	2.8092145848873953	15.043967209026912	19.01909251179586	10.575902912141185	0.777393756334236	6.715002042982773	13.76656051974717	9.063735939030328	5.95852516577282	4.11212014113767	2.1505145972316053
424	3.0777485292930304	2.6495323114258085	2.87178420295452	4.514110076951356	9.412800765114357	9.61487004713592	8.191648462594443	5.92522667342525	6.137988075018207	12.183069198366685	12.79161163915204	10.465859386723217	7.827779750134217	5.503256307058983	13.293120350654405	15.081790885994405	12.321333854084493	5.976066574267351	5.123451219974686	15.080307922436136	18.050102188314593	12.204659431161295	2.956199876950986	2.4880492624408137	14.12133785497205	18.051137878619596	9.954841588635972	0.7860380987348965	6.2671346506198775	13.275537457327216	8.722101189526663	5.626538739303877	3.8705365560084743	1.9546420524838264
428	2.5645697052102645	2.174399608844275	2.3737544953496195	4.785882460908752	8.84020612392086	8.85762689261467	7.405055027385576	5.5654735424670845	5.918580993968153	11.344504327742158	11.690542191553554	9.566503500627174	7.361405830871024	5.8535179944070785	12.379151313044964	13.74708362923238	11.391765565720979	5.255993352971347	5.05594299947252	14.219142877918475	16.86865802320663	11.537049264389816	2.9108724520623745	2.3330154360042337	13.32995697470691	17.223968462373033	9.464642500823313	0.9338349676396993	5.948509678127209	12.939894643538402	8.512143113579706	5.411186681436944	3.78630494115461	1.9313063572760198
432	2.139510626159534	1.6377780396119561	1.844119067304496	5.237145887503796	8.403709390403767	8.158851602936036	6.681927664098993	5.354567991089169	5.854644760609068	10.755118342902088	10.722603770840626	8.905446983741493	7.08109377026893	6.216382964651822	11.76486107716914	12.626737562725044	10.598173114721677	4.845708357974503	5.232035623692235	13.605187381726864	15.885146100946107	10.98981568422848	3.106707565093329	2.3350770414525197	12.721142736742065	16.523681598906713	9.080467201195118	1.1155400248019405	5.755921826135419	12.716043440185116	8.36545274529772	5.293820844636096	3.8260929487903614	2.0256879278537694
436	1.873987312353903	1.1733689278541786	1.4171667063219004	5.580130562998927	8.028010348078391	7.578912715850437	6.108999713732753	5.318474756164427	5.954054340588796	10.351383183093786	9.980306600168358	8.533822991759832	7.048562508906971	6.500230295935908	11.41091153124881	11.81363865730722	10.002746556776742	4.771132933968452	5.58693121453205	13.197186436712046	15.108591995240703	10.53472516261136	3.3823141966301553	2.421186679449225	12.290704696141805	15.912552793381796	8.754261948417632	1.18048608005026	5.650131211320727	12.534347502533501	8.19131658393317	5.230628954079088	3.916870822554089	2.1358663981871677
440	1.747535820363592	0.8848185516906084	1.1792640656261602	5.572007642029445	7.623303870981279	7.138358574964438	5.733305916616103	5.359096990406348	6.146990283705195	10.01110360479031	9.503713583793516	8.412248590211309	7.131086808320199	6.6635703872288365	11.193191500060221	11.32795712471997	9.608234381259118	4.833800303652761	5.918928131418448	12.895639386997304	14.501217805489995	10.127066586675268	3.5229880720837037	2.47733330101157	11.973652809430078	15.351732215268923	8.437197663939823	1.0074866984679982	5.56201647307884	12.31583782901292	7.915191630406687	5.161279188476591	3.9655747313514116	2.1534097140303263
444	1.687768097430995	0.8132008293601343	1.142662283873478	5.1447586883351955	7.155417901093242	6.833806974323444	5.565314755693804	5.311795221269182	6.318875296851549	9.640052771071362	9.284199691220294	8.448743798859402	7.093884927005433	6.712570650319234	10.982686015057029	11.127181978742504	9.37374017256161	4.751499640866165	5.995439514281916	12.596635786677997	14.01428505220278	9.732779478295747	3.3697576437748946	2.392105811755313	11.669245690447655	14.816809616826992	8.09692762237949	0.5690115079818716	5.416454778347472	11.997195213545442	7.512813549147204	5.028154837311233	3.895741929708875	2.0143258520767917
448	1.636891360918516	0.9326686239536792	1.2578406302165916	4.453299987993559	6.686643583581715	6.665179235796551	5.591339097211351	5.059944616894057	6.364136202956759	9.239522910632408	9.28457353155138	8.549877145161682	6.772294981070544	6.680522424997316	10.721224757782585	11.13357350399492	9.242057776959015	4.355219353170388	5.694293961453368	12.246718375757254	13.620469058934376	9.345889067895598	2.9049267695517513	2.107716793460875	11.294109315967537	14.308753931159025	7.72741649584049	-0.04971811162793758	5.168149458234636	11.558787316703098	7.024822217371451	4.802303778921491	3.6846072580770217	1.733904476556455
452	1.6040350158247736	1.1741303175846172	1.4535220824737032	3.8089780711327665	6.361475451620703	6.653813822159475	5.787206635168981	4.62927721762128	6.231047137741019	8.916423775095616	9.462983107516957	8.659713723253512	6.207004054610803	6.598380548984001	10.453209850622342	11.268524141471586	9.16613862584454	3.718721380381639	5.0923194756685195	11.87215515953985	13.329643215857605	8.990474678228967	2.2661929073338327	1.652637596726234	10.836503001510088	13.859726870830308	7.350018005887568	-0.6879517418658415	4.830062377179044	11.042221995131323	6.542816622427509	4.501967895585528	3.377530566271139	1.4026505911699514
456	1.6643394189775733	1.4615559541041154	1.6779808955742965	3.52604602877154	6.339781268325867	6.835395795730566	6.125024303230869	4.195847023860851	5.939592346454166	8.828754402758365	9.785995458691174	8.769303299698016	5.644991383605433	6.470046503897857	10.29736134790303	11.479506463631779	9.123764015050648	3.1301805894023516	4.438271988153571	11.568772286770661	13.184391942115441	8.709855057660608	1.6800072150729648	1.1375980348475676	10.381483051792205	13.533760990305636	7.008628827519757	-1.1822881668758491	4.478087890763007	10.546889278486411	6.174339755682043	4.193024147891415	3.0703165453640406	1.1440690726959148
460	1.9025522422439416	1.7386394695254574	1.9153841685573694	3.7583212757589535	6.7061514685117105	7.225431424018281	6.567473394978782	3.992064704352768	5.566411004317745	9.091561294489862	10.220248196547429	8.893788315252863	5.397703633985634	6.263222201746698	10.372139904537962	11.744750946909853	9.11317441546801	2.9159693644335394	4.015049447413023	11.454573602366603	13.236836399990846	8.547388055202147	1.3476661409685027	0.7117199283750465	10.086456273362272	13.41660305450524	6.757503015623271	-1.438689466658796	4.22538422471401	10.201167080872947	6.001401886093034	3.96813177060582	2.866969101343142	1.0549192401954717
464	2.333322995970498	1.973778719687098	2.1694383566442768	4.411229599305831	7.3993563465222785	7.774978141228221	7.052179318742811	4.1604013337953125	5.207556711400523	9.691409086554494	10.707842799808557	9.032411552512736	5.64225862985867	5.9214267581211235	10.713813754688502	12.053577392663346	9.133194900341778	3.226333371599775	3.971027364241698	11.606252640985115	13.516962017264554	8.526997544694545	1.3464645113328648	0.49765968197106913	10.1130618793742	13.592150653854505	6.644024355326281	-1.465889211768346	4.1764125718530325	10.118002865995026	6.051997169473594	3.9121744533948037	2.8345482277830287	1.1604822844769853
468	2.854118578380591	2.1439382975808505	2.4257111488134124	5.174876676845581	8.201908090864439	8.345593431383016	7.476170520980441	4.643243777949788	4.940253245278525	10.457636806787923	11.145101519102534	9.136104560673788	6.292220099775292	5.405094133081965	11.232818575155484	12.376159636721951	9.16144940924261	3.917932023646991	4.231131542967322	12.011575668526225	14.00773521701424	8.641135193942509	1.598142619866445	0.5401738272380293	10.54889008719718	14.110939943926525	6.69136856297042	-1.3549925054672174	4.3832969554859735	10.354380581462683	6.297292693451451	4.070488919471538	2.9793376847386375	1.4087760412887635
472	3.263801328048146	2.2138841096295963	2.623114817672316	5.666448101996084	8.803798653309654	8.729571320428212	7.697457294103386	5.185735212584768	4.799739825528306	11.111599894126083	11.388687105035391	9.106302238361335	7.02541015758603	4.738810527281259	11.734601944860282	12.64591023113367	9.146878219399028	4.612457740582447	4.5403108482169925	12.562528578512156	14.639658890955895	8.850978828971787	1.919164891165927	0.7924647907276428	11.35841748230908	14.96213146246839	6.887156945959989	-1.221034285323557	4.825021731592405	10.891901942410259	6.671458227479918	4.433315742743721	3.2543587602466686	1.7040045218361077
476	3.346723071231733	2.133796448088634	2.663122408818865	5.6099543429834435	8.922174431209026	8.721487023268448	7.570186595877351	5.463356957947072	4.7722754357966215	11.377556772116716	11.300987215120093	8.835525490387756	7.459084491970844	4.036991109192343	11.998781173929622	12.773306814369153	9.027944542025967	4.905680167210296	4.617290962005791	13.094856229145698	15.309912642925775	9.100193000705861	2.12269281805075	1.1447182864851693	12.389179198456658	16.06323047397061	7.185206871965297	-1.1416029901292042	5.417570100457692	11.645696610612092	7.101160985184085	4.940614211006372	3.5891091732961584	1.9568920086091273
480	2.9876372738747876	1.8649433804156772	2.460028880584068	4.965391623358367	8.428543069540288	8.217368105168667	7.014004212790609	5.264554964125269	4.805048930434336	11.106335611912812	10.822303744648966	8.277386644445846	7.36818216370914	3.4834918887880364	11.880322426364932	12.692285505674786	8.773514725468633	4.604907977875678	4.331467617543099	13.456527675986472	15.92005725655865	9.338524794842902	2.113909239200246	1.4780904017323528	13.429211582610613	17.27579303194434	7.522120456777515	-1.1254302234845506	6.047042354575215	12.49492832843869	7.528913002078968	5.5023574690180395	3.9221701522984	2.1223664230167842
484	2.2558250370291986	1.4208607637771733	2.0064642378693454	3.946649064590112	7.424284916253041	7.293033581440376	6.088540061837387	4.6223649861934195	4.826014506553277	10.351858112902157	10.033133481443675	7.509588699454418	6.815832120853202	3.262654534685563	11.38214680658999	12.4159764930057	8.424632051178579	3.851951112558694	3.7910857104906843	13.57111069113907	16.415281254331767	9.544362044079072	1.927659625908579	1.7129290060665054	14.284295999702222	18.442830992865037	7.842001418341719	-1.1251149149144848	6.607209188945842	13.318415608158901	7.919725874932593	6.023058876089625	4.216691483341915	2.205085748827225
488	1.4074002468815314	0.8963299371023714	1.4128737413974364	2.9217784330986825	6.224809630890312	6.2140345416536	5.025746809668386	3.8167731665568114	4.767517554644083	9.36211774369691	9.165304160819792	6.7485914059961125	6.119077667045931	3.4674446495249627	10.662257167599432	12.065745323235651	8.108666399510495	3.056192867192302	3.2775218404036415	13.46402164874587	16.80489154387544	9.734456037739756	1.6938734011799237	1.8236564351768991	14.834641419150135	19.43213839393173	8.116433123123699	-1.0802469226266427	7.022454244049793	14.018210375679198	8.25198839011544	6.419055445676988	4.451005924431236	2.235012764056232
492	0.7937212566363357	0.4593435216273632	0.8905998445913563	2.2490417900523063	5.249705778219155	5.359055505573689	4.185657490652934	3.241125337047048	4.588514316418045	8.484711625611855	8.54152391184537	6.294046862923756	5.671061501490051	4.025077332824718	9.969756101232594	11.846720665585512	8.007064799120043	2.6728486947287564	3.063952676666729	13.238847699119068	17.151637987702138	9.953287099504156	1.5557876786052778	1.8188283397529927	15.04594417587983	20.166139551746525	8.347308137799585	-0.9634562706464253	7.249279003914126	14.524817430064202	8.501975991718167	6.62604139562437	4.597406375721766	2.2319333496963307
496	0.7122188192505569	0.2974576644539934	0.6756466014016087	2.128792995800241	4.859871852048851	5.079184996178976	3.933629741273984	3.2042386450930587	4.2899231802395414	8.027393320797234	8.457769372567084	6.414209349650405	5.726876244391125	4.696737277570589	9.53959367250908	11.969687431632472	8.281531313014483	2.9565839692809486	3.2323231615474204	13.017980542694282	17.532718614181405	10.244639370802252	1.5920793969966214	1.7080372528821395	14.940071068236978	20.626672692673633	8.550483682025385	-0.8010688999931815	7.264724713103646	14.790865860788978	8.635503747118348	6.602174265405087	4.6100802305176485	2.184395069329293
500	1.2681629625727324	0.5388624654516369	0.926437852427815	2.5355970795509917	5.21135662670465	5.5517973759671895	4.4820399171202165	3.7787837886772615	3.919516553519699	8.13674257131461	9.056596733115736	7.218563538446022	6.279261096359525	5.169051157298521	9.495628332959436	12.551034895679846	8.989203430368407	3.829588880406901	3.6042485146123053	12.878730741410111	17.990663483020324	10.618761035812275	1.7869197085087862	1.4798843823262733	14.550273858527762	20.83581728443075	8.730854966054855	-0.657068846950985	7.054748517344722	14.785021744592795	8.614730813210834	6.330461486092316	4.433709610235403	2.05866050200453
504	2.320811504226574	1.1873275011603062	1.6459848839210698	3.255414000875108	6.191050037011924	6.697041971464397	5.771520123215177	4.77513598190146	3.562657824104519	8.748092629280377	10.251248333798262	8.58026788452587	7.088417035326124	5.197225557556978	9.805878614463728	13.540072406915678	10.029960607001003	4.937925803115212	3.83688281997894	12.817650762621453	18.498832655931658	11.031654330057906	2.0573894925625487	1.1071809502304546	13.892394984456324	20.82683939443877	8.864757515460436	-0.5930950030611423	6.614158136834791	14.495613061546626	8.41677568217986	5.823790058691119	4.033464421579176	1.8295779182018048
508	3.5389256388006674	2.108361715715717	2.671823971678365	3.9991845983625023	7.465482216106303	8.199779489795594	7.461347561117963	5.849783882630618	3.317951194015557	9.626362776293915	11.74168965236192	10.155765507806423	7.8346991341194325	4.727696883663078	10.30836388846363	14.71538730720757	11.159522982078819	5.853444084647744	3.6317217258313943	12.760166135996569	18.960950803568632	11.389762849661581	2.3127107561848925	0.5778995737744033	12.969802823699709	20.62292475261962	8.902196861679387	-0.6303236468613446	5.95848558828879	13.942789996230944	8.051847437556782	5.1293282379347005	3.427712670255159	1.5099916420006259
512	4.541436660744668	3.0748529356571526	3.7376754189537795	4.528739917765249	8.618324258025979	9.626516317858469	9.044747329764306	6.678358061141696	3.263238660202887	10.47136685588656	13.117674794456738	11.50013825374082	8.290783861208896	3.9344508548583366	10.788497897566348	15.756916960034504	12.068238227892444	6.293205245341653	2.93121456359854	12.605979887606553	19.24586863427018	11.578819245668635	2.501270049455774	-0.07245644163673289	11.804317444562198	20.233804651673342	8.788340546354053	-0.7396152000827244	5.137588964842555	13.188895192226143	7.56784914013374	4.326238621279446	2.700557463503403	1.1578650445315057
516	5.060966955758664	3.8528604410170915	4.5763988379330085	4.736959445437788	9.314578986492714	10.585857364630701	10.044396375091997	7.094610673158386	3.4267687711028794	11.03647324636654	14.00541206638534	12.232787101378365	8.412711122253599	3.140866748509283	11.069332094855357	16.36503215472719	12.49525543872839	6.239454253656072	1.980078334577504	12.284566848256912	19.24238390832683	11.506373376405742	2.6194822722102957	-0.7530949692785801	10.468999836239215	19.670331905293242	8.493687608255208	-0.8634494521275559	4.238811005380795	12.33568665251017	7.0373644651120015	3.512989750575744	1.9822012136004645	0.8544658400896904
520	5.046914564741896	4.28603981843294	5.015314089510401	4.65855072752662	9.418081259790966	10.861638995404146	10.199323628423988	7.126577359326458	3.77368949891046	11.208149881675286	14.19436546556648	12.181111305000044	8.306646326073633	2.661357157663654	11.07393834179197	16.373651463177104	12.328048674929356	5.9006604999338075	1.2054667442404245	11.791940659315125	18.90935320848406	11.14058777857438	2.6840047768539104	-1.3428510393571247	9.09716127006166	18.965604734220943	8.036230066990743	-0.9547809934352044	3.3732426081368234	11.50410458521274	6.5331153704683596	2.786936037656656	1.4051058256913405	0.6650590283768871
524	4.666007983824931	4.339601505767193	5.020250784596814	4.419548500346839	9.013946510445098	10.464191410348034	9.554761862473224	6.924665910403862	4.2114949120049365	11.017043085893135	13.69189449668129	11.436081857418174	8.110787371184829	2.6471540861052745	10.834940882983759	15.805991132884236	11.640763253385776	5.553126797960903	0.9780970787149295	11.190850229619354	18.297161056099032	10.52799412930316	2.6947605541857635	-1.7387598709075998	7.855876425936082	18.186908676006297	7.482346039000738	-1.0071239446008111	2.647994988431643	10.802423449899354	6.105269416653548	2.2225308362160416	1.056614038660736	0.6072068199086006
528	4.2005047692104185	4.0894770519004044	4.677882182708526	4.158942212094895	8.33650491517061	9.58939740620902	8.416611650197853	6.6425714325089045	4.616800296571239	10.589282009092269	12.691773382568169	10.298081372010097	7.888144950024534	3.018651477821753	10.456210110014181	14.851680718118345	10.65635392359578	5.373648153089337	1.3951556647362375	10.577713939663468	17.530347779836806	9.7827272168171	2.6227486067357404	-1.902572030985957	6.89393089461232	17.427614168035635	6.925273877779036	-1.0552812788069232	2.1359479373410144	10.296319935552143	5.772256359785584	1.8554124785308659	0.9505032872997643	0.6456999762445201
532	3.8989496132640085	3.6692430880413496	4.136472691582777	3.9673044581384262	7.646533946758811	8.517592408609893	7.199399453106222	6.350467665851376	4.873379218195168	10.072198842367994	11.481914491274624	9.143161750597375	7.60338829028205	3.516934862794177	10.052211736095215	13.781522716059492	9.653507208293252	5.362581239512542	2.2080318872017446	10.035877202445048	16.760461764934877	9.051558471714882	2.4342303214603604	-1.8811093521308435	6.2882771333240655	16.78078837926344	6.453249438205402	-1.1462906570103744	1.8554638577345326	9.994757627048378	5.52883719002052	1.6770055251696545	1.0308096382818552	0.7150784116810813
