time	FP1	FPZ	FP2	F7	F3	FZ	F4	F8	FT7	FC3	FCZ	FC4	FT8	T7	C3	CZ	C4	T8	TP7	CP3	CPZ	CP4	TP8	P7	P3	PZ	P4	P8	PO3	POZ	PO4	O1	OZ	O2
-200	-0.39000072976828776	0.9982917879649376	0.8400927164801966	0.2879366569401899	1.7990825130816546	1.678265090519868	1.5462183913293281	0.23194558859915473	0.8282855132171603	1.6770480828859167	1.963050241282483	1.665080781547418	-0.3880079676845434	0.4184408475324819	1.2392224042122677	1.6057019193163538	0.9421319341714859	1.4908002577335888	0.025535829300781677	1.5492961367591795	1.746371860863357	1.5151487550628617	-0.07082483899593194	-0.28759387062895203	3.195742837466803	2.955467455077835	2.200362915205726	0.20298820682774452	2.291516775067748	3.291856280598774	2.765024178199649	2.7012295654761935	2.4053652225799906	1.2853897777529328
-196	0.19460073064309505	0.9993603204291283	0.7765890936317998	-0.15347577592724632	2.119167799367633	1.9549189756627539	1.6612925487536376	0.2402984791887606	0.6503623707563693	2.054466480790144	1.9875463197118473	1.6365828472779376	0.038338094852927905	0.17822284951512607	1.6683082538445673	1.397172089863898	0.8863604046377654	1.1091673346172242	-0.2896226339180499	2.1059737152334645	1.6831542210998705	1.675997849047626	-0.18284752918808886	0.06782550347608449	3.875599612941492	3.4325282487036946	2.6558897428215005	0.3973950733641971	2.7582242419222616	3.7918469810118336	3.1950519004263116	3.1101486604368143	2.716257565316181	1.523576851812823
-192	0.7316645365362086	0.7750315646631064	0.5831834659157563	-0.5108473884082629	1.9877769896865458	1.9286681364956324	1.5633492430316824	0.13896702194890853	0.3932331790532632	2.1007730907806526	1.7303177074615068	1.3525061573213342	0.2789671414007782	-0.040926664964342836	1.8700000000470753	0.9694318150840057	0.577288626166998	0.14238874578289037	-0.36478608754564795	2.428736442155994	1.2633154360346783	1.3375253643598894	-0.5413938747088565	0.5245014415850019	4.215220917549729	3.3551759635138585	2.4772767958084656	0.27067634394971035	2.960159771121286	3.6599314120394686	3.027953855499072	3.2199330248599525	2.630786412272698	1.505960699093933
-188	1.0587781640977771	0.3827646663061799	0.2668656402049064	-0.6552283747342572	1.47452342137942	1.5882939060164936	1.234904405337061	-0.1792428786997532	0.07541643064054732	1.870752329871531	1.2666330305545004	0.8537355639837461	0.19134592961638527	-0.008128505179625127	1.8737527084726593	0.4568159866720442	0.09274435019919264	-1.0564930412321476	-0.05338067547910691	2.5733122760652667	0.6427919848425604	0.6515507085562561	-0.968247590004598	1.1638799876391832	4.340064037809482	2.826678268925335	1.7675776437001371	-0.10220546994630933	2.9759778901304212	3.0122260971311885	2.3213760794204608	3.115659229041676	2.2492380085424113	1.2512834040521168
-184	1.0869085761285002	-0.04587295267325015	-0.10344482932199495	-0.5490093217340019	0.7810924629517898	1.0256947253080138	0.7286630254468323	-0.6904335004540886	-0.24579897460868055	1.4765903912457226	0.7287991028505109	0.2577169531037523	-0.18408825947060084	0.3443563869842061	1.7327995256543987	-0.0036112971047032615	-0.4252383996240844	-2.055667633588625	0.5854589924336013	2.5726544792071864	0.005488739800751553	-0.14036984706247796	-1.2862119642208887	1.941328759060408	4.305502403833021	2.019049877791183	0.7705172876931501	-0.5888211116229582	2.8572649883610506	2.041331047626286	1.255619880367157	2.865536444104938	1.7264273123068394	0.8181332329121344
-180	0.8123124221320002	-0.3653438976123701	-0.42064797772061974	-0.2733276181472707	0.14360725843411842	0.393897592026897	0.15156337580561746	-1.2270678250803573	-0.47903069732839026	1.0260373328053178	0.24436768827730274	-0.2866579584990518	-0.6505315883424594	0.86942916889026	1.4884008131595685	-0.33150142347563094	-0.8250421264798962	-2.508476727828082	1.3153474297692769	2.4111993251958763	-0.5143662082083387	-0.7981050590392081	-1.3779702151794069	2.691079609752308	4.067972649794053	1.1040493222018624	-0.20770150370610338	-1.036386129623672	2.6072180205322755	0.9529731249590865	0.08882550872787795	2.4946656164127563	1.2043051689259745	0.2944057576375868
-176	0.3102998427662966	-0.4856947946206776	-0.5891976937676984	0.014656559527168966	-0.27267676523028905	-0.1580315973345062	-0.37720370197428793	-1.5540224274500667	-0.5313108550008847	0.5813528284653917	-0.11724273830853614	-0.6634603125987579	-0.9682216023795416	1.287951943006779	1.1552783221640741	-0.5299006687137041	-1.0081940863904066	-2.275676006293655	1.8477547122080367	2.0394210763939253	-0.8776373245015555	-1.167506095799584	-1.2141512601715623	3.204012624280641	3.521552315403979	0.20260085114348844	-0.9046503282594955	-1.3141407933434903	2.1958525125376704	-0.08783064015386312	-0.9177741385176514	1.9920036742461869	0.7610262613155929	-0.22115710321856374
-172	-0.28720426486936135	-0.4145137359167255	-0.5741031155396648	0.17342676178538324	-0.43548422941884907	-0.5422536717075708	-0.7710583786570551	-1.4956475458530645	-0.35615005999291266	0.15454389115892458	-0.364379285846083	-0.838347254067001	-0.9888316963979407	1.3545452322139522	0.7320967894190283	-0.6676798446010441	-0.9676011180289964	-1.4612096511188446	1.991262073257764	1.4192248547007982	-1.1336601943957787	-1.2214759557402273	-0.8463134744257639	3.332292548349465	2.580667012374823	-0.6271880253215623	-1.189457175112754	-1.3479002680125893	1.6006019075036684	-0.9830649470304813	-1.5760278661991347	1.343442079013225	0.3998170186915631	-0.6404296739621416
-168	-0.8247577527203906	-0.24932205614084701	-0.42179801953633494	0.15895035822791562	-0.43815976270677176	-0.7555505614278369	-0.9999220346000733	-1.0430695984254623	0.009633041893956648	-0.26803135804215794	-0.562116263877729	-0.8631873109004955	-0.7338495235988682	1.013415334050259	0.22562509718196883	-0.8297610261948497	-0.7799963335371378	-0.35745131879204123	1.7473900274028396	0.5729660377341554	-1.3693860734698176	-1.0427868339913617	-0.3753714551985184	3.0643169802546764	1.2655276028152869	-1.3652774061065338	-1.0930500002920718	-1.1348936529116465	0.8484859445130524	-1.6955192046273067	-1.8173770858656655	0.5715100750799029	0.08061743507296887	-0.9026766396620312
-164	-1.163865563315184	-0.12414766816743038	-0.23988385437958862	0.041912916941919086	-0.4349910307869003	-0.8637865759975543	-1.0863852473486937	-0.3799102594797379	0.43871861585477484	-0.6958352905825097	-0.7882776836520325	-0.8373144843895852	-0.3752557923856238	0.4495041359042957	-0.3322837642386551	-1.0670055124046418	-0.5600282535718739	0.6707419736140039	1.3030009236816744	-0.3969358195773622	-1.6478949743627196	-0.7671197037402414	0.08371380695426567	2.527104132947678	-0.2603629522902633	-1.994188422890268	-0.7731143216641018	-0.7382241468864684	0.03164510048386837	-2.224009031402739	-1.696638460644073	-0.24533861813592012	-0.2304876291893073	-0.9859032606028746
-160	-1.2214730947172854	-0.13953794503744818	-0.14459539913387123	-0.04593555245126745	-0.5554781542104981	-0.9582036709435002	-1.0799845429810038	0.1988199348198358	0.7546246628782337	-1.1188045711880463	-1.0906271906973588	-0.8477193691785315	-0.13103063371478035	-0.012011898651194288	-0.8864085651906224	-1.3717896903689615	-0.401528834282868	1.3181328740218878	0.9180484390922152	-1.3321372236950875	-1.969546909128019	-0.5186914788501894	0.4317461837358429	1.9154577206888366	-1.7272009805940707	-2.4790542063111802	-0.4341203261382197	-0.2621641450461833	-0.7148779612612077	-2.577531808067553	-1.3542429174564146	-0.987080511938861	-0.5259914980959799	-0.908051786514305
-156	-0.9984343622748804	-0.31263014595255184	-0.20262640663487136	-0.007531515769271675	-0.8418966510497693	-1.1062794895851475	-1.027425167350764	0.43482568750271083	0.8068723062170852	-1.5135673246316739	-1.465184923287458	-0.9225149131371824	-0.13628013397618483	-0.1028151882079192	-1.3782910073767782	-1.6890250401768447	-0.337967961173309	1.4378778898175832	0.7737392763629939	-2.0763962216405383	-2.2739465179252187	-0.3688938012346178	0.6070854648521442	1.3901468480298285	-2.857767574724528	-2.7759108473310983	-0.24133238135442417	0.1831196392919627	-1.2637993065397433	-2.7623367239828016	-0.9560309624376332	-1.5349248608936692	-0.7565256338092557	-0.7187327724430341
-152	-0.5828909263199373	-0.5695375189706864	-0.39550125499053	0.14513668381287112	-1.234892961245293	-1.317584630500628	-0.9531770324483483	0.24106727479629375	0.5446313009816581	-1.859182472303391	-1.8599075032006083	-1.0216066811517701	-0.3675846448200764	0.21163971668692116	-1.7703511670238232	-1.950366492115593	-0.3408779195285414	1.0766892405982713	0.8708159901567476	-2.537161105425949	-2.476277821964552	-0.33110752618162725	0.5982170685923387	1.004112241117204	-3.4816610725237376	-2.8611335682157852	-0.26641657881230235	0.5133099543009407	-1.5506790837237667	-2.7878329683489715	-0.6389250739178751	-1.8229287816753184	-0.8658584334447159	-0.48692440863696707
-148	-0.12077133327033042	-0.7823240141190295	-0.6248344167192587	0.2904202632724203	-1.6084980924049972	-1.5371845921806886	-0.8561935403187879	-0.2510730021813482	0.04922313975781123	-2.147798532785338	-2.1950759832274973	-1.0657542917046758	-0.6637723429133693	0.6849150640361366	-2.0595266767002194	-2.1074283069808906	-0.3525047591369428	0.4357349265541414	1.0266684267826063	-2.720087521361199	-2.5138673718879585	-0.3832336058477663	0.44421332962416615	0.6944990736593086	-3.6099073795729937	-2.760380261127634	-0.4823496329527165	0.6870717984972441	-1.6048740108025137	-2.6837034157706867	-0.4809399831073375	-1.87106394295363	-0.8380448201001741	-0.28578373717633837
-144	0.24457348821403138	-0.827415225800992	-0.75394671965027	0.26891937784010206	-1.8294599010054473	-1.6645603137905534	-0.7169135790844374	-0.7554110865594146	-0.49871510141344233	-2.3786592423465134	-2.3844215809702707	-0.9820598339081715	-0.8246826508681633	0.9095299817010025	-2.270690196980071	-2.1421458667076902	-0.3277776531050124	-0.21913836841092404	0.9747807358926445	-2.7179498603863714	-2.3745801388869636	-0.4958865630027675	0.22138814572229104	0.3386251023802985	-3.4300730141823053	-2.55359172176325	-0.7997491935565415	0.7041378599508911	-1.5401054581858873	-2.512256615971615	-0.5003871905091047	-1.7815810396990228	-0.7249796372229471	-0.1775682266043719
-140	0.4350728977662926	-0.6368483884944989	-0.6656297428491705	-0.010468452211116143	-1.809541101655408	-1.5890054662640258	-0.5069726692751318	-0.9723650788552863	-0.9024181343182929	-2.5382790501405337	-2.3487322271175066	-0.738540111107625	-0.7273413520569196	0.5486039505459079	-2.431877130090569	-2.0512738176054555	-0.25817748839044663	-0.6614238007058589	0.5131862746633441	-2.658165209734701	-2.092913383921834	-0.6468529088854996	0.017908524676646206	-0.16156884987093223	-3.218364707450582	-2.3474519193509638	-1.118099567451423	0.5892153367425074	-1.5066068134416668	-2.3626532494975203	-0.6743224842212665	-1.6972820715967327	-0.6348028763002614	-0.20061288723363635
-136	0.4658881116071776	-0.22207514885623766	-0.3107957832118981	-0.49570497745291775	-1.5335911473655424	-1.2331697909691872	-0.20175482281768256	-0.7336169462755419	-1.041075227016313	-2.5868709022059613	-2.0286147543234305	-0.3544077566258821	-0.3889711191370372	-0.4573674488441138	-2.5485575134782303	-1.824600334329179	-0.16762895839807426	-0.7798859457352925	-0.3814629604722166	-2.6368184023087378	-1.72265481513924	-0.8182818868958288	-0.09940696482594491	-0.8167881348968842	-3.207469693668885	-2.228309625721715	-1.3655492032860232	0.371814995065362	-1.6259568888620777	-2.3239638746714957	-0.9604474877904047	-1.739467735667165	-0.6844373924141126	-0.36083039550279394
-132	0.4294408548956855	0.33415612494025715	0.26955026320113434	-0.997693297728259	-1.0569077703494476	-0.5911388382291975	0.20431390353116932	-0.07339029740639356	-0.9264226532434356	-2.4645855364563527	-1.4030988180975306	0.11276788236041863	0.05831187948763383	-1.8249075366675758	-2.590746634618051	-1.4383107387468492	-0.08746180661292421	-0.5937940463333031	-1.5256211719141681	-2.6693572930652083	-1.304676648660659	-0.9845427845893111	-0.11100801052438489	-1.538533802916418	-3.468661537949625	-2.217227930193053	-1.510813470840714	0.07461233418223506	-1.9337061594779077	-2.4430270133326824	-1.3070530858418539	-1.9496823500045883	-0.936465678234864	-0.6265145524419455
-128	0.4402181793065705	0.9059852934851595	0.9536163186792338	-1.2766098943903952	-0.4817510831113932	0.24985411700109122	0.6807080490092217	0.8021505454791896	-0.6914555412954718	-2.1215026325068798	-0.5164070712402954	0.5868090376343553	0.4571989465137592	-3.038302413898848	-2.502573245405853	-0.8767089821615226	-0.033501140688714105	-0.21685133819666652	-2.6018757754438346	-2.682765715501448	-0.852334676021127	-1.1076317997623975	-0.05206211643187595	-2.1798355524340662	-3.866596688998768	-2.252871269260167	-1.5510587653100272	-0.2845740013090313	-2.356245034944608	-2.6890211037455423	-1.6515440899159453	-2.263329738624631	-1.3555314506639158	-0.9315562820756893
-124	0.5622794613947119	1.3581494058651309	1.5731350143769098	-1.1657029360903912	0.0714441238030041	1.1132985325361762	1.1482374639131128	1.61780309268668	-0.516367076523752	-1.5586063822495895	0.4984656857780094	0.9851420496863699	0.7167496067070743	-3.5951783566304445	-2.232476467218153	-0.17348371402332233	-0.004416504398013588	0.20245182463076503	-3.293009988100134	-2.5538756782902428	-0.3638951173177949	-1.1496831149638453	0.004608916572765927	-2.600731127848458	-4.111706723322552	-2.2146456185693237	-1.492969389960778	-0.6808132512069845	-2.732903950467024	-2.947110645482845	-1.9187469433978173	-2.5293314393080215	-1.8103737785408178	-1.1901584833614107
-120	0.7644918541680187	1.5766544302234318	1.9604314516162433	-0.6658563597080345	0.4906260358821074	1.7709493592372787	1.4836194477770481	2.1431140845549774	-0.5330262170685448	-0.8529548027438045	1.4231786691973467	1.222444531215382	0.8434208610221173	-3.2563257135192907	-1.7673958495340314	0.5582928047389752	-0.0013475621783610836	0.5324468003181462	-3.410226336452262	-2.174702638857548	0.1494884934227411	-1.0963557930922583	-0.016488477546070485	-2.722004645150914	-3.889991750432621	-1.9762437293702055	-1.3431178297464657	-1.0709509822509427	-2.8751292156108694	-3.051229469225097	-2.0295915552395436	-2.5691153938279383	-2.123229736689531	-1.321027156355584
-116	0.930409190689883	1.4919861517430457	1.9943197915270214	0.0427237673515254	0.6924422365825925	2.0083210417587005	1.5495512446381743	2.2613458576329357	-0.7573886494587797	-0.148205592854157	2.0001728484198975	1.214810725959692	0.8975466467130996	-2.1631696169597863	-1.153897163338826	1.136111256592044	-0.05198316262948969	0.6828481537744788	-2.959495536961586	-1.5141683778680712	0.6413742287655124	-0.9754982566046391	-0.1583500798518982	-2.546612733133409	-3.0137665195668744	-1.464894767877424	-1.1127011747877456	-1.395349618249847	-2.640579693803148	-2.8474287914864704	-1.9238245438641235	-2.2522728386281328	-2.1449780410016874	-1.2750986782305755
-112	0.9164376831758718	1.0952426167492435	1.6345355469443614	0.6755912882913968	0.6373076422813337	1.6999151663776824	1.246114846898113	1.9747892568320686	-1.0844874354638367	0.39198568364358627	2.0172471949191473	0.896593449236258	0.9136484838306494	-0.7651092986816881	-0.4933205234470208	1.3668433393301191	-0.21518629735023098	0.6061246975854354	-2.1172270721386464	-0.6463460905922541	1.0314836476032736	-0.8542611577400485	-0.4096347381263094	-2.145074362107401	-1.523078199355891	-0.698995230817299	-0.8284438827579286	-1.5936256606874806	-1.9924085089924792	-2.2615876140715345	-1.5870914419158308	-1.5565218886177674	-1.820624704532698	-1.054314253052529
-108	0.6289576872204756	0.4441652584782762	0.9351887679330648	0.9686900948862933	0.3388331523923618	0.8650616385553702	0.562278805743621	1.3657288516849229	-1.3444105352790905	0.6488671882459536	1.3993306124643443	0.25109481748128093	0.8479713180113609	0.39991748232007834	0.0899837387316485	1.1319735021621833	-0.554810284167476	0.29052036927306785	-1.1415340871600177	0.26885187558006435	1.2332241504050852	-0.8115428069606033	-0.7081657034160634	-1.6213690001560095	0.310139446667611	0.21152561849594792	-0.537186621263363	-1.627689834299902	-1.0196795437817578	-1.3398005928545114	-1.0663681003350232	-0.5853736385824985	-1.2131767242319451	-0.7120429259442688
-104	0.07592715303801581	-0.3467385164089627	0.03162313244703381	0.7945056537595995	-0.13589678670427977	-0.3223333350626514	-0.3997128893774034	0.55244672158952	-1.3861908877660736	0.6009248479930035	0.26303896241534297	-0.6586781127512127	0.6004241093735097	0.9576526856085876	0.4955145406133412	0.45691719535861725	-1.092263099773734	-0.23429927170726406	-0.2657351189103059	1.0463533375071377	1.1947516172762056	-0.8967551566371255	-0.9657322143967825	-1.0770037147033125	2.0815806336300122	1.1028096648029535	-0.29358085915830046	-1.4969685039872416	0.09288271493110876	-0.23692257642533415	-0.45794105414166153	0.4679612505541987	-0.472206174135095	-0.32996994173663863
-100	-0.6311167462627235	-1.1343241901369001	-0.897507009624424	0.21228860265063015	-0.6803162080754576	-1.5825840194800065	-1.4464893304544109	-0.33264556443152826	-1.1468138665808916	0.33438673531031093	-1.1029386492539217	-1.6834917025977365	0.09997033302577835	0.8526613094736715	0.6855190379001207	-0.47901889560875455	-1.7688372090503508	-0.8818797446873776	0.37625592852010736	1.548538442516708	0.9278662181316062	-1.1006485195981437	-1.103750464513713	-0.5869081601583666	3.4116411122970787	1.8122252180121565	-0.13780049944895456	-1.2381514279576473	1.1308443517744091	0.8403924682380153	0.12699612943057104	1.3925970757610688	0.23156705440230313	0.016116328496774322
-96	-1.3281899657094478	-1.7870392754259037	-1.6823673205815324	-0.5638618455002138	-1.1742272347367773	-2.622240775163536	-2.357415670165041	-1.1466816634791137	-0.673195598809988	0.006376755407744101	-2.3332269132833625	-2.619348996224914	-0.6064789875930858	0.32943430459771694	0.6986917835715136	-1.4053631985468307	-2.4456798968556472	-1.507487293252066	0.7667220215513041	1.7375796989440266	0.5074223267141821	-1.3551168407559049	-1.083918687944826	-0.18871159803905957	4.089154233145116	2.2280037346855	-0.07515475880006342	-0.9079088545764944	1.924323077111766	1.710857267828633	0.6039847120294675	2.036578650101053	0.7733839730763848	0.28537735270928577
-92	-1.8689085197947042	-2.2224473897135666	-2.2112128678760863	-1.2587227789570403	-1.5127452573730071	-3.230481378028511	-2.960876695786834	-1.7474421218622416	-0.09513095742287665	-0.21990047339709806	-3.117454044100621	-3.269484034866684	-1.3337522711458438	-0.23091012181156975	0.633123634647244	-2.067595238233803	-2.948099128909304	-1.9396740149163314	0.9663630699554925	1.6849422412293282	0.042706284564198865	-1.5620660742421975	-0.9198210216187152	0.11754474014168936	4.1377220049341155	2.316849702707646	-0.07006979716014597	-0.5568684325463739	2.4011025368149963	2.281614297828345	0.944163677692815	2.355629915012079	1.1131262751132103	0.48213419196471974
-88	-2.174003595585387	-2.4226331649649824	-2.4550452170376906	-1.6438856083373807	-1.6282552439588138	-3.3373763476988128	-3.1848239818272566	-2.0286533781331473	0.43401795516107644	-0.23774339198646371	-3.3081459915561817	-3.5097656161386936	-1.8354482604416222	-0.5215291963761365	0.6045560821528418	-2.3252894819679537	-3.134569160176794	-2.044157976711556	1.0526891920214756	1.5336044988059383	-0.3627206972024281	-1.6359146792116925	-0.6672430617652328	0.36292183307571485	3.7770993614201616	2.1235084480077973	-0.06068080275831571	-0.20947059936089282	2.596462720037579	2.5674071247129886	1.1742334336198181	2.4130165516012	1.2900084224556272	0.6415677650466095
-84	-2.2382245007272004	-2.4182009635906745	-2.455698722361358	-1.6144336421260344	-1.4965696297054116	-3.0088140888542805	-3.0570807379786347	-1.967637057104948	0.7975720743069723	-0.026572747088934243	-2.953176014119875	-3.3241906082148915	-1.9360148857828086	-0.4540533411960022	0.7003269773921532	-2.1900823061008228	-2.952739946539799	-1.7915521814890336	1.0735734674051491	1.4327305519170659	-0.6397826655447382	-1.534735794960919	-0.3976647247764801	0.5954744800792131	3.3041005051162	1.7490408376403708	0.01397905029552399	0.13954617047840642	2.617287867613785	2.6598653726179817	1.3492697443274912	2.332712167572382	1.3802634442767054	0.8001000860994483
-80	-2.0980153030831477	-2.2530345859864394	-2.287750953620346	-1.2099654643981337	-1.1303907604288135	-2.3881058632638252	-2.6626484326848074	-1.654741163844336	0.9475866532243339	0.3601940563167785	-2.2413520756399583	-2.7942552495980157	-1.6365477997468982	-0.16157801408504333	0.9488267278557551	-1.7868512823767568	-2.452083819874147	-1.2840976682667542	1.0407667133757346	1.4757809601717162	-0.7580809574060979	-1.264195319798631	-0.1662567253683586	0.8589398839245249	2.9546332284716645	1.3198339905794827	0.18909126472415905	0.5116842376187966	2.581356518903844	2.6683959893566978	1.5160458049644665	2.2323665562534645	1.44675004117	0.9698079203915888
-76	-1.7928959085974574	-1.9521319816893825	-2.014400953929019	-0.5801321253434737	-0.5702931270505963	-1.620822783192667	-2.0891225285236903	-1.2715539900147323	0.9046428776789175	0.8337198474815466	-1.3963438237221903	-2.0517725892716765	-1.120968458206509	0.12513831226225744	1.314104792138137	-1.266479131362079	-1.748903508539155	-0.7131233197327398	0.9547583436702469	1.6680806833113893	-0.7112911921662596	-0.858063338020671	0.011764086753230818	1.1704664200795243	2.811940186076803	0.9555863117887314	0.4622803318749991	0.9224166846828405	2.561271422595301	2.664227240511632	1.6864554839470653	2.1694338266912854	1.5085035524429204	1.1310421199852745
-72	-1.3485193218516636	-1.5152052602659662	-1.6623820024480915	0.08074504861711079	0.11764065146547141	-0.8058598617234866	-1.396025296501315	-1.0112396453121608	0.7346512656737177	1.3074772324930046	-0.5803872928271129	-1.2248880832264246	-0.6483854635080951	0.24209472475917668	1.712877269234971	-0.7262685876629607	-0.9685570573194906	-0.2652741663910992	0.8349732735533636	1.9334351967634429	-0.5036363588968975	-0.355244725045705	0.16351456898890643	1.5051672420646862	2.79708623179912	0.739638624708062	0.7955112437190662	1.3593856061946512	2.5567417080223866	2.653370373702495	1.8320667697427622	2.1232924407756766	1.5399250945312524	1.245427724554877
-68	-0.7934344986910453	-0.9438586211216248	-1.2319534985909715	0.603379844095814	0.8364402630668718	0.002622543594697908	-0.6268623455433318	-0.978481230649537	0.5157906996102293	1.7119859413792502	0.14086471462447622	-0.40825781123082955	-0.3942536701738862	0.1950101251447012	2.0420055337848613	-0.18614593101234175	-0.200854077428111	-0.027653550659337035	0.7332041841115143	2.1512186472939145	-0.15293469986450262	0.20824934489601202	0.33879387293155394	1.798373575438486	2.7352766921602525	0.6957739574031907	1.1263233394796102	1.7748731329929361	2.5061435636188847	2.5884969169113288	1.9005885076221296	2.019271368650609	1.4966384134653088	1.2818421093048584
-64	-0.1942991460424542	-0.283368437766848	-0.7324218135461679	0.8901154972491344	1.4560489617779313	0.7532840352113304	0.15055279395716337	-1.1278119058744724	0.3088116936039466	1.9853038737717692	0.7619754056765998	0.3307329109901597	-0.34585595043600176	0.14165554904935942	2.2037241403254137	0.36934399511546967	0.5059713112454334	0.05140751959815382	0.7151727062288779	2.2030949536967532	0.28985282705559123	0.7860792855443323	0.5758277759318863	1.9685184905896609	2.4548876223573024	0.7767603973804518	1.3801214660132088	2.094670767263955	2.325881952135525	2.405976527815264	1.839784021500927	1.7763916209194002	1.3464553322175925	1.2333202330922204
-60	0.3290517023838697	0.3520426145248436	-0.21855179910317038	0.9299476123219078	1.8277784539805788	1.3534845079582074	0.8128862360458041	-1.2850722042063714	0.14176087045641164	2.056135410839641	1.2651261059290937	0.9240974760566182	-0.3235781780656425	0.2734343998681162	2.1218595451188937	0.9182330346766185	1.1163685293622265	0.1160956692744716	0.8230163434230295	2.0087065646001343	0.7228838783132908	1.301563855699768	0.8670546986623378	1.9518246601416964	1.8666515303213376	0.872884092511298	1.481039162711236	2.2385010662782596	1.9551331947555357	2.0649073071797988	1.6158682067128665	1.3517558540547958	1.085556504369829	1.1144095631119844
-56	0.6294592007003496	0.7965558747207623	0.2013146872206111	0.783476946760009	1.8242196990686044	1.6644097524582309	1.194688793980771	-1.2469407288540355	0.014279498682626682	1.8458037329801744	1.5706225593966807	1.2858333555182313	-0.12040704458354416	0.6734305007144548	1.7535620883537482	1.357122537047533	1.5741943081211835	0.2914364628586303	1.0407522890517353	1.5423133334320829	1.0037986014771878	1.6454640585363374	1.1463137836124888	1.7315339998397228	0.990678605916288	0.8466150739275659	1.3645026649356993	2.1458516066733098	1.3853099311185175	1.5693116148428008	1.2210216491388963	0.7610800843096892	0.7342752199707793	0.9424828863190373
-52	0.5957477673748183	0.897273419022139	0.4006767560856327	0.5469191060562958	1.395432111078008	1.5529770811926351	1.154400703376617	-0.9061003900539302	-0.08678393044018577	1.3016645875491841	1.555109139330868	1.3302166428359838	0.33041751301312705	1.2392678229514718	1.102844235496836	1.5290758571166274	1.7993841125834567	0.5817714318845923	1.2837541070951362	0.8339530208513192	1.0003287766949938	1.708051319578271	1.3089427914950418	1.3470591272676429	-0.06796971691375445	0.5890154823690801	0.997127590046124	1.7997200443605625	0.6646205766110264	0.968438444076687	0.6750466806534591	0.07084951531880665	0.3213230363362593	0.7194557171776895
-48	0.22732999863449724	0.5982318505442057	0.3009290091546255	0.31377264778072195	0.6155262573914106	0.9791233514860811	0.6642111523070978	-0.3253478101622336	-0.16809685485837975	0.44966867452578274	1.135367748254993	1.0243892643814392	0.8777685143243749	1.7214925245690544	0.23663131832937456	1.317851897727126	1.727583880831141	0.8551529028282817	1.4275881015974077	-0.036087695418082655	0.6647866351509513	1.4386496507561866	1.2606201140047402	0.8771345593241444	-1.1681946486542907	0.07881579528221423	0.40307792919434693	1.2420330016249104	-0.1193701770868105	0.3415235868414407	0.02847933762035733	-0.6281897409791284	-0.12815360692570318	0.4312839795190991
-44	-0.3297211817522966	-0.004888316604074164	-0.06829491985482791	0.14690992199046202	-0.3118678323501216	0.06502038969074729	-0.13178594377146713	0.2929583780521603	-0.21417050009537222	-0.5678276405303317	0.36537843850393026	0.44381284601693144	1.2294473617030728	1.861938352652268	-0.7063813191699277	0.7530451397956737	1.3716965879140572	0.9292313433074503	1.3637626136680365	-0.9445828175538173	0.09123015380714158	0.9001765824478841	0.9735922192788239	0.40592235224281425	-2.1738514845323045	-0.5847589954871264	-0.31738889137243714	0.572815774425056	-0.8668912031221316	-0.22139249686134865	-0.6338779314249722	-1.2489095894752853	-0.5900474771861156	0.06831625086702305
-40	-0.8219748714674986	-0.676432488640988	-0.5522522912387536	0.06794223172200178	-1.106759664602246	-0.9055538154627198	-0.9379251575631494	0.7268808465725476	-0.1870509679363263	-1.5051525793221086	-0.5230434523728321	-0.2123743737342454	1.1424860925439666	1.5416067799746993	-1.5314818582015564	0.052444174753341004	0.8611490704729023	0.7103040200419819	1.0529911491511452	-1.7400622323926538	-0.488307921845678	0.2793546908001293	0.5206744061675707	-0.010696507963354173	-2.9730868264475347	-1.2004386156291569	-0.9954352949759337	-0.06896868330708725	-1.4909661970642245	-0.6362780316500831	-1.196550366241696	-1.7253537134478556	-1.0276248429102575	-0.3447751692173407
-36	-0.9908752416389055	-1.12328350260374	-0.9161175466295914	0.06460811926503798	-1.511481162069802	-1.5738518198331688	-1.4102271759668012	0.8704130627590833	-0.04661988082678655	-2.088214630576764	-1.1784087389757927	-0.6711739284736006	0.6050655826550955	0.8538405277629305	-2.036926025969927	-0.4423183787622513	0.420510171782247	0.2923682026634068	0.5437035546880715	-2.272408002838161	-0.784925995275485	-0.16848403172870197	0.06238601713522841	-0.3625861695195097	-3.483262768534098	-1.5381866654661225	-1.43793880576439	-0.5423264489786578	-1.9351447771805743	-0.8415399172516892	-1.5355682334277505	-2.0195233770880834	-1.3824921811485198	-0.734851775698236
-32	-0.6902797204709563	-1.1143286200045839	-0.9377820468114051	0.11018303008871218	-1.3927820885779847	-1.6474187332521666	-1.299779531058277	0.7979396561503741	0.21790055875599867	-2.1239938682336224	-1.2724393574059907	-0.6890776736028059	-0.11305455834932267	0.06250020100787827	-2.0848426766210437	-0.4183926571773027	0.2836426787367672	-0.059956967679281166	-0.05384960011953218	-2.436257833051921	-0.5825953468872425	-0.22416393402247278	-0.2170698488238614	-0.679790793133089	-3.6569325831591004	-1.4399543964270256	-1.4975738487580519	-0.7511551957239073	-2.1830296461302257	-0.8151954987925067	-1.5598490198807295	-2.1227669662286632	-1.5847158391996607	-0.9991793011234024
-28	0.03596198549727844	-0.5808102473853712	-0.5058358894928456	0.18211510731493805	-0.7989256957864038	-1.0302394602513734	-0.5661122784626716	0.7172711473475423	0.5633234963499617	-1.5926773507914984	-0.6599342210320379	-0.1625199015805672	-0.5886977300085847	-0.5363208041955417	-1.6650510984343947	0.24308219490667746	0.5815136417965897	-0.053823951495892024	-0.6187491401309239	-2.2138788644208693	0.14626401625898425	0.19049957346503396	-0.19561338375294984	-1.0109906171069178	-3.49659775804816	-0.9009428001545373	-1.1383109063972814	-0.6808042509056462	-2.2594342174705258	-0.5886712059417266	-1.2553372351423457	-2.0564897008472913	-1.5822861154661712	-1.051390406815099
-24	0.9630442237381333	0.3500097385152667	0.32337886013401684	0.27207198670360244	0.05784534648357414	0.12357243864331659	0.5979927763146152	0.8348950126549711	0.8915880895992372	-0.6709665043103059	0.5299240933390417	0.811417339183668	-0.488073854406236	-0.7646024803884425	-0.9156759358175656	1.3813220227652436	1.2637516228240433	0.44234883673565456	-1.0700992318792528	-1.6934212403457993	1.203413483442386	0.9635957455148475	0.12133401601675066	-1.3970999682439018	-3.0683870238082434	-0.08753914363932502	-0.4621965277446565	-0.40607285397049214	-2.222047084920266	-0.24862600800207857	-0.7081024628881165	-1.8710389090028876	-1.374917980537455	-0.8715835787702272
-20	1.782720203667094	1.404229995043222	1.3379526104525608	0.3838937570893094	0.8900403357922624	1.4622518979347559	1.8428498460018534	1.215936896115235	1.0819947692256233	0.33449786817021404	1.9251408528360199	1.957458252733064	0.2215788507827684	-0.6426636560426829	-0.07956011573254829	2.604753964523482	2.100970024526493	1.282072898488846	-1.3893752063005145	-1.0436122391101275	2.2343568745467794	1.830095286517149	0.5936463460239226	-1.8507156325344234	-2.49422811832121	0.7226564865940469	0.3221424809905625	-0.061568908237936475	-2.1424312537461545	0.08129376152494708	-0.08725748189115004	-1.637274022737008	-1.030006882928047	-0.5290737138741782
-16	2.2385342064606712	2.2699603977112837	2.2484641018366016	0.5228517638357184	1.4535660707014364	2.5720965797334974	2.80224107988486	1.7303694442930413	1.0453665230107276	1.1160124512152374	3.056388132008093	2.922290317786721	1.2319095103632383	-0.3552888324827274	0.5920206293417785	3.457779398771167	2.77478241219906	2.081849092949403	-1.60457109999853	-0.44634434468111805	2.877304069883943	2.481519215994288	1.0058604453440525	-2.345933193005921	-1.9103563975739695	1.2539832560350463	0.9795899366442048	0.21528331881051918	-2.0784590191817167	0.2787806682700692	0.41195359722079666	-1.4265514576180913	-0.6659508926744095	-0.15967173834064965
-12	2.2306709233231756	2.713784926238562	2.7959673334102213	0.6861786825021845	1.6374841887139555	3.131156675062729	3.2281834997689316	2.1199119037511305	0.773585913612374	1.4920995197771223	3.5456380754597454	3.406040421469544	2.058632607030846	-0.12864878741208574	0.9448080635058548	3.6215505508540224	3.0128502769697003	2.412828916179921	-1.7477651790361086	-0.016933757769031117	2.9175991938361627	2.6937894753155347	1.1662932604907563	-2.8183000016582804	-1.4068427050357102	1.3432962860524726	1.3382928337640798	0.34299576195903114	-2.049231285643449	0.26518434219164944	0.6390086396296393	-1.2849175897582144	-0.4079626192283247	0.09369347965903844
-8	1.8385941935849246	2.653121226287963	2.8411564755233027	0.8601829983928219	1.4834597073294533	3.0106584949775534	3.058918229963131	2.146299833600889	0.3559120288446031	1.4687288962475655	3.246170512586678	3.2648236669127524	2.3141877592786977	-0.09502661949246076	0.9827694868070757	3.0456707400673784	2.701779597136792	2.0378501363801917	-1.8137508584959756	0.2458600991717434	2.369428390242744	2.409673446293479	0.9973811482043583	-3.1728985229492843	-0.9819636916163915	0.9933280919745096	1.3449164595026668	0.32698076880869975	-2.0257060476657354	0.03068690553010415	0.5376576767698337	-1.214842554839922	-0.3382290295167661	0.1453785147572755
-4	1.2553515402570556	2.1588132326934413	2.3986952244278856	1.0209228966686332	1.130772230154413	2.285044425917219	2.399036639832297	1.7305127338587196	-0.05485183359244848	1.2034761875285314	2.270155662527075	2.5418960983949512	1.9218838166351366	-0.22421295884267678	0.8498925545215554	1.9453891466615456	1.9226677369212433	1.054100987634061	-1.7501112178485447	0.4477788794656279	1.4455059730273891	1.738293285749476	0.5670690522181906	-3.303475371603374	-0.5475015030389258	0.3459497979489637	1.0607315275114244	0.2420162850468503	-1.9456559370508868	-0.3703818013853562	0.1509609665635547	-1.1774357527569357	-0.46476122619589916	0.00027022676590590937
0	0.6751295311094877	1.3981783354744557	1.608914132824479	1.1370167703531855	0.7216814738172727	1.1595913142491323	1.4371021949724347	0.9989079807810699	-0.31282287757094646	0.8950587488464561	0.9009268857144225	1.422555562242438	1.142695662474468	-0.3625527313138751	0.7391884904318546	0.6724731905171343	0.8965162612214689	-0.14569525383881227	-1.490787502339639	0.7248499375162433	0.43572166452071237	0.8799380637840767	0.04556849587379643	-3.124841205336853	0.005343511687139118	-0.40446564453050393	0.6076605900681299	0.17488728419494956	-1.7503906444225463	-0.8519804456181211	-0.4156191040512944	-1.1184767456426095	-0.726754305912009	-0.2608972483246809
4	0.19689488361238527	0.5545923099820828	0.6681017858803439	1.1754904955749574	0.32282599725279854	-0.1341958489606189	0.3573183706322054	0.20805434830112166	-0.34879195602093527	0.6631556732600801	-0.5514253960038723	0.14703658186028992	0.400386630477921	-0.34586265595852206	0.7784662227049719	-0.46236362936586245	-0.12314043162965586	-1.072863695296956	-1.0074161265687624	1.1471959323529373	-0.4340689767368754	0.026541199468121366	-0.3834949424121242	-2.609518759814797	0.7136613112551242	-1.1034589978014973	0.10379275653383166	0.16331621963275592	-1.4228402340251665	-1.3342760767628075	-1.0436371538515807	-1.0033813689648134	-1.0286442015426325	-0.5296570049264775
8	-0.20337808080823602	-0.238297208541996	-0.24818958279413503	1.1029834719466798	-0.09566065644907759	-1.4200922214893799	-0.712569354165596	-0.4032160629582651	-0.20376361855083105	0.48641401406504403	-1.8728865337769702	-1.0755053731467314	0.01372211050502976	-0.11072411360203646	0.9564388966254461	-1.3191487755848748	-0.9537551378965652	-1.397663589763475	-0.3483688822533877	1.6572023588301874	-1.0875558825691267	-0.7083363515136246	-0.6110209807227928	-1.8140209867454158	1.4821145497095585	-1.6836788611818587	-0.3737065484625333	0.1668243553002827	-1.0033990119396226	-1.7631444886515155	-1.633729811358322	-0.8392156937391858	-1.2798932758442028	-0.723472116551094
12	-0.6223902090571253	-0.9220639443959503	-1.0350190374945551	0.8900842048107063	-0.6159356220906945	-2.6016735964892668	-1.7015706257774945	-0.7434598784749645	-0.002908498507100383	0.2332645499777369	-2.9888217373727737	-2.1153001731872125	0.004592546250251955	0.26196646624228476	1.1325739593521345	-1.9464064787360036	-1.533120389882295	-1.112772104314849	0.36104822067657566	2.0845546669782165	-1.5875996311159029	-1.2974823680544332	-0.643366156384232	-0.8770034291059696	2.104059214048113	-2.1465341990635545	-0.7814456204711923	0.09186142659836394	-0.5697890505710035	-2.100282186927522	-2.105416054178354	-0.6663703901632796	-1.4179217779600086	-0.8124841431131645
16	-1.13645672511229	-1.4974408111912492	-1.6648263889241588	0.5262054787701832	-1.2932369676363797	-3.6330473331278523	-2.560887807102495	-0.9014606453070385	0.11523523152582765	-0.23497085213941402	-3.9208118816566877	-2.9213132784520295	0.10431673351414861	0.599612532532297	1.1259686918440919	-2.491355412868868	-1.8997476052957614	-0.513180254594237	0.966008481924619	2.2358226719673953	-2.0488095231780834	-1.7554939940953307	-0.5777783379272362	0.020045705089026453	2.3649759232892635	-2.5032753881195347	-1.075238821175969	-0.1390042003459933	-0.19126972507823234	-2.2981355132254757	-2.379015439702792	-0.5244626985659957	-1.4091378414816367	-0.8082922080613396
20	-1.7262375311183538	-1.987331862200487	-2.1595730727031195	0.03866108869685997	-2.092128271542835	-4.471801269685129	-3.234714023052615	-1.066134211709515	0.07542648892432778	-0.9525207257063835	-4.7013606906448535	-3.490952244527868	-0.0503412930886521	0.7476233821113033	0.8316841104490276	-3.0683805865066236	-2.131560797078043	-0.018448270810756732	1.3482028211887054	2.010011429480263	-2.5360946591243203	-2.085258240203369	-0.5336520062324617	0.7174085956580473	2.174849027864747	-2.7259290149530178	-1.1867822378712776	-0.5177835809032629	0.11429814220419608	-2.288078540747205	-2.3717098176204066	-0.41575267805989874	-1.238376971932908	-0.7330132704347808
24	-2.2690131606989046	-2.4036900936474526	-2.550741427657287	-0.4915595638262227	-2.876749508270353	-5.053403364774342	-3.661890497499	-1.3884394133799034	-0.08900445677220307	-1.7969522430827607	-5.307527051876882	-3.837125053254695	-0.6598971469430812	0.6609034521582835	0.29632839485693	-3.6681225207224015	-2.286123508403508	0.05949373155712728	1.4753298722211952	1.472319718458348	-3.013576976796967	-2.255656236675621	-0.5814940318685081	1.1396285266713595	1.6490215021461303	-2.747728579259552	-1.0392972204671522	-0.9268085337127372	0.39181950589437203	-2.001285786344334	-2.0255353399635294	-0.292464076734286	-0.9035997963979816	-0.5946457967049931
28	-2.6040332251606775	-2.7342250278104907	-2.850175850347943	-0.9380900836148266	-3.4630117328949193	-5.30626247973652	-3.806135644839894	-1.8755748224588427	-0.2536060803686173	-2.5301101143854012	-5.6544766283324615	-3.971923102841121	-1.6084017712992833	0.4286117542889531	-0.2927260093450901	-4.157115448946431	-2.375255578719853	-0.32700318015507873	1.4128519260975037	0.8392203429014665	-3.3692054663470894	-2.2234802189956273	-0.7101755124281706	1.324615236752714	1.0785765620656742	-2.5129547055694617	-0.5972251280964911	-1.1808031767596643	0.7177779060361431	-1.4151653015646855	-1.3552274669763287	-0.08120051005843142	-0.4244191635860374	-0.38645601175012245
32	-2.635406010649706	-2.952376119789009	-3.0458395404209564	-1.169824478056914	-3.704305162614081	-5.1975006925965666	-3.6915419008512615	-2.383561366739044	-0.27297305991871945	-2.912114851274936	-5.649107918781807	-3.9122846027780707	-2.513654464097358	0.2234943354447566	-0.7006474715663012	-4.36081408353346	-2.381093257614416	-0.9653161739773007	1.293794986319358	0.37705486917665954	-3.4914240748947183	-1.9801310250833524	-0.8472574331826884	1.3991776669462368	0.7934126833911126	-2.0383293577229757	0.08379536100927369	-1.1191363306400286	1.1428619594329714	-0.5944591149580278	-0.48041021702591136	0.26733416251398046	0.14335153960751643	-0.10882014008704144
36	-2.4075012146247685	-3.040600292158427	-3.1209685723662837	-1.1101109953509256	-3.5635638147028175	-4.776734340051721	-3.414242974244245	-2.7093524864456753	-0.06455380453262355	-2.8255572247692298	-5.265693651256183	-3.6964957620753265	-2.9519660398339895	0.20138694295105766	-0.7690961937560032	-4.174164284657781	-2.293247217110498	-1.5285835227520257	1.2557889191393132	0.2678381793889286	-3.34231709590106	-1.5842061002788286	-0.9134418345277349	1.5094048938789384	0.9880703662721468	-1.4358551465975926	0.8484908320939116	-0.6989023667809734	1.6447935062843073	0.3082811526621404	0.39540386100121294	0.7351491432702696	0.7048214656200941	0.20835612661685754
40	-2.102355236467576	-3.011179439571575	-3.0813934725211327	-0.7891354540928296	-3.1344151417750834	-4.184900750084776	-3.1160900514130243	-2.721797459406198	0.3394631138814024	-2.3410856664678668	-4.5922903898643215	-3.394471398366429	-2.7135171821749067	0.41655161871645097	-0.5004611002684396	-3.6306011585124462	-2.135703319879474	-1.7627326205571574	1.3806567157219405	0.5179870711600123	-2.9768907948674963	-1.1491554946496256	-0.8721523858938827	1.7411788658050569	1.610645528541543	-0.8695082046490327	1.4947619400432275	-0.03304997078180648	2.1253805106861763	1.1082817288073874	1.0668207380063046	1.2323620288252304	1.1509153813868205	0.5069999085977254
44	-1.9544019649752773	-2.9097380564658732	-2.9697954579713475	-0.354777454434168	-2.5995926791361224	-3.614673366957201	-2.9295599386637527	-2.4485337672402876	0.7985405305728377	-1.6872377353031225	-3.815172424220765	-3.099827758592144	-1.9304451893704793	0.802416024566349	-0.054697599123900965	-2.8901545928464936	-1.9644039819712038	-1.6074870784228696	1.6646857219628441	0.9616309380094321	-2.4989085134357354	-0.7902085761146563	-0.7456914167650762	2.0751142449439457	2.3828082024495636	-0.466978369964334	1.863234515254281	0.6507557614108936	2.4571952757786	1.6739234882053902	1.4276225530820008	1.6380854803689315	1.4030975067953488	0.7276724558578109
48	-2.122289890653086	-2.7975938249527457	-2.8541717457235967	-0.020644172973963374	-2.1501347964360553	-3.237961999347515	-2.9240486548031557	-2.0636453576438	1.1269736261524679	-1.1415277690676875	-3.147549621264627	-2.905096046742486	-1.0020356152984724	1.220721837776433	0.33707323585284454	-2.159757847101457	-1.840213055732937	-1.1965533464739273	2.0286838957111955	1.3546037639749737	-1.9900044152561784	-0.5662834630020344	-0.5955947026474215	2.401021236079728	2.943296425064008	-0.24584807393469033	1.9092096042113864	1.1105824680899086	2.550752394911898	1.9862707803168744	1.524287339176752	1.8614675951690205	1.4498488866440489	0.8415972569198183
52	-2.5845012599542536	-2.7190635135665433	-2.792099468811222	0.034641418518581685	-1.903455252610009	-3.133072129922395	-3.077928535319798	-1.7831571057121944	1.183144685619109	-0.8987408257681595	-2.7380406787407985	-2.8673467563714854	-0.3645178368425136	1.534642215668858	0.4936778234892248	-1.5947340686589253	-1.795453067061155	-0.7498443703793164	2.3512117803339025	1.504119750040048	-1.464784499284868	-0.4556602526127673	-0.48256766674275436	2.580257409256961	3.033631317108884	-0.11014851154889378	1.7096703009355727	1.1984961002608314	2.398469203615468	2.12747907101413	1.5165729484415291	1.8833613348140614	1.3475141491247093	0.8632227756640474
56	-3.1188883702688743	-2.6689343385069497	-2.787767641658463	-0.230413108482365	-1.8578168106857451	-3.2467152990385495	-3.2871322548843827	-1.7325395301945448	0.93567418815889	-0.9836671923597713	-2.6049976283107084	-2.977751962773037	-0.24722491142320327	1.6654319721135478	0.37290820385242734	-1.2364792792573402	-1.8150811149547141	-0.438349216069712	2.510484212259049	1.3608231510137148	-0.8847209788873575	-0.38331538342019167	-0.4332539130239521	2.5204667981408275	2.6209039621938888	0.07040094566452078	1.3976432049750132	0.9191042161624561	2.064453596624914	2.1949214879886294	1.5550268849212856	1.7489241317461952	1.1761943072186882	0.8275818803873632
60	-3.384613743819784	-2.5799603397081503	-2.769034617108591	-0.678203640656017	-1.9024004888187267	-3.4122385892547986	-3.4050457391600437	-1.8660078001593887	0.47380271434369536	-1.251028176963833	-2.630536072765273	-3.1514954487387956	-0.5598921761681952	1.6005493362071093	0.08105826357403408	-1.0169078085974106	-1.8441125107935874	-0.3027152709470669	2.4192848144485337	1.0234913800148095	-0.22225747946414526	-0.28251263427932366	-0.4350149024470726	2.2199795190075173	1.8896871757481024	0.34333807143311196	1.0662437650463357	0.41135075584506037	1.6255310732808772	2.191623682210823	1.6473486381900877	1.5149583778279299	0.9731924509273246	0.7450810055994727
64	-3.0744776648145944	-2.34158729915703	-2.6039850646078206	-1.0391595337380688	-1.8720865202368149	-3.415644875485823	-3.2925355351289194	-1.987738008248961	-0.03383280700843909	-1.4648411236972616	-2.6138222151567145	-3.24426650181878	-0.9694872474035068	1.3630945648110806	-0.19406115959762812	-0.8156093338401375	-1.81111549873853	-0.25796285206515235	2.0504372068135	0.6642979962743164	0.4757103609949154	-0.14304022454864057	-0.45229479556331137	1.761177773797472	1.1187962265377989	0.6021121725139316	0.7143736463630365	-0.1250901517094005	1.1085582943584469	1.975754375237835	1.6129472214983784	1.1933667629629907	0.693213163056171	0.5731209502055356
68	-2.0723721928726215	-1.8512533856382294	-2.1597242300818884	-1.040683862919706	-1.623025532439425	-3.0839378755908804	-2.862566940709725	-1.8617210341179655	-0.41374838247741946	-1.4145706856299074	-2.358762973552142	-3.0962698381451945	-1.109103319228897	0.9857818459417736	-0.2851466827345874	-0.5312908874449354	-1.6522738891847326	-0.16874720113588207	1.4481257163679429	0.4267609406663829	1.0778036090341785	-0.007763017880688369	-0.44632422811355715	1.2617576090427618	0.5264701829969625	0.6239164455873906	0.282378464224273	-0.5103060590257795	0.47503352045287733	1.3251796927373118	1.1807962626208879	0.7380799632511207	0.23239974618887418	0.23638057649059876
72	-0.5360127077874756	-1.083348509914344	-1.385621782619195	-0.5610164985797548	-1.0995162697688492	-2.3634488522939736	-2.1141362136869772	-1.3493282760885128	-0.5608085975793031	-1.0116834614960377	-1.760666127528012	-2.5967366629842754	-0.7901303152162639	0.5022267090515184	-0.12542144922538687	-0.1297879811824792	-1.327061888205277	0.06219336374792985	0.7250018697553922	0.3601132026163448	1.4281741344633598	0.08459711798528442	-0.3806364526675254	0.8180565813391467	0.1832531834982448	0.212076171697187	-0.23557883441574917	-0.6252660139509877	-0.3247701517488513	0.1016905379708142	0.1963880057144951	0.09656582748351253	-0.48555996891453607	-0.30534431261218214
76	1.131588336948617	-0.1426134701942874	-0.3797444095560691	0.2794145040610104	-0.3680069735295662	-1.3569151128842383	-1.1495487660948607	-0.4998708950773638	-0.4738329338985202	-0.3257966927409037	-0.8573234059622975	-1.7456672147546013	-0.09165067947613144	-0.035400744438200064	0.2315723443145136	0.3499504914985095	-0.8232812264637426	0.4470563519634848	0.04436158750181879	0.4253979016531006	1.4445182048566652	0.1722267265739889	-0.21017439610346253	0.4783653902850871	0.04190829758196066	-0.6333825572234946	-0.6756524426567819	-0.39930042523659903	-1.255834576297096	-1.573205824694724	-1.1781240671930642	-0.6999358517141245	-1.407201048159195	-0.9795268749301916
80	2.413348430262472	0.7322631459821765	0.6035726055165309	1.1448137731258585	0.3942250301421439	-0.30119326634657	-0.16540980297288332	0.45541241650041697	-0.24354426501297086	0.44894286876818534	0.17626813009581352	-0.681170402237577	0.7120080572271632	-0.5368164764202424	0.6545434577628724	0.8258975127349081	-0.15538479348529274	0.9263517833209766	-0.4149193753257203	0.5603660330929632	1.192475554316559	0.4039462496572425	0.13388004865223502	0.2601672106373151	0.05398691804487709	-1.6256414610827226	-0.6760526282407936	0.2317223543038733	-2.125358337758376	-3.2466061033295968	-2.4064192711155377	-1.4678540192737612	-2.299273723519233	-1.56840753159313
84	2.861031763482766	1.2319284646402289	1.2239369123075003	1.6206622082800475	0.953402874446832	0.5087255822689056	0.5889184460076307	1.201316711253771	-0.006559015700797474	1.0754022571115305	1.085850474477119	0.34864210994434824	1.3203207221074895	-0.8826655127174677	1.0074419949845297	1.213817116533795	0.6363965852882421	1.4199441635521317	-0.5105391727909075	0.7509998660200148	0.8801203347873396	0.9941457484894739	0.73986220173005	0.18801717412685715	0.28041341830027916	-2.2602367344057557	0.20939409679951676	1.3485237325953658	-2.5978748732780326	-4.243556965604408	-2.7383999755385973	-1.8860788297718	-2.8010425496907425	-1.7610477164629006
88	2.253429645571013	1.0918056937308824	1.1844743460314013	1.4037648403965692	1.100039717757945	0.8235385397145883	0.8849743582316579	1.4766921959787418	0.11034025969065209	1.3634080852418076	1.6263643462127335	1.0686047050199279	1.5639681776614673	-0.9711586212434338	1.20910322360899	1.455540057322124	1.484298940725772	1.874638195073207	-0.19368784080718118	1.0553328964291684	0.7628680448345024	2.1065444893103926	1.679055328898305	0.31523451129479235	0.9053702927619197	-2.0331194349456023	2.2840440215618343	3.0153293533489394	-2.318048948157499	-3.936945905282335	-1.54474186507268	-1.6131951768200181	-2.572831385792433	-1.2850508657435955
92	0.6758370382411852	0.2138870204055362	0.3669628193650271	0.4526923287406372	0.7308640461588961	0.5350607620081712	0.6047748908032599	1.1855578392613928	0.033328939145102474	1.2343227832148114	1.650905962590591	1.2871420350956158	1.4643317424042972	-0.7780934552574877	1.2534350125137865	1.5282990893878756	2.2953991832000353	2.279702180828778	0.45515939478398426	1.562477703917977	1.0081299517927902	3.725773563515079	2.9497468397053153	0.7047308069556195	2.1295971816655204	-0.7032413464910878	5.47711847829807	5.1986985075349486	-1.0907523604510712	-2.055226797636979	1.331706043695871	-0.4596400249320498	-1.4724442921656142	-0.056218448884408266
96	-1.504884716049164	-1.2618635861009049	-1.0912599536046967	-0.9807454322849032	-0.09711685752190861	-0.2742884152163018	-0.18965086293021996	0.43342551479582725	-0.24031867026212728	0.7417668085443941	1.1673136920067346	0.9850749944611669	1.1777367562122916	-0.388705938073101	1.1899006336687634	1.4401994907257232	2.963129512935077	2.647989743222916	1.2336332766857905	2.312820190312424	1.5955917794950776	5.589741215898246	4.4294404871687885	1.3714100087827008	3.999675740634211	1.5395666321984782	9.236677146479437	7.68322990385	0.9737690066547814	1.1298769683921468	5.392801748011681	1.4730728827478285	0.3337042919316781	1.7331645444980814
100	-3.7516670132330296	-2.9763760491565154	-2.8210489678683808	-2.4493906436114155	-1.1617035836453495	-1.347274419244028	-1.2445279328396195	-0.5217274414241588	-0.6474635584696817	0.05142403008471492	0.34348067554537703	0.3380913129853602	0.8790250398377125	0.027758210827362934	1.0884097787080231	1.2258633344217773	3.389897337937914	2.978945247758427	1.877577300099661	3.2373657144826873	2.3163266123464177	7.2335247810840295	5.8674845547355865	2.224909061536575	6.286707862240381	4.106181611184402	12.629305807652642	10.047577832603496	3.440640440837144	4.8496084090816	9.58766076528323	3.773169269572174	2.3970355927029496	3.645687809322745
104	-5.511836991699184	-4.463102806267149	-4.344154346942221	-3.490855208166418	-2.1311218684750255	-2.3315327108645443	-2.18433355733604	-1.3746452296836513	-1.0797810527242544	-0.6088991149787908	-0.5423376546518472	-0.34711110504251297	0.6677405817339169	0.29682797118585363	1.0126659844580346	0.9467119550644635	3.512501230908398	3.230273953865216	2.153632396982645	4.159921635615372	2.876289360413849	8.137833574729823	6.932848912855126	3.054025880732319	8.501794793598508	6.236898883331714	14.626743279721413	11.739440888329511	5.683728680565736	8.112690905115569	12.67505165714652	5.845005974317486	4.149190892234261	5.146821485876375
108	-6.366906626838924	-5.309331403678967	-5.243931757085052	-3.8060889147985084	-2.668061488091063	-2.8955511973708323	-2.6478574209118486	-1.8826862526090398	-1.4104402029666907	-1.0132517789054083	-1.18998217282261	-0.7593099455736189	0.5500954375683569	0.3273859909851822	1.011719343492102	0.6903608423922909	3.3189504062780486	3.3170027649102853	1.9487930487067846	4.865868556135273	3.0489156169207585	7.919276217493542	7.306537609726594	3.5753981976838025	10.058793042536118	7.318510990738845	14.463100396833791	12.236036269766158	7.115819913064555	10.084092114737869	13.685875858085645	7.128494721534752	5.124756800110549	5.802668556821838
112	-6.131350978629935	-5.29861925694698	-5.309214578575502	-3.3534800921649905	-2.5466053421574757	-2.8361852097430074	-2.4339411197246403	-1.9340808342740199	-1.5194573364042174	-0.999143299918049	-1.3719332183532182	-0.7130953651544107	0.48686432715518513	0.16281655389686533	1.123313543344631	0.5603437409558735	2.849871389823199	3.139222852410528	1.3229305710770356	5.1999325620972625	2.794139378168865	6.476834280827741	6.784994585072905	3.535831680907478	10.508658382586841	7.134756070243308	11.909364670249127	11.228853197357878	7.408653717409449	10.3909387326155	12.276312797069254	7.309830647132831	5.136393057252802	5.437417493443471
116	-4.881190764501129	-4.471866119538481	-4.587840068678048	-2.322311395503915	-1.7361451343571945	-2.1358110850769556	-1.5861527879722779	-1.5577136238823976	-1.3172535863043813	-0.5121460544053503	-0.9990739201117056	-0.21879257206513267	0.45518308763022264	-0.03938210745643598	1.3743150199524294	0.6518418772452487	2.1855864469660555	2.625509970711923	0.4933493124903746	5.135409819035069	2.2790768088973734	4.0302286046317795	5.350738511881309	2.8168244290759463	9.72337148118815	5.92893408232092	7.348794918579865	8.748466469611465	6.598194105655614	9.216965652083402	8.817508675247696	6.423327429766544	4.32013748985564	4.180008400853964
120	-2.9169726298118657	-3.084158651194571	-3.33153223150263	-1.0159577105620896	-0.4146354784033719	-0.949240682112675	-0.3692560484623256	-0.8846598245219723	-0.7691971640239977	0.3785317530611754	-0.1351280954048747	0.5425472245823484	0.4725978958595699	-0.09310678369141494	1.769581790271005	1.0195244524964437	1.4272819721426142	1.7701804593216175	-0.2545121603738828	4.775381076200158	1.7914332106183624	1.039274213074327	3.182946912358729	1.4859622679386746	7.935443381301601	4.2587590110067	1.6323337513719176	5.169556127847784	5.031369673423722	7.159166317984413	4.202407349466846	4.802250373159907	3.038873187975776	2.3876681267537
124	-0.6771402937959088	-1.4843751154616027	-1.8677368116906679	0.28426235842461	1.0975109311050888	0.4671976256495867	0.8534965493588003	-0.08524690546924338	0.08145690688786601	1.4986605606388532	1.0393130753026225	1.3204923834840094	0.5658984169977576	0.11079447688501616	2.2742853107252667	1.6504121977145185	0.6777809841209819	0.6503987295895906	-0.6915019733136346	4.288156498572859	1.5950468738339167	-1.9545185516601637	0.6015807375024559	-0.22945338429693712	5.619836793062253	2.7301802566262445	-4.21039008031217	1.0876009436804632	3.192756406352517	4.938149439741844	-0.5177710043232471	2.914632074626735	1.703076000682141	0.49241825813901136
128	1.3749186957931903	0.018974278074281214	-0.46822059036296165	1.407036420130741	2.4567580161056317	1.8498080922153646	1.7819803908180096	0.6874845010566268	1.1044676275978398	2.619783156456362	2.293920034339024	1.917225117611254	0.7187401634189676	0.5471345768466148	2.8080127168331788	2.4585764346038483	0.027872823108396044	-0.5848290905492053	-0.7380802612743439	3.8223407172019344	1.8094865038009316	-4.48894690333935	-2.028135294562068	-2.028990502003146	3.296298972390536	1.7552661851435742	-9.271383262114469	-2.875542633425988	1.5121455154387913	3.1217100541454172	-4.483796585206601	1.1798850268138623	0.6117921456149498	-1.1459988326702908
132	2.8651082443379523	1.2425126998048515	0.721018789378333	2.299473279869437	3.418215266180627	3.0023274345890414	2.2956383170342707	1.325708505144424	2.1017794556004996	3.5277285486800114	3.41597580047278	2.2634649219586405	0.8466446378312998	1.0710496875424416	3.263995639189623	3.306532374616896	-0.45458137874273424	-1.752262468682347	-0.49782723062710976	3.4532644661501197	2.375115627014274	-6.282726748816595	-4.393311489457271	-3.6414272693249568	1.3603968585953574	1.448529478230632	-12.962328878100902	-6.254621013108746	0.24777361688045899	1.987867350327797	-7.221042137988103	-0.1434362080052061	-0.11137119652524557	-2.319110387668979
136	3.599545469732822	2.133952373838973	1.6647911029745408	2.9774286671805914	3.9085352322125857	3.8246374033686212	2.4658791956632915	1.7657076075796756	2.859930031231519	4.086490620786119	4.254165638673327	2.411905759443971	0.8277013876998361	1.4894472323006034	3.5521447568855784	4.046989907537459	-0.7359948735728523	-2.685560219660042	-0.20859101362016313	3.1900222220942833	3.1139240186273556	-7.253847103878179	-6.299653514215754	-4.890824305583984	0.022482549714903544	1.6888358550348055	-15.063193283197121	-8.839941956135881	-0.5151841031418816	1.5595904549323467	-8.63333127703106	-0.9610072946127218	-0.4761734294790063	-2.9664292260615115
140	3.6025950817704104	2.7155680587871602	2.367408269627117	3.465114584757286	4.022995938634415	4.29792736875693	2.4679965910589465	1.9719839046281529	3.225026837789597	4.27672957294253	4.733667838543022	2.4649922785512732	0.5786806926422127	1.6592420297692516	3.6481323150081013	4.571242320917219	-0.8238062241735987	-3.286116353321396	-0.12083731561193019	3.032407514545445	3.845377673930881	-7.468952636934944	-7.686305503512645	-5.699170575057999	-0.6401466115048179	2.2828607501567406	-15.645766218737984	-10.661540004515304	-0.7803453783360612	1.7472517446273097	-8.85971639303664	-1.265236970568096	-0.52600258455988	-3.1170706670263932
144	3.0914523523480315	3.0138080043995332	2.8035032678394374	3.7643458748190604	3.9561402697816033	4.449656475276928	2.4517857966510226	1.9254056166674436	3.1706170955716213	4.195666779415505	4.851185309559796	2.4893758234115855	0.12455695836090844	1.5575541218533815	3.62056731263629	4.844948756383403	-0.763582227686398	-3.5508034139629396	-0.3663650145817616	3.0311517638924874	4.4871792679983535	-7.066748601237765	-8.595104195828744	-6.0447692718478	-0.5857440218441976	3.1164808194631854	-14.945914230758847	-11.88861748554809	-0.548174260662807	2.482777827670187	-8.112332323573506	-1.0505100462139891	-0.2596239739062038	-2.829816334255547
148	2.394343846951689	3.0242247505127597	2.901819698636744	3.867718925247766	3.9045147797233466	4.32713888983186	2.4507617888563664	1.62718963212221	2.822375290420574	4.01886843620343	4.665327060364736	2.4748353895646296	-0.3884848346438649	1.2919667926594232	3.616869917320918	4.919933783507316	-0.6199656113230735	-3.559127560212675	-0.8763309099006669	3.3049154198175117	5.087869631319403	-6.194022639848657	-9.114470458860733	-5.915656551684276	0.25057953532849864	4.20704506765582	-13.252709355273035	-12.70475098263306	0.21458338146868894	3.759293546722075	-6.587091429292045	-0.28626751827443636	0.37183523084221215	-2.169913763289805
152	1.8336888505415843	2.7304465701784286	2.593104355940834	3.7955226802365623	3.9903397459373235	3.9950666326746567	2.3847560822359055	1.1144694061751879	2.4227123199330443	3.9409279723804356	4.290203560487857	2.364437335720433	-0.7546080331823833	1.0536673042397702	3.8107395075907218	4.918907153108297	-0.4427376676348651	-3.424240818915048	-1.3918855155135368	3.9968964952646413	5.781757816975951	-4.971358286703898	-9.324415183367295	-5.295569406490812	1.9307036351095728	5.641784176887456	-10.844987841881734	-13.217972722059956	1.5282579621830845	5.568977341896715	-4.465273845842966	1.03805494046388	1.398069258974792	-1.2223000495568113
156	1.6149885613674921	2.1540791933987533	1.8857469511105287	3.620786419309931	4.236800659926886	3.547317972763854	2.1463992541481236	0.47320082664227314	2.239480966635893	4.115863312820114	3.885056247439101	2.1298997348416364	-0.8147566893987782	1.03782772755857	4.332960117844507	4.9963097446181965	-0.23378543496711393	-3.2323036112239834	-1.5733380277965021	5.1929297316095715	6.698495371118931	-3.4868595512093434	-9.266076064557067	-4.1909842385337726	4.424015033996452	7.459551315547547	-7.969512919332039	-13.439299549504089	3.319103232586867	7.803759555187538	-1.9588489483014522	2.837658636558135	2.748503201221097	-0.11377384484891427
160	1.7592182115007837	1.3918023074296404	0.9125108099786939	3.4501590641651623	4.59234617981169	3.109056703347286	1.7080554919033948	-0.16706825750608778	2.452578776843112	4.613514888559514	3.6265237239829458	1.8347297860553136	-0.5448428378654319	1.3705007995335925	5.215664850418138	5.286042200093968	0.06534636004162031	-3.0035262032017376	-1.156465527475713	6.85052440821068	7.881109694610167	-1.8025988294866562	-8.942628837895665	-2.6740162305076693	7.5285019684496355	9.563965773277625	-4.833644854739579	-13.320444073424776	5.373970495007468	10.20860001847625	0.6710531694635905	4.893080222173748	4.222121704885821	0.98974710453009
164	2.1039421505260694	0.6050951465588295	-0.0933068913845819	3.3695742998880283	4.98048065835445	2.8122115064191355	1.1756242483974957	-0.6655129177457058	3.0702669542997127	5.403991208737826	3.659862985907439	1.6362748104745162	-0.07402720283653297	2.0748479313917616	6.376176818008147	5.85263107729506	0.5540156946499813	-2.692635290977018	-0.07223068159463548	8.786012627353584	9.256707168096346	0.04046556715881487	-8.341377237240827	-0.899904248826593	10.876976939396183	11.729829758593034	-1.5909553726082848	-12.810731855473394	7.381579857309347	12.440305678430114	3.162616006495753	6.894309503314977	5.54442738086861	1.9269509266839888
168	2.370991700861966	-0.04303135712011222	-0.8927454925885636	3.3890809927251313	5.338706479898748	2.741846792927966	0.7441266160297387	-0.9233894920877636	3.9217734237837765	6.3679747420706025	4.037347783385778	1.711913342922097	0.37689399624081693	3.0709631365489316	7.644151668322443	6.658881647464063	1.322526093958611	-2.233089202964897	1.5189838371073172	10.73033234748127	10.665761920703376	2.0186924883420123	-7.461743335958272	0.9223044491370118	14.04465671808069	13.696026767483845	1.674574370924694	-11.897758453847766	9.049209571879505	14.205713236228748	5.344500051356288	8.555656411504513	6.486542208507088	2.6045195990608168
172	2.2762501182306822	-0.4716376352323404	-1.359140750314532	3.424957266743439	5.626209721665547	2.8788342403207534	0.5770087227558395	-0.9306985116348924	4.732391822310892	7.327292900659299	4.67223404658387	2.147640699686371	0.6061413272812858	4.19829415215057	8.817527748733976	7.5632319259425165	2.3940100609417896	-1.5984649617845763	3.295466414714415	12.426305739500616	11.925847023417962	4.117734421824179	-6.3339853126825405	2.5967128211264257	16.707683521049574	15.283179244555772	4.947720515157132	-10.612931224730803	10.23152062693889	15.397240599858614	7.208052140157131	9.73927972241996	6.978355866933347	3.0436842364713197
176	1.6386544663065208	-0.7367616873259517	-1.5525053700350737	3.335357657594656	5.802467808378742	3.075900070053923	0.6843134743579374	-0.7812722305599784	5.238985525255499	8.086091021149524	5.339833246100737	2.8575136589384256	0.5271131979031759	5.254828916633955	9.721165632499874	8.35251138485676	3.6897420790021678	-0.8432889559435625	4.912476527209005	13.717243159947369	12.892122236127278	6.315975650099837	-5.018287646021448	4.0106630224057875	18.76517100364789	16.4623660625625	8.251989343789752	-9.009111381673126	10.997141810308616	16.14206500746298	8.904745079446391	10.516273471984118	7.150304776258739	3.379456988385416
180	0.4508216071667623	-1.0186420653374166	-1.7032128529461998	2.9952893181517326	5.801920876159663	3.0921945493829006	0.8791800715183818	-0.6449228508879007	5.294494615538936	8.475014665187118	5.738750920111877	3.5872270970374824	0.20099107870378136	6.043927654265696	10.246643040535963	8.802492119499476	5.038065420782305	-0.08919029660356294	6.1372213208697515	14.582623444932903	13.485630001352447	8.5629043362909	-3.586597433571665	5.163819300011926	20.351276346323043	17.332881883728913	11.595385522177102	-7.137558442214993	11.586463898969647	16.7279052312036	10.655593845167525	11.121882410579614	7.273323517555813	3.8029322528191734
184	-1.116438505215016	-1.5393500289199114	-2.104905361583208	2.3694899022359968	5.535101876589176	2.6841378144207133	0.8503680207717284	-0.6997887474511904	4.912266718859926	8.393793084886811	5.598256573847938	4.011477460269942	-0.20230816253605785	6.419152720457015	10.366625759654422	8.749477364384303	6.228141292106265	0.5432270155542954	6.912852269839206	15.11040874480887	13.687615360034378	10.765364619731688	-2.099472994272094	6.1367077672516634	21.728937094187557	18.029140426892905	14.91921611833846	-5.044085966726577	12.27968403576924	17.445144609275555	12.619163481323268	11.825513809865127	7.625983695803615	4.474303711085061
188	-2.7741956640773724	-2.4536034998935037	-2.9709899350496305	1.5413472613520025	4.923413741079097	1.7140625671979817	0.31737270871142154	-1.0530103418467145	4.232372750086991	7.840789775125784	4.788023936580835	3.879633893708284	-0.49153774852628995	6.315156920701269	10.12631318396721	8.147047022277363	7.085106831782235	1.0131442521265048	7.321070175760459	15.42826743999024	13.51757427617414	12.79331490147684	-0.5912423118922664	7.017425996229235	23.125657976891645	18.620450926498624	18.079816772590156	-2.7872555185518455	13.247820820739479	18.434968901820437	14.791422806588352	12.7871875440094	8.361047723641361	5.449874864170076
192	-4.214535225717964	-3.7655684852896063	-4.325819481418444	0.6804587823854003	3.954823007135393	0.2267220759628067	-0.813452420565096	-1.6886414246840389	3.4386351021733836	6.921323758770455	3.3815474424817005	3.135954372117877	-0.5436525331122726	5.763271317236248	9.623529409907025	7.086092454185752	7.531221847593159	1.3966890538238579	7.483877163111862	15.635968168835964	13.01734539560116	14.50706955108069	0.9262316799620575	7.83324716497637	24.604179320204636	19.067277860184948	20.8756408164347	-0.4642508018216538	14.466308557226082	19.6254062157094	16.991088824289125	13.977016413686036	9.438315367711072	6.655941469554006
196	-5.213475214193197	-5.312010751664146	-5.9834055749507264	-0.034655827941419755	2.7282485893032407	-1.5452603062716275	-2.377467387872594	-2.469866031132962	2.67525076190714	5.828223213739741	1.6424095589178898	1.9535453270227283	-0.35084265381925506	4.889189230972634	8.986775375564967	5.769973740315029	7.60584638582638	1.850024337866064	7.476104240615618	15.774781187284322	12.252865760385289	15.796614607029003	2.4415154395449945	8.529895760934787	26.039331370414235	19.26091380024782	23.108213366339985	1.7807424023491505	15.7370576461198	20.787195153205854	18.937789869178864	15.200157127150636	10.654439899247587	7.920958498983436
200	-5.701503262430039	-6.820447904532954	-7.6222209737977344	-0.49494910115210705	1.453999634886438	-3.2542426503989392	-4.006079186815554	-3.1975400367115334	2.008360142405574	4.795857417396019	-0.06258539094620842	0.6659408790941126	-0.01009125166818802	3.883931150167161	8.355452516441131	4.455442417339956	7.4392003825239765	2.5119838651178115	7.299962502168731	15.844638784459024	11.329356164938606	16.61727901077978	3.919171323418032	9.01454827893723	27.21087639614289	19.121747922303282	24.648651060815013	3.780640354148038	16.803806262506107	21.672916357634662	20.37881083111681	16.210466343960203	11.749316185850965	9.047590232894335
204	-5.773254379955183	-8.011626223363896	-8.916008926769026	-0.70085584940391	0.3979594995464726	-4.559206951074558	-5.279766069433544	-3.7012998964320936	1.4472980462726814	4.038101186093837	-1.3869656289369081	-0.3687787046658471	0.3266517809726926	2.9566616937375394	7.860625247182638	3.3822274122675813	7.195673924398588	3.3974413785987987	6.937135678896549	15.849406202354702	10.400863621201282	17.004617648107505	5.287764535905049	9.235291457701196	27.953456808086415	18.691919279589666	25.477472240973416	5.396027551378782	17.49280734414057	22.156345311492245	21.195117896926924	16.84589953937737	12.528919188338223	9.889019941158113
208	-5.637876973223005	-8.697053887343808	-9.655301069677884	-0.7467272858840125	-0.21394769793376434	-5.244800077547947	-5.902920708057984	-3.9199457069609984	0.9948072408355211	3.6872877981550927	-2.1145451015491044	-0.9061883069047519	0.5144869076137041	2.285728448818934	7.602761726257753	2.715315096675372	7.0136861624068905	4.34500311708168	6.432102663966801	15.834108312683853	9.654625868263572	17.06032748683404	6.447363360339404	9.243986106421922	28.272634434844047	18.159963561938586	25.68021195603772	6.566442949882507	17.801124527810387	22.29342836473501	21.434635108236265	17.11060519666804	12.941292730082724	10.396554920650637
212	-5.532017217020548	-8.830309845564498	-9.805160497705288	-0.7620738129448755	-0.289640962346272	-5.287793146134469	-5.8167781682974455	-3.9290757080060628	0.6836197955037928	3.7554039860324324	-2.213150495663553	-0.8952606297778006	0.46458861114506544	1.975645179528882	7.6290087507276185	2.516927474343001	6.966603261524787	5.063579069704706	5.936669811518918	15.88769431871311	9.267207122293469	16.915824847428368	7.29670522754927	9.19964883388982	28.36039535991544	17.79734034813244	25.406333859195016	7.3320345693485	17.887710526126934	22.276760045074948	21.2645854413072	17.16270823913903	13.07390400446715	10.620696040995378
216	-5.625043854816684	-8.50086972951393	-9.486523604283693	-0.8420214035709692	0.0828973872356772	-4.8480849143649865	-5.203573213790952	-3.902283420247169	0.5710887894516941	4.132517804202626	-1.8186885072567027	-0.4733973729579237	0.16526836115118843	2.03686356030236	7.91744277862488	2.749575131150031	7.054332238506662	5.265624509868418	5.671922192558435	16.107171971662403	9.346803641562722	16.688842731302223	7.769946555547565	9.304101920479127	28.50184433416769	17.837156250741877	24.815347608856058	7.811360816307262	17.97803302040573	22.317228260915158	20.879043526387044	17.22035212937435	13.084874120101075	10.671892139193758
220	-5.951262935871722	-7.885817031024064	-8.90525052683281	-1.006102678619808	0.6625414473972204	-4.1951422585428055	-4.391980636952086	-4.021948327400488	0.6912174207401953	4.623346793899681	-1.1669656008821252	0.10904012592919081	-0.3221042446110356	2.395377868326642	8.375982263398576	3.299594155563979	7.220390778431643	4.817249285933318	5.811890587438203	16.541780430037775	9.886280034853996	16.450315433930815	7.86479614179491	9.700490927046701	28.924390719819613	18.35779948368031	24.034797607775	8.142818430369093	18.238599731173643	22.523132267353308	20.41452593417605	17.441623643708272	13.111707654274051	10.6628341405594
224	-6.400050623947626	-7.186911087964413	-8.269155481441725	-1.203140494170004	1.1481401891330851	-3.6045884995052457	-3.717319955977218	-4.378774631888993	1.0019084189868428	5.010364996657906	-0.5066098558033	0.5937719330101473	-0.8824244119299599	2.9195609019000575	8.861005760709165	4.009120931040052	7.381414871653026	3.8230395220555167	6.36292837443808	17.149276690100677	10.750774356401825	16.213518101764997	7.649453620671117	10.390041325086028	29.67194740433358	19.23228068264433	23.143882693032158	8.4191560532676	18.688348722958057	22.842140140083046	19.913679072647597	17.842634156001484	13.204415288012154	10.65764424494262
228	-6.767587644656648	-6.576598150815119	-7.728666762866142	-1.3500587906130357	1.3017934527908632	-3.265614739756214	-3.3992791090018737	-4.90977286052882	1.3727785314232885	5.125322805815907	-0.02447202609261299	0.8059532025969692	-1.3750996554942716	3.459731570091922	9.216511703109939	4.710456359414614	7.458463173155275	2.602648490056752	7.124356251849155	17.79310412682966	11.712182015412493	15.948457677629523	7.24739072877241	11.215838403994741	30.572986525593834	20.17180246982305	22.183538380881597	8.65108392438614	19.19213862341951	23.095111788614275	19.347190808086633	18.29482836872699	13.31284615016515	10.651015254786017
232	-6.8493132418319025	-6.164984687498875	-7.356048088574981	-1.379986044260621	1.0467141840256968	-3.2318849482001384	-3.482388010769583	-5.411749349282203	1.633448239017114	4.903679835336684	0.19551967035043835	0.7016186696458194	-1.6691477256594642	3.888328065591851	9.32161138088414	5.259322630001516	7.401811581043668	1.5665600260283365	7.766982058942501	18.285207702247373	12.519578902106922	15.611489256544251	6.80512855719004	11.92598721354212	31.315542142005192	20.840660042597236	21.177396720824206	8.77634523083258	19.532548855104	23.074935854827324	18.66758914049094	18.59519190861806	13.326201405258384	10.58041188429777
236	-6.53479192991237	-5.987857326648471	-7.154217701969075	-1.2742544380441083	0.49570208662765347	-3.4257199677760592	-3.8468031786117303	-5.625543103320062	1.658944483383284	4.403976906147873	0.17736478105110598	0.3656078567810915	-1.6799435573125052	4.132160653172034	9.130790687396189	5.566711411726654	7.207175713462566	1.0469024154934221	7.999464014837475	18.457574797759456	12.980188336979152	15.176837882824746	6.452574236791092	12.28374096630099	31.58938781392122	20.987232155264287	20.14986986794971	8.708034493395186	19.51766581375974	22.652770938901	17.858957245559882	18.567541075557987	13.137873616427227	10.363973591387193
240	-5.864745125268626	-6.00703094873141	-7.074997884053851	-1.0649628612333464	-0.10063240651711061	-3.684222212072745	-4.268549908351366	-5.355226503202986	1.4439699613354053	3.788256158801051	0.03007661543643491	-0.02885074719953111	-1.396448608687441	4.185611714285862	8.693667389854799	5.624387250051496	6.920908433606709	1.1683828801220162	7.727729777852639	18.231637908681453	13.019896474391105	14.65590282554623	6.26901720371571	12.169224708350368	31.22415153249472	20.531501718182472	19.132932614657857	8.394433954025818	19.06903643561996	21.836341802778694	16.955371813881253	18.142366363496684	12.700671163917775	9.946420644443366
244	-5.024995314308956	-6.124763950143147	-7.038415891043185	-0.8097947815476888	-0.46601098658207185	-3.8286812208785532	-4.503756034924275	-4.570438373470518	1.1220697136205986	3.267285338735761	-0.09510029828379772	-0.28504845428024556	-0.8895819164704523	4.10161017336025	8.143069246713676	5.509915814793634	6.627207739310389	1.8164794399176145	7.11354683033714	17.653055146470358	12.697917906173261	14.094326937376671	6.262563212795725	11.624155015207494	30.258300704855134	19.57358927553261	18.15971179191969	7.8555836479216845	18.24952120941755	20.7547358942546	16.022771794873538	17.379302934637103	12.047894447426229	9.331393218322821
248	-4.276151646308247	-6.2152061305483475	-6.954465371693372	-0.5571585283517633	-0.4201744188190749	-3.7320337201307434	-4.370297420911861	-3.44299124802115	0.9132360792944898	3.029018394452073	-0.05621371776574117	-0.25272193487257383	-0.29381066486565177	3.9581837554179238	7.6538724706050285	5.362135873607905	6.417714579591506	2.706983559449703	6.4858369663518864	16.877130465812193	12.171018569734999	13.549871410492011	6.370280726561851	10.821111651756468	28.913968966916237	18.329219771838403	17.253164247821783	7.180228692046226	17.22644801558943	19.588058422224595	15.123744926415824	16.431087452411976	11.277893991606621	8.588088013900657
252	-3.8504705331862112	-6.169364436785913	-6.750267488602965	-0.322514711996245	0.04528126481663931	-3.3636045371009766	-3.808503379742974	-2.291455263074495	1.0209138367626502	3.175333968728658	0.2303337896015304	0.11649598896893361	0.23903268515318382	3.819343557251616	7.38551710171469	5.328254686254481	6.351767047104199	3.5174212366943163	6.1560921513579965	16.110269505834268	11.622812241773383	13.062074628276315	6.479243262144902	9.97992989881433	27.496654441075666	17.029611544528777	16.417602497612037	6.485414011793628	16.194990117192635	18.484481764854607	14.288370096371622	15.473504981074758	10.511923763437972	7.827125529554814
256	-3.8576855562087666	-5.941297992964753	-6.401015265516236	-0.08718277491969331	0.7705496530151814	-2.7979917455602616	-2.9070601389921658	-1.4533953629992307	1.5310904941049492	3.69036149046911	0.7575941066688017	0.7472645025460167	0.5957934841372455	3.71520303741872	7.429749470072252	5.501279340206064	6.425313933362602	4.012256612184479	6.249649508909872	15.533801039577309	11.19020745313172	12.631162611541997	6.464611990819537	9.278278327404678	26.272516184278626	15.83710571105275	15.639977415652012	5.863273128964969	15.302160224427283	17.509002641340892	13.508674587475907	14.638293229338249	9.846706365520316	7.156688195279488
260	-4.245119560967894	-5.575633511771267	-5.952232822649059	0.18340592040009612	1.504902716651841	-2.186757320605067	-1.8841239166373924	-1.1422766418227548	2.36841678021417	4.451202858177076	1.4260805809255546	1.4639750682108617	0.746072826886031	3.6434597877066657	7.783606509584122	5.877462849082952	6.567618830311667	4.1094045535285595	6.648446066283135	15.24312110867058	10.919750186053328	12.219877212189768	6.2369417986758435	8.797853447636188	25.379953320321192	14.813214264663218	14.90211769156278	5.34667824348946	14.605466805776109	16.645782428676565	12.758903471204833	13.978127444261844	9.32372472316396	6.639975054189044
264	-4.825023162103876	-5.195987688297408	-5.514420972252963	0.5176153765961314	2.022016758582032	-1.6999485449786724	-1.017991301827402	-1.3520187105375918	3.330009452041753	5.278458581949052	2.0803592152523587	2.058546299505429	0.7526191454005395	3.6000709442798353	8.358970620985472	6.35969303432784	6.673873884517276	3.877565135702643	7.081561547519946	15.22715755432856	10.772929164390323	11.779870957197161	5.781159863181074	8.52299878829595	24.808591780015693	13.945363963204427	14.198623621378484	4.910243021965621	14.07672687791183	15.843815763526042	12.026556938324827	13.470646824205218	8.923652626395723	6.273443683044134
268	-5.350933538278522	-4.951921927347453	-5.223191724941371	0.9187107659032872	2.2188737336404363	-1.4582536183733172	-0.5436027632340108	-1.858022446709701	4.172975529625383	6.006336673830819	2.574333184418402	2.378968232824249	0.7384579759073319	3.6153333095824878	9.024066902265249	6.809910757037585	6.66191719280552	3.4803924472675414	7.304136734641103	15.39357372212129	10.674495670070973	11.290452928647667	5.1688861716422	8.37964437276433	24.44353097466297	13.208095517189873	13.551648105738991	4.502130020218908	13.640201534165318	15.074551544276842	11.335486383428988	13.050867047738205	8.586540200489038	5.997714981195116
272	-5.614785180221003	-4.946089255243038	-5.176155077263496	1.3582820858040658	2.152935737896269	-1.4819881878629537	-0.5523160682085023	-2.3160047472654433	4.7158474803116475	6.543498976399175	2.838935129627422	2.400239223142249	0.8253219702864101	3.7619054222495385	9.659174894741346	7.126330834516289	6.52425001404543	3.100614063064036	7.24770544129603	15.62548919547375	10.576841327666159	10.788118335189377	4.534492004390131	8.283111551352778	24.14544099433647	12.619653669920664	13.013308492230003	4.083397378148665	13.221439328191341	14.367372476543254	10.74643704562176	12.651372877604253	8.245853403253488	5.733887181110485
276	-5.51890562571454	-5.17692993764362	-5.377057538761881	1.7889839365614357	2.00494121998989	-1.6773657756417675	-0.9389715767041843	-2.41524600372875	4.909458624842357	6.900104505283989	2.921075336710687	2.243134969769978	1.0739591094558723	4.129382123058199	10.202310536375432	7.305231552753573	6.345996363830194	2.8790507243900314	7.053326588942551	15.842025716838668	10.505928013025862	10.369332287357551	4.022561539984389	8.16944215619299	23.825811325954007	12.26223942521758	12.653178183080652	3.6535506156230837	12.78489777198149	13.807067836234255	10.33698556197535	12.233924834834966	7.863676051313119	5.42989681780328
280	-5.09899185800641	-5.5292849401109425	-5.719406590326733	2.1634881441806617	1.9872928807629022	-1.8701226664057136	-1.432378884513779	-2.0159401842718125	4.840329158006394	7.168696862241356	2.9690098687551916	2.1238636916897615	1.4545937739840589	4.767202365283307	10.663154575128903	7.449505310323887	6.2723722299523565	2.8769826816401256	6.965700131949431	16.032726247363055	10.560912105599444	10.15961930570929	3.7253119851471035	8.000431040591868	23.48355668814624	12.254393546636313	12.53355976755014	3.248527041816568	12.346399276079316	13.497808422342208	10.170747731279338	11.80240246653969	7.451696853897456	5.091579424400857
284	-4.492805946450945	-5.821355328167481	-6.023226245931731	2.4550158915525353	2.2471518459805395	-1.8723452043944868	-1.7057851509896322	-1.2021727531598738	4.675385940191635	7.4719676782786495	3.1683676162834775	2.2547426166828104	1.861827607222555	5.626381859879224	11.102848978620832	7.717497329300593	6.439260943367673	3.06790446460536	7.157664280939866	16.25265117356561	10.868314715602136	10.2624101379693	3.642066946371071	7.751395205954511	23.192989290808566	12.69292065276791	12.684721914690464	2.916796200063776	11.961697548229793	13.51725002690738	10.273000691226253	11.398133249115546	7.070156556398838	4.783766257605989
288	-3.8707132241751423	-5.8858013004473975	-6.111119254895614	2.671347611358523	2.8104195523831326	-1.5536820849292585	-1.5214127263757822	-0.22778661491580748	4.583968627800371	7.903363207890164	3.6582868006849782	2.7430345942860512	2.170421833280588	6.543967707324505	11.592208833037173	8.238893488109927	6.902639371610597	3.355069867246426	7.604715328089979	16.58394046411102	11.515515298379732	10.712775203360557	3.684470405812963	7.402848701860141	23.056358279190636	13.597474063875245	13.092008557644098	2.691956274865451	11.70062539007546	13.886318171727526	10.624386760590554	11.083324404390343	6.8063864536102034	4.600781905956164
292	-3.3655409727955505	-5.642254338324257	-5.88452003900654	2.8504638599907706	3.5894775299999404	-0.8850602485245624	-0.8385975339697809	0.6140346511596725	4.6690101505653985	8.489853837512934	4.4700884706171875	3.5398759752545668	2.304033035183242	7.293078880970291	12.17195412423703	9.04502294164105	7.6064085768344825	3.6074759869094546	8.090549448567467	17.087179140818982	12.501025168328082	11.459952325497554	3.726668348440188	6.949538690187255	23.150493563376795	14.888624153694018	13.701519931532475	2.578251355337465	11.619926423299225	14.566644631801859	11.172392816946228	10.920143099870696	6.741593820717149	4.620156753319356
296	-3.031519405340534	-5.123602377353454	-5.36023138600285	3.0448555869474885	4.443483818279573	0.06297556294992304	0.1696610893495934	1.1308071584761632	4.935558783467867	9.192419028915396	5.519530759227366	4.466058719803387	2.2786407413172975	7.6828231617550795	12.834983793278374	10.053320859322394	8.406946161025479	3.709065189533826	8.341810205379383	17.766893341983728	13.729053462651926	12.386799781043232	3.676059713619232	6.419864638332416	23.490648210345135	16.409658390576432	14.440497361917714	2.5552875931121175	11.742664307510825	15.47908206846302	11.851417511581953	10.949406596195738	6.916863900841041	4.8623351928019085
300	-2.83602904557409	-4.4437794573169125	-4.64985226410864	3.298516265170582	5.254370199288922	1.1632606953815305	1.2046974866968956	1.3087239232399792	5.304645048099979	9.938686345756839	6.656212313059181	5.302882657967709	2.199827903915573	7.652722816219503	13.536357845462653	11.115411730359135	9.14244935588482	3.611050358238321	8.19867894963724	18.566410017821585	15.051340065148434	13.354742970127731	3.525571814218904	5.887248024381733	24.023336349869368	17.979577972794406	15.23936935391931	2.594875329141929	12.048082321266087	16.52763743996118	12.598140684745486	11.173063249988969	7.31210945190613	5.275893198044396
304	-2.6805674962076815	-3.728509416703362	-3.8953614136575894	3.627545109173238	5.977344021010952	2.292658800058761	1.9933683821895187	1.292436834886935	5.661788449297887	10.666059467089344	7.742491702559021	5.901428684593733	2.212109321731245	7.307926159527776	14.221050226546472	12.100195854154531	9.709871267599189	3.3651020441925326	7.719513873637543	19.390855740227366	16.331710774196083	14.24943538882832	3.356668940652423	5.457073674729293	24.64553063845961	19.448003719819408	16.041007955105815	2.6748835972962506	12.471724478704793	17.61252017342817	13.35211941208992	11.54399296707004	7.844084243043492	5.751987919590175
308	-2.4463143286930347	-3.053675167003346	-3.2005584159153386	4.0150833028511705	6.638616545128753	3.374747506204313	2.4201505123070657	1.2854373422593435	5.920323356939828	11.345283479656693	8.714080788545935	6.249890788511314	2.4248146949582536	6.876955491823147	14.84705921239271	12.958861318295204	10.10533902477944	3.108397237559156	7.155053120668137	20.14081568401261	17.493728593527894	15.002622566492136	3.286012879658327	5.226825700914862	25.235034878914615	20.722558922900294	16.790801959560426	2.7783312727400267	12.914048162280416	18.62712092465073	14.043176615545365	11.967036217039556	8.381737687883557	6.1585173451384945
312	-2.0389778562564946	-2.423707240661123	-2.5948805743506558	4.421134937568176	7.290250759792128	4.386953342805843	2.5724897319694433	1.4337264263194587	6.068870052274011	11.973390548993727	9.590445494280106	6.466011984712487	2.8543612884935037	6.599431974915184	15.39068313527556	13.733417476312782	10.408749554103734	3.0049743576475443	6.8023252315440415	20.739276833624686	18.525731993632295	15.584617575398717	3.3862712297775133	5.237560258993228	25.678832942979678	21.76021761168671	17.417406038178598	2.881642811175479	13.259355511567291	19.451938580038966	14.58088394298417	12.317311255828049	8.778061844597778	6.381881697754485
316	-1.415944334269933	-1.7966176226078363	-2.044003481472688	4.806386458659718	7.956390360771421	5.337510572308993	2.6810221604368802	1.7584959224172192	6.17911051143782	12.545801131044623	10.434010479332926	6.724495393941471	3.414047471009875	6.611014826295853	15.834549863891233	14.50527568969606	10.72597500954061	3.168813459025272	6.838166696449888	21.141565269498656	19.444391201517984	15.980723340695032	3.628841629403119	5.445172772964907	25.89130776544128	22.536487522446542	17.82438273698018	2.9452176019695577	13.403319324985555	19.962604472304346	14.861899338392838	12.474245993591005	8.911036468895839	6.361262782248682
320	-0.5973406418977741	-1.1358046503000936	-1.4941145143933119	5.156259046887703	8.603486993048792	6.23076246595829	2.989434949956675	2.1712875311391198	6.367423995154269	13.029005017764105	11.284790964245458	7.160951119463061	3.9582352538308796	6.89305685210354	16.15012927746215	15.315609893277603	11.122946711114036	3.6014487652449847	7.233101349688614	21.32894701341033	20.241922327434096	16.171640355288698	3.8834905526340937	5.73091171725081	25.822545940053363	23.016378344599193	17.906106903643966	2.917472355152401	13.283031430086616	20.0584697216961	14.798634491750809	12.361330954813589	8.721875168714245	6.104329570617102
324	0.34346133383819627	-0.450021325405706	-0.9176941490845648	5.487604127380483	9.155758834610982	7.04726122030552	3.6263441947933357	2.5537538463966296	6.724162084768728	13.359897579794891	12.114170043877552	7.804896334969824	4.356938827958527	7.306225758225916	16.29408832250884	16.110135991430308	11.588400811501378	4.181701649598468	7.783397654909357	21.29699701654275	20.853647179405264	16.13333888748989	3.9805712599390373	5.949374183892848	25.460210735890044	23.14868730422608	17.58531756729568	2.753709547719793	12.899322477197966	19.702760646666444	14.358102762211189	11.975861519141297	8.238447168530975	5.681195721587756
328	1.303382512616563	0.20782211370450188	-0.32897430575282427	5.837771877808651	9.549404120177181	7.7546844286634915	4.549553859668266	2.8473644184702755	7.249882202917731	13.480468715965088	12.830490079910813	8.576668717664841	4.563836563031864	7.683126907024088	16.22910304740436	16.748374896679262	12.044403999436994	4.722510802743554	8.23259065456871	21.05169290949607	21.171655601453935	15.856470067998488	3.8022107982006337	5.991235717905811	24.82879060198618	22.889701785470777	16.85449023759787	2.438500636619867	12.320370643027355	18.952678632569008	13.589193309806795	11.39369770988114	7.573283176374903	5.198702799069362
332	2.1791374628362195	0.7807052115756618	0.2367378616316416	6.241284831501792	9.78967473419458	8.339706399842703	5.585052476133473	3.0932843607052223	7.836853484394755	13.389161076119935	13.333511318875182	9.341590857762407	4.638068187447718	7.92370841886785	15.959007222890973	17.075502352518384	12.392521826927222	5.069275843219375	8.404558160543226	20.616365380687938	21.099592155590955	15.368149718584405	3.349989882594335	5.828213676996601	23.987365662093975	22.24019235717899	15.794206579386158	1.9956637570540237	11.661567658545653	17.95635028120266	12.617655722232836	10.74361035495507	6.891829473261424	4.763986098659347
336	2.895342819533224	1.2578043905926597	0.7613112907261892	6.706085664984045	9.973394368740498	8.83731553707513	6.5306672885043255	3.399172774315863	8.312901475899148	13.17624851714821	13.585660900147746	9.985360120358237	4.706750381030416	8.033223131878707	15.555971106354832	17.017147021244817	12.566122023327303	5.181442724497461	8.270479181389556	20.042179057064377	20.61769480268165	14.737208329186169	2.7477629115348554	5.516779885668638	23.0218085661431	21.270635551155205	14.552473031495841	1.4769844971559825	11.045320482977504	16.90951533816695	11.604358643797514	10.158578847032718	6.356955512209508	4.4474105722674615
340	3.4234919461599804	1.696761127002711	1.2674924103207024	7.206837159081097	10.259218190040347	9.334005332268863	7.259957772045125	3.8564600847152786	8.535449960139514	13.01569744638657	13.656384433599557	10.466811153688589	4.890317904523251	8.085663775056853	15.15858837115207	16.64207454294374	12.560474364039804	5.148327337618178	7.928715209016342	19.41260905132967	19.820131251838863	14.05625530508754	2.175536865463718	5.163990961388445	22.032052938148826	20.11819071458731	13.292779888924308	0.9351372695201089	10.558673831984489	15.989789922398217	10.685915919981104	9.726839994668165	6.070033058099932	4.259373177264916
344	3.784812440853203	2.1982424203685507	1.809806938370435	7.697936992283328	10.795502635402668	9.936592076963297	7.770470122745951	4.467872608348612	8.485226609741414	13.106045689871841	13.708893741328312	10.82240483412625	5.233032213350364	8.15287778703315	14.931857071370509	16.152547795522448	12.428244559380976	5.128841864034562	7.526265602183309	18.832296323912985	18.89983935352761	13.409656490802075	1.772723193461316	4.875211226552359	21.114685005284294	18.95380015356227	12.136855094784632	0.3973234583836803	10.22609231274361	15.298180541514967	9.926767324180485	9.463454222628071	6.032074436217009	4.149916161550057
348	4.0365700619827125	2.8447015213670133	2.436796182202173	8.138568857625916	11.64233586232956	10.720537158602191	8.15886209335349	5.133441435250976	8.299987772013296	13.583793605840937	13.932097399822394	11.128673525369598	5.675812230085235	8.243427255798675	15.003587684897903	15.803021391070445	12.250202148026291	5.241494642375629	7.181458455074127	18.40127368095824	18.085134460565012	12.84810539816468	1.5649298389978454	4.71137236359321	20.346160837302758	17.935834839359924	11.134988756676895	-0.1412991132745025	10.011014913079109	14.837512932509584	9.309767699578591	9.316499686561107	6.145072921496901	4.034215916938607
352	4.251804341071867	3.639199486127456	3.147385112445462	8.514795281846935	12.73105618123608	11.686473816930036	8.547206857082486	5.704035744570862	8.214492777111962	14.45421596692458	14.452513658274095	11.45158192604359	6.085507854356028	8.300599077248568	15.40948959274761	15.788651426507116	12.10275933071056	5.474643216616087	6.956517678817097	18.18641085801439	17.559303239358428	12.387580840306397	1.4585434161554836	4.67840908776701	19.773069331791667	17.17377467587867	10.281659100323045	-0.6965138298569197	9.846676801616582	14.538782083044081	8.772634484076812	9.20556161463661	6.2589554628658695	3.8368527792380487
356	4.497869480221119	4.484735477568733	3.873723735565857	8.841276146501166	13.883212054486833	12.749730077978484	9.010458923478806	6.071793064046417	8.430036523516009	15.575331648603314	15.271054229327595	11.814268082354458	6.326725943804385	8.264142969247349	16.074155766911776	16.160274464814464	12.038693397644773	5.678441033331771	6.879406434810123	18.20174975568074	17.400810197766397	12.03097245039864	1.3074307408701973	4.7481684564873685	19.409746121039046	16.715127902744648	9.562897658045946	-1.2595280377059226	9.678584074379842	14.31730552873265	8.267539003479499	9.070431686388913	6.244325622051976	3.5344552904537996
360	4.816625582931962	5.22032354944202	4.504409301829364	9.139306999020194	14.87863346158057	13.767161334564989	9.543859457715595	6.236511214723073	8.984295822348573	16.704400974060793	16.25396724411893	12.19550892611848	6.336854918693362	8.144524553716836	16.837448077606716	16.804986911306838	12.082050292982084	5.64813183312143	6.975251657041282	18.404861403727505	17.567171052448913	11.792083710462226	1.009310481384231	4.890380370190818	19.240114163459513	16.55225368135411	8.999387718367597	-1.7737048819582881	9.494101500382726	14.123019182787628	7.804870108926189	8.902159668381142	6.053728565190658	3.1733271995534267
364	5.215100752061407	5.693892464567175	4.933485495509235	9.408726668444956	15.538195570816214	14.585564576517275	10.076984380075638	6.303852065383132	9.703160261451583	17.58655352920662	17.179779009359603	12.54979511907165	6.163597568209164	8.04875848645374	17.514102891572158	17.49794192664714	12.229095428108877	5.260884748527846	7.266342621577344	18.709600401371198	17.923475220250506	11.700125664734925	0.5759740457297958	5.089771734738673	19.219922970883538	16.636512714344498	8.652079560369954	-2.1407599395108723	9.323451972310156	13.95587822251626	7.453670482890275	8.74032018362129	5.741514668273845	2.852715961883278
368	5.660574898733325	5.832646355208065	5.108180986858942	9.615704512160669	15.781181295605567	15.087052307184733	10.516483280333198	6.41311357786362	10.276201222224032	18.04222865317822	17.81740565569897	12.829847303423179	5.940978035232406	8.131278971169714	17.95584483381624	17.99533267246166	12.44668003754488	4.584828842031597	7.742372970106929	19.00785632102833	18.296653701363983	11.775288552118399	0.13406610455043164	5.34058903299458	19.27857966324033	16.887716250697576	8.581139542848865	-2.26058720971615	9.211691833126991	13.840431178435177	7.295506458936574	8.638680436258277	5.431701169605365	2.6762335232877157
372	6.0811347807891885	5.671297059045609	5.0471505991346115	9.703566526709345	15.632017096153067	15.211096725206513	10.78545281548175	6.637463076045972	10.426289532086795	18.013484909354307	17.999147369717654	12.994970288846128	5.817441925619988	8.49450395346799	18.08756442271708	18.121458007836583	12.667374578918832	3.8825445077146075	8.326726892429184	19.191919278327287	18.528171492527505	11.988618820439655	-0.1476971205320231	5.625815854173866	19.323831509439554	17.19602580497288	8.781523682357593	-2.087719196770642	9.178476310444738	13.779583896179133	7.3580860905839955	8.619544961147897	5.246126638518719	2.693910353534834
376	6.37265966713812	5.325686918164041	4.821789252505107	9.626879667772101	15.183755836298491	14.952350578704023	10.839689227393158	6.922643644021028	10.080876324951065	17.55735774375787	17.664092972980576	13.007764783442731	5.879324421343877	9.100564933688322	17.90995974787252	17.817607834653536	12.795324293256435	3.4987745196698614	8.878134705062893	19.176258038742805	18.511257124894428	12.240805595010464	-0.15883232613039713	5.901207432152885	19.257745694176716	17.43132205376846	9.144117332260002	-1.6682873922189485	9.194014526042716	13.725908244764359	7.576220016424862	8.648141839127454	5.235949503076885	2.8707148956299493
380	6.418304427154714	4.928852068854673	4.514393318222614	9.389046645301283	14.545412980549312	14.346128427524624	10.662386867306136	7.107121449646575	9.43625924589009	16.799924808048136	16.86377330337033	12.832538572337283	6.1099095190283075	9.7571725598992	17.476798967105793	17.14249225103089	12.73335072163556	3.683112850426986	9.243147826699916	18.916507673187674	18.209793044845004	12.385475127421088	0.08369520285456211	6.100626453255846	19.004184674919436	17.471782640214162	9.479249930290827	-1.134237763402194	9.187770820308968	13.594890560158623	7.809537867856054	8.644249894252027	5.3553724153730276	3.0992689054441414
384	6.125998481542618	4.566558826361172	4.178737629830561	9.05578897097178	13.804206813292259	13.458682979936107	10.256439183089356	7.016073686051986	8.86443898823956	15.882820089294265	15.739832838373536	12.44944664672979	6.404736025852301	10.204043362603967	16.86739345106627	16.238237339983836	12.429372756094436	4.442475784529677	9.338348365094811	18.42473025438535	17.66395755122799	12.297917334978575	0.43837115057893394	6.165946944881699	18.540918303408407	17.25065226967871	9.603091215683724	-0.6527978165357429	9.088273979129509	13.317937817327588	7.914237002418375	8.527448632645067	5.49271963640077	3.253964654336409
388	5.471512780680387	4.250366677043514	3.827971210351781	8.732105233080507	13.019565549404147	12.388287512973069	9.648817991691322	6.572451574897854	8.70480821319093	14.929828606104634	14.487796746869096	11.88228031973157	6.6297368835911135	10.25282952581087	16.170690495671955	15.284506759200857	11.920724838677478	5.511697278412183	9.202274299276256	17.7759456185722	16.9851398039184	11.954751938200943	0.714199720010021	6.081997856043357	17.92057795768458	16.800622897645983	9.44215009212766	-0.355404495295622	8.869989372747032	12.900808301779175	7.827665786053694	8.269155481441725	5.540029988606763	3.256858579042237
392	4.52614020158529	3.937102069451252	3.451574316847136	8.509722688170777	12.240328757853465	11.266715974972245	8.902182556564677	5.856454834457037	9.057335830709086	14.039634669143174	13.31563660120791	11.218894930171107	6.687079889580369	9.898171399875242	15.480869254127454	14.456087075928647	11.345652551616212	6.463180048837068	8.976098991619756	17.09680743669311	16.33590121913179	11.473991365073925	0.7733357529188833	5.892701134109176	17.263093904779137	16.26491733259226	9.09225270836751	-0.2835898094169849	8.577763535777311	12.445813147593455	7.613862018435538	7.919390658411222	5.459601388498546	3.1192357461377482
396	3.453321448190381	3.573887100733272	3.042603961892138	8.416514375417824	11.520383805752694	10.244943592908418	8.118981340890702	5.075548159182543	9.705720876984667	13.290758099378632	12.400680510683479	10.602683040552575	6.5556144548842115	9.32985971002591	14.892960510799767	13.888915026884543	10.90439793694658	6.9022660081166665	8.816225983295368	16.532543140632388	15.890274007732478	11.082854242953541	0.6025633200690974	5.683454022363304	16.715198474643884	15.855614622138832	8.789656616907372	-0.3779824664586346	8.310683229444788	12.115730255055253	7.439072113328744	7.5889253424731065	5.306998716306927	2.9357578680304286
400	2.4714977678842134	3.1372084538407847	2.6127951079205385	8.399929979097392	10.914504023652022	9.455962157217298	7.421169262269208	4.460517395201899	10.22656914990061	12.740261045714792	11.84837815154324	10.186224911721219	6.290398104998398	8.830072380660312	14.48708244480791	13.653080905775866	10.778431865182094	6.649178011319129	8.790446259239362	16.198846776118444	15.777715643148495	11.017447443802272	0.31437432686588807	5.536015496581986	16.390741306883957	15.766811331042238	8.797774292668127	-0.5147905336734234	8.171281793944692	12.052779167262528	7.484080772577901	7.393728714395373	5.196468340151663	2.831826679709456
404	1.7808874800541674	2.643312685968489	2.1860964243054664	8.354713418847783	10.452347729042488	8.965888000739774	6.906049234120299	4.147037972470409	10.231960270797643	12.407050101426675	11.662324875950969	10.063653920514568	5.988168224474834	8.616658188999423	14.299696886198982	13.73398681987824	11.04454896045748	5.817265019034742	8.832853294959932	16.135774571687843	16.0281104636833	11.401915521444865	0.08189499357527848	5.484157071572535	16.31918903045328	16.079732854300037	9.265667891950676	-0.5662298784265166	8.209249475733598	12.298115699235888	7.84208057330978	7.3933310322064365	5.231549249792097	2.895643465360712
408	1.4857841692605354	2.130051845894719	1.7791956618211342	8.179556825967257	10.11032388041871	8.740616776332942	6.602168066522046	4.1119885340823386	9.603727316451161	12.250410049026742	11.740455597799606	10.218275044391765	5.738592610175753	8.721049286758323	14.296595537329859	14.02958294187363	11.628897637571008	4.749915587830614	8.784695603125952	16.284753758323426	16.54422565097887	12.171743362213638	0.04677563148848171	5.496064172219963	16.427982288845598	16.708085971610082	10.134689305467056	-0.4527214456095364	8.39124295977118	12.75785538313375	8.45923993835927	7.557045440667609	5.4412484031628034	3.1331090848020624
412	1.552445407762581	1.6270401436734907	1.3850644791919522	7.833610514890004	9.806529020345875	8.651962258429332	6.451125128670971	4.199424256212659	8.578157403268992	12.165453880112818	11.906341522673753	10.517230007321059	5.588692650990005	8.97504136680553	14.368514978371424	14.37292381472504	12.328380553590629	3.851479759029	8.498772599697446	16.50317378645849	17.122064547225044	13.086070981365143	0.2509404414517024	5.496209607552848	16.570264774448283	17.41794581784032	11.147825212943314	-0.16400557715016523	8.616178490819483	13.239850964497395	9.15329930855518	7.7791476053290225	5.761899933572718	3.4700796516545407
416	1.8162958576121697	1.1413878173621081	0.979100642116479	7.356992226145839	9.432901358630502	8.529355981273063	6.333428366883165	4.221174229454864	7.622584800548524	12.011306732369679	11.97085568266712	10.763525935654298	5.535348401399345	9.112488723636243	14.36111732671774	14.580973588369686	12.892910924784955	3.405092707620008	7.945112208334074	16.613141971605653	17.51839251863652	13.827160800355887	0.6267127378853233	5.41282557074555	16.584680515378682	17.91740794426485	11.959641426408812	0.25404596264594914	8.76578614882799	13.542200054310209	9.699451422044442	7.932713965414938	6.072256072925863	3.7970831298328425
420	2.0445735402938805	0.6689948422707588	0.5455835447841856	6.841699582946096	8.911154724510775	8.234909990500356	6.128528579497656	4.067457665664494	7.165421944647086	11.666159600367555	11.801279991872113	10.782067271667056	5.536492333738986	8.925035454151022	14.131838762843486	14.515375100681302	13.128175702328175	3.466098538230754	7.246391754928497	16.46423144952068	17.540002778591727	14.136728251051355	1.0436867449159086	5.220937238863078	16.358104664510304	17.974649383939663	12.289355246987498	0.7304756622945202	8.761501290135195	13.54383942045597	9.934696172427069	7.931419352533685	6.259042247228443	4.028379430136937
424	2.0313081690047405	0.21843147222683384	0.10366430852466499	6.372042163019806	8.238744714916942	7.721983413273642	5.773155674663685	3.759479513213305	7.3381814771393765	11.082754107150572	11.365554780875046	10.493112537594351	5.527156815879255	8.374181726293747	13.607909168219015	14.129266703218633	12.965471234965527	3.8726882836794334	6.614130003442528	15.982903440176832	17.11395640820743	13.91809555354427	1.3772256339587525	4.953806864629071	15.860933263788	17.50662608495041	12.036362617621359	1.1948708265654555	8.594789483305126	13.247385945252296	9.822099660870528	7.764129142232175	6.2723493417688205	4.137997139973704
428	1.680117126037653	-0.17267234579836582	-0.28667819427590197	5.9731979219308435	7.497115116264475	7.047506791441375	5.285896287923926	3.4202244195416434	7.883164862756834	10.313632939048471	10.732185336673368	9.936228727049665	5.437112317662992	7.596780757797512	12.81701084715676	13.479396786036155	12.467224089617035	4.357153881516334	6.220656379252849	15.189772567545507	16.307235676601625	13.255638089091324	1.5591039618229183	4.675484645483134	15.142546615516304	16.597410160121935	11.302587480618984	1.585795875360264	8.315733888611724	12.754694906457159	9.444070792196053	7.485133152183399	6.138426288365489	4.154193867685497
432	1.038062093021235	-0.4464589644127317	-0.548585830733942	5.601536736650936	6.81229828068268	6.333210929139574	4.744950282514781	3.18512057453891	8.283418634481887	9.48919389236289	10.028150533153033	9.235267615843346	5.211534963801368	6.804289800630878	11.875138252794036	12.698656050092296	11.773029297668536	4.684673774335666	6.092052921173	14.18281646962396	15.289795836946293	12.34986874323364	1.588297005458014	4.434068668614623	14.297307932042417	15.444681128608467	10.319521877937412	1.8473991108982046	7.992343882409162	12.196273772918307	8.937440849627514	7.171656590474851	5.927455410297065	4.121935834014499
436	0.2710456245254839	-0.5580643997407726	-0.6320567711131029	5.185224519989621	6.288586123801801	5.700485691937003	4.235780228410907	3.109888545767671	8.049428919496481	8.759358383951641	9.37951753155581	8.528285958692758	4.8317942497332655	6.147685035442943	10.939904185331057	11.943419426327699	11.021933527775321	4.746725070413132	6.094792350639961	13.101651158632937	14.262582742921104	11.41152665118134	1.5072594843003095	4.230257500458542	13.427411999180098	14.2693814871056	9.327736831002952	1.9299513052851172	7.670842151348317	11.66183182633063	8.415047624322895	6.879427415645031	5.704127297305006	4.061974992033317
440	-0.4052730490465929	-0.5101439939970444	-0.5496072755288789	4.688831794344699	5.955608829720613	5.218379961190092	3.804302205971232	3.1329331318911295	7.002645951710888	8.231657007415306	8.867944695017819	7.904680232117796	4.330239761863826	5.636683926656192	10.155677769769534	11.342833490344033	10.296758625736581	4.580439079164263	6.022027477319035	12.094229667646157	13.389892544318771	10.576925251005791	1.366745468503645	4.0250840085449155	12.626114813398003	13.240848507829837	8.47941587214622	1.804913635465309	7.365108471395123	11.176901789102812	7.923972586652828	6.626695139366615	5.497166142889789	3.957924832841673
444	-0.8080711940390705	-0.3612202098786408	-0.37628105187781674	4.1587800874615155	5.763734326115694	4.895198332825139	3.4469504269357145	3.1176891248190213	5.392287717556436	7.941004256226527	8.524715402061148	7.385208111236954	3.7934307956288067	5.163152204829284	9.618388151680259	10.972928019476196	9.618136381661364	4.318962563100794	5.726817593420814	11.29776379593878	12.767073599052859	9.885641073063617	1.2038075893526459	3.7830705547186847	11.984387367508443	12.451884238276369	7.810575465509685	1.4900956116248332	7.078378182659819	10.733051272950478	7.459573726893926	6.412664874098884	5.303129659615035	3.7793292903848688
448	-0.8463415482133823	-0.19841387817832862	-0.21118186360923497	3.717417707594403	5.630581841558073	4.711121070411471	3.1410949150889067	2.94589900226691	3.7805311584390853	7.862901190932995	8.356030443075415	6.949583512880014	3.34360264887633	4.613507736002159	9.37003419417741	10.858619662526028	8.980866409515434	4.1097769633481755	5.219898210697977	10.82959363110517	12.428009955499732	9.31826303036769	1.0414558622768877	3.520455113105724	11.603378266602723	11.942542999633133	7.281968098375052	1.0658638450414963	6.837671262643767	10.343425724617783	7.015760880876995	6.252297862479846	5.117502199603963	3.5228550345169007
452	-0.5427533970481059	-0.08663216956439018	-0.12062531679216056	3.5017533213896357	5.508943066993355	4.661715972574781	2.8892016337882307	2.5993966990645956	2.7619044710999816	7.954851130428627	8.372601487955452	6.583968622750857	3.095227948957151	3.9905424017290483	9.414063429906092	10.989962550072836	8.398303964392024	4.043127526565766	4.666731822629256	10.775406810258092	12.372906653636901	8.8550061955998	0.8973680711978034	3.3203489696595274	11.588282555886442	11.741101235310182	6.8467387980212635	0.6600029451872904	6.709448320615203	10.076927159616798	6.627054197745836	6.195667728040304	4.962641226636795	3.2380468763614605
456	-0.014437668920364586	-0.025945782595931183	-0.09869176124451012	3.5818481354879528	5.431927667254939	4.7762951730301255	2.738982908963029	2.1782884542781824	2.672633164333793	8.194480875307018	8.5966748974239	6.310469611447967	3.101535550869937	3.4549627216847725	9.732377981409552	11.334762544624663	7.919887999565972	4.12130497845579	4.289081562657438	11.167799921450012	12.589673010511495	8.510131814451483	0.7862995843108659	3.2987513458889826	12.014383285706637	11.884966820274105	6.495437605670909	0.4007911373986679	6.778413755469158	10.041068051736142	6.368638976230303	6.312518103874435	4.888063418444959	3.0156955642855148
460	0.5754270539060731	0.050452295563395116	-0.07363904994015502	3.9102058311921324	5.501912103113402	5.09300898219754	2.759920828526865	1.8438488198457668	3.445205679778254	8.586391427296055	9.036823249889293	6.1765169941409015	3.3202192699528235	3.2539386667113526	10.287896130336595	11.837388008748722	7.608704547745434	4.271293629352739	4.237064827711864	11.960365265213136	13.052401509709428	8.320271470997728	0.7099228483396056	3.535075894013634	12.877393690021886	12.40366455761198	6.252731784292716	0.35819071440861316	7.097078782283014	10.320240948370166	6.31242369011735	6.646834833529635	4.94046686832486	2.9421789571865804
464	1.074717757372658	0.22977469803494882	0.0388349926981337	4.333985317732055	5.824269280033903	5.604135499156582	2.9842190667148385	1.7204695896580018	4.672032821303616	9.132597900221215	9.645910238707941	6.2091431460971025	3.6210703758369243	3.57031368307872	11.011109324311438	12.407815901900815	7.493350486909966	4.375602711120634	4.502777565078112	13.012639966535891	13.699993098955764	8.29822633555534	0.6403280480430561	4.006938924209623	14.056479418551328	13.274249043329004	6.13508747459218	0.5028076755226775	7.634830455577422	10.90635583031322	6.466633303528057	7.167899590514854	5.12219189304305	3.043936244908794
468	1.3854602540322616	0.5519532547366705	0.26827427677132676	4.666410911222595	6.424065573685579	6.21290634494014	3.3520734225518427	1.816891069593394	5.830005631032604	9.790175413209429	10.297696087587243	6.368689044131788	3.8381113909139484	4.381751526260139	11.787958115379869	12.92042919711538	7.530573825896797	4.31485556466756	4.930192458102998	14.107395136501392	14.419855081391217	8.39348027971182	0.518976627470075	4.5744037512681235	15.32360645240048	14.386148416437257	6.110328658889309	0.7124878150117491	8.265369394415151	11.672080010508859	6.74657533849632	7.756227473703541	5.373103128218887	3.261785975804089
472	1.4800815544906925	0.9627637242805285	0.5520800934204323	4.780923831313117	7.196740132281638	6.740660650400901	3.705023756209679	2.0163710066431615	6.531355364521875	10.449882480940802	10.809555026419435	6.540296061215611	3.845758905237902	5.432697759263493	12.468597380629193	13.238350834801475	7.610122184613193	4.017479409565092	5.311549173296171	15.005886039994639	15.06115623486242	8.495909669406824	0.28506210374386465	5.032623278309472	16.40757365852603	15.54903980144069	6.096239551411453	0.8312271812433331	8.809090592078032	12.411373107092029	7.004470330673566	8.24194524591472	5.594333157720149	3.4768822105362913
476	1.3932132685772012	1.3206104006803667	0.7553932051660271	4.671152103074639	7.925307730692426	6.990888101093601	3.842542161776785	2.140913957912583	6.667937261912635	10.955407114979415	11.008130045754507	6.5757245851434964	3.6184558777050975	6.344693644717273	12.901825872272212	13.258333172702685	7.602692584869988	3.4978654296300427	5.505034432817433	15.521579703243418	15.479414900798606	8.483871438541222	-0.08117734620341406	5.206260191170642	17.087182955516237	16.54752727145393	6.000671848405668	0.7461052518127069	9.109991050607881	12.927080121781206	7.101260644149898	8.477601983600996	5.700000271711177	3.5719542413173757
480	1.1944618194940395	1.463277455450172	0.7451488356850557	4.443154800641243	8.363477685793429	6.842984182247052	3.6206123737476266	2.056200975948728	6.391826613500861	11.159367533165637	10.808085414301562	6.368966086520004	3.2413389600933833	6.803170186986244	12.983833280207254	12.956276860904268	7.426967125261162	2.873379461663261	5.498433576053093	15.579487761263719	15.593220671385296	8.289743402532324	-0.5268064127972916	5.033475863146188	17.268106416973513	17.21772761766223	5.777890190795531	0.44100174196480946	9.10560700978643	13.116851773523758	6.979221326373301	8.406187989945849	5.664160237316802	3.493701210737968
484	0.9575443839693042	1.299547192153529	0.47669350980568087	4.242904175536476	8.341233232419414	6.3226699669469495	3.039587966874118	1.7548774436513306	5.970114692873687	10.984106036110571	10.259850476110527	5.923647865598426	2.8672351764767474	6.711506826621969	12.694869009391407	12.40683933940328	7.097587090692376	2.341671222496662	5.384643541092582	15.230763396909788	15.421767195866027	7.941940287565716	-0.9325920319853362	4.591656196445513	17.00314136026944	17.5054606949387	5.462114797153089	-0.002235491754431018	8.84974191338653	13.009139981803516	6.690588934218726	8.084801653476998	5.531404481273804	3.2783749020775135
488	0.737459240481997	0.8723177887827167	0.03958963592785873	4.162771214465599	7.838563899276911	5.604206071055818	2.2694120349807347	1.3673025335123095	5.616549000864743	10.453108761145058	9.536401724580127	5.370650277883283	2.642906182292147	6.225391849059008	12.10326287074835	11.76198479543812	6.724750978657622	2.1106922573205504	5.278742776894624	14.615101777370434	15.079174003676792	7.554364185333802	-1.1637504071417688	4.048429002077284	16.4456615032785	17.474933580147614	5.152394281730224	-0.4559214401655136	8.473738648954988	12.730411497399816	6.362437709003528	7.648437957526709	5.381138787988638	3.024329416268721
492	0.5648178443953527	0.3545298865427185	-0.36853018310008356	4.184774388238171	6.991833192338773	4.938052641798973	1.5907024104964969	1.0954965325353456	5.395941243853365	9.676881765729355	8.86240670827643	4.920382010434896	2.6419091157968615	5.64947126869544	11.334034891123082	11.195267649041796	6.463424189461452	2.29956650153363	5.2362718449950165	13.891067469811238	14.724752388971035	7.267235260735247	-1.1449971170127247	3.5662047772968575	15.761841734191991	17.264202074332	4.955194460755938	-0.8225819447730033	8.107134798562214	12.424715964419182	6.117677673152982	7.232540112354826	5.2668962345661345	2.826683990971219
496	0.45763814333767777	-0.026357497953387415	-0.5332687483675236	4.197208393944083	6.032401069669554	4.53997277067268	1.2755697933416907	1.1051889630070904	5.242944227332907	8.803879715626344	8.42148874063964	4.77043722855639	2.838723413929714	5.256936060030735	10.51959130492252	10.838294001871779	6.4391231374293	2.85831069224635	5.229420648723251	13.171985592964637	14.494479142787283	7.175299626354325	-0.9141337848471854	3.215648881422893	15.050668678431379	17.01452632422995	4.9215984220224005	-1.0871537896364871	7.804932574593756	12.175271957175433	6.002403720959889	6.899739724858884	5.1734003890075115	2.71661686211398
500	0.4352005113104345	-0.09646124368393756	-0.3317642203537821	4.074628342831449	5.193170534373857	4.500368583760952	1.4673321210054255	1.4352148735050319	5.057465540514818	7.967776278406248	8.289627054266017	5.015901076050667	3.1346030156149407	5.1461381782303945	9.76066205421412	10.741126033367104	6.690276605880892	3.5572533517670895	5.18766068102473	12.501282660392862	14.450346910232689	7.286333065710223	-0.6155790075019038	2.9508755132559323	14.316406213854549	16.814016299711774	5.01966189070792	-1.313210960887342	7.525652389599408	11.974460571574033	5.964631542405352	6.614733679283289	5.0230665080088945	2.643831007958147
504	0.5217095004261267	0.18119756831674344	0.20105333575509207	3.7699589634126767	4.629325855011294	4.758619296457321	2.1155025905603586	1.975204105158658	4.797525870608359	7.2581734474036335	8.423390367221753	5.60489700809631	3.4146654519653463	5.21691511744379	9.114703155393348	10.870923968525235	7.15349386316475	4.067629803878171	5.064303862183344	11.873408287588443	14.56951137678974	7.530007820191439	-0.43203309069274487	2.6567633084931233	13.503331150294573	16.680473285522574	5.1580290664144846	-1.5872700174311272	7.17050312139207	11.753790825732246	5.8952226489953885	6.279386504531815	4.729583251456167	2.511751407003774
508	0.7327330690003991	0.6937455517419606	0.8867356754803238	3.362829199883696	4.386785019289423	5.1520748008350346	2.9978985710748325	2.520561927153649	4.511291969353491	6.72473381251997	8.702301957093741	6.360485537682773	3.6024992375018536	5.2622003422440065	8.61151025505246	11.14329716730045	7.695979575753846	4.112462510216395	4.872704970455171	11.280053110253514	14.773899041068631	7.80754421170264	-0.48740881558383364	2.235099548418806	12.566384283763652	16.584171253295008	5.245131956209219	-1.9466141413178768	6.658823950168066	11.448192567531638	5.704437718294212	5.805840954427354	4.265501488406669	2.2452168407974367
512	1.0518466207650579	1.2432267634474579	1.493142005011612	3.0336856765447817	4.422828663149837	5.509302602209733	3.818344821826281	2.87589668501506	4.297259796737132	6.401046736768598	8.997471786670774	7.057387334171556	3.6885952856395847	5.121136652414611	8.277823427281657	11.465976686139083	8.176396349290666	3.616783609795501	4.666029918334153	10.747909518762574	14.980503044453256	8.049621561707909	-0.7738358358872862	1.6763002830144527	11.532218903989415	16.490175205558693	5.247487054927638	-2.3358042181169436	5.99358127988109	11.051979037037842	5.3862428529171575	5.183484541203731	3.699850311474816	1.8499959660552223
516	1.4166318142410366	1.6518653589504735	1.8516339016895147	2.9708993359898006	4.654738891293568	5.733213410207645	4.331040371450428	2.953607313328381	4.226475704966382	6.3209557373675365	9.225951171469896	7.513439159497186	3.7218367959468934	4.788923728296092	8.147047975951677	11.769057244150734	8.500056245324089	2.772026770268761	4.474609363702697	10.339896175981673	15.140459022442961	8.245638826532838	-1.148649808844628	1.068891045732706	10.510985347912996	16.388780552494378	5.210082517821148	-2.6226861410681734	5.276154981643589	10.631184551100734	5.02945517223837	4.499147880639034	3.178023568712712	1.4247237407953133
520	1.7316260294110235	1.850901956653521	1.938981885782947	3.2658255017796076	5.005687224147743	5.832875713880582	4.435355175264207	2.8154191899742695	4.28955649246581	6.5110382869364525	9.367093062593039	7.653937320458381	3.7736968898863936	4.406587589582443	8.24428937737853	12.01154801197112	8.643186547391918	1.9666980455335272	4.253061283817717	10.11910817452495	15.248087844497885	8.429656007464724	-1.4078181946496413	0.5449317679952123	9.651923155257702	16.29720493016699	5.227183328782611	-2.667916529595335	4.661551940592774	10.286950085417107	4.769847380993181	3.8992147347233	2.852208368729652	1.1168627710754562
524	1.9124517392511133	1.9065703105473957	1.8807398033341691	3.858900775703379	5.428640351894587	5.897032246006201	4.204055298681435	2.637347691553007	4.407053936321989	6.964980584679519	9.445126509661648	7.525491695477499	3.8969666859466274	4.151527871140714	8.558738686887356	12.173049896023816	8.64161489212245	1.6064835746259647	3.891489257524177	10.102833722356566	15.323967894965485	8.639332749489052	-1.3955125773482515	0.19972598502277894	9.072944618206298	16.23967166615209	5.385056005233387	-2.406198495511847	4.282574642813027	10.098853085769937	4.715606200710206	3.5185599238252303	2.8048329282517295	1.0497831079681437
528	1.9416600416752332	1.9713911960420027	1.8748397779813284	4.563255775374639	5.903098091480388	6.031080707581823	3.8374910257726924	2.6147477560784504	4.490469444381649	7.618980388478767	9.496597266062459	7.258045178208401	4.09498547473806	4.108117093204662	9.023882843122648	12.243338553988444	8.55463216529128	1.9063719462900839	3.2960166847935923	10.238416645903413	15.38708110739159	8.876568771839306	-1.0903784009106945	0.03630287936104942	8.806398369489614	16.22279163079432	5.710183129198896	-1.8933844518541854	4.187068451800495	10.08483884172573	4.890346514752672	3.4178151998059048	3.009986393004763	1.261354920063676
532	1.9003785800637607	2.1931316797198326	2.079772943967828	5.155352579452248	6.417736990937885	6.2967562516498266	3.568296185067456	2.8547906803533816	4.50927876287664	8.351911523713255	9.545029616098871	6.996468049504806	4.311301697336445	4.203605641242385	9.524710631164819	12.219815223359358	8.424998262115155	2.7666797568087502	2.4850237306796537	10.420083019651292	15.43571372903394	9.094332672046342	-0.6224200113794377	-0.02924552738733329	8.792530991289762	16.224994618459654	6.150464996068249	-1.2927070823456643	4.321732033308646	10.199451420782063	5.22432325951493	3.561921110696955	3.3528997813449224	1.6852042632470994
