time	FP1	FPZ	FP2	F7	F3	FZ	F4	F8	FT7	FC3	FCZ	FC4	FT8	T7	C3	CZ	C4	T8	TP7	CP3	CPZ	CP4	TP8	P7	P3	PZ	P4	P8	PO3	POZ	PO4	O1	OZ	O2
-200	0.2914968423636353	0.42003980172918953	2.0435547777079517	0.6988387686251586	0.6113347395720983	0.5718047604429284	0.534445046029196	0.7090623956898006	0.325187890900705	0.8723102189928493	0.8434149005576548	0.8187593797039189	0.6401681287815275	0.06700507534514501	-0.07131955009573805	0.5910477027275661	0.937166926878876	0.5690562710699849	0.7938874939901946	0.7137551289657638	0.9633535122390918	1.1013730736582041	0.4256343532783276	0.4487141955490819	0.5274268971478367	0.9894258354955617	0.6271787269970008	-0.14031583035328662	-0.010005663123796948	0.44474172479876595	0.21868729536156395	-0.19735914418936865	-0.1227227744341886	-0.2982930235484114
-196	0.7200847249924162	0.8472229816980953	2.01118778674658	1.2038308351640494	0.6836421472455271	0.7455180268538624	0.6949383002855496	1.1505559653797324	0.7312631588593044	0.8003153780758334	0.9840880011508232	1.020977613732399	0.9281372404507156	0.9122797823761278	0.26201814346917457	0.8110545853164808	1.1844587296145097	0.823961434668202	1.244277116495038	1.0366737816386318	1.240722533908187	1.432460542876915	0.6766589862905626	0.8673409797704712	1.0608799430765405	1.3940261567205956	0.954998431178796	0.1553328927409856	0.5655270800617443	0.9278150177418734	0.549316941304911	0.2964470379020559	0.3033860914199979	-0.005258942475303389
-192	0.8456089475262976	0.9343255138649623	1.7434940294115773	1.494379874271182	0.8797447659215581	0.9346911883597361	0.9684776043282055	1.3206458058392738	0.9203069186816975	0.8135949352703942	1.0975985499326875	1.2502585617924362	1.0698423358609195	1.5711202581792987	0.6455765350255019	0.9587222313517368	1.41271900773999	1.0264621947122041	1.4177923166718833	1.3076318469411616	1.3700334991197334	1.651039476994551	0.9161919928307279	1.207486030391027	1.4917904100900976	1.6398085314357482	1.1714732617365282	0.33465436016467676	1.0593336793856813	1.3002164331033774	0.7996399978475887	0.745164213683369	0.6263073070925848	0.21222616678538558
-188	0.591467855867527	0.6166021212268902	1.2608747450465778	1.4263037407150303	1.0200393174167137	1.0003019546049126	1.1823896139810008	1.0610636445912744	0.771010873755289	0.8211715796718888	1.0561226579704486	1.3357289995801842	0.945739684101342	1.6811960893146531	0.8793888665885029	0.9084097124052775	1.4398462736016762	1.011819598504361	1.2354086606305879	1.3932814562906521	1.2120937078391105	1.5806002576976004	0.9659629439761255	1.348895069531379	1.670017476633831	1.5822132785904395	1.1289930315123595	0.2878610782508055	1.3189128604014495	1.4329161607804277	0.8417718389239247	0.9938971971213881	0.7363270502573469	0.2587772601269847
-184	0.07964932153381003	0.04104955856568852	0.6693047268181637	1.0339465115191746	0.9625751351849352	0.871641454880158	1.1941231459032808	0.4269971836753537	0.33873546037982155	0.7361342292319853	0.815519628849977	1.186907884462147	0.5568511471994326	1.1479756803139203	0.8445844628944846	0.6371353848583677	1.1838303774508738	0.714651642425567	0.7805414776168771	1.266560312888058	0.7651504854911239	1.1745356291680664	0.7387959342423551	1.269251224174294	1.5697729547921975	1.22036480595513	0.8012178520000991	0.013219289448264365	1.314989086645792	1.3184832301229932	0.6545059664414034	1.008109805422907	0.6491693837942019	0.13911576533956999
-180	-0.4270296980089966	-0.5050424324635989	0.12842564252377126	0.5149037228935661	0.6927501541767247	0.5929233416846226	0.9699353551217968	-0.32887828267033353	-0.1629565801082504	0.5438029156306612	0.45253434663005887	0.8435634949367047	0.039967130768719696	0.21745665316515472	0.5698485956109838	0.2493205958270537	0.7137643080810361	0.22704616131679345	0.2747733288026477	1.0247629855032374	0.18392008496579168	0.5559139833719954	0.29616692587464116	1.0592584583241647	1.3069411483192483	0.7121816259523109	0.30988439839326104	-0.37279862071328446	1.1614803046465847	1.0812205048919459	0.34611993940704544	0.8977264143212883	0.5035943376224369	-0.035820446818036034
-176	-0.6648340208434281	-0.7467493992071683	-0.21449263339724753	0.12248542128871165	0.3360898784258229	0.30458661836971035	0.6064701065010367	-0.8849694110461541	-0.477418808923799	0.3211668125626974	0.1304648515268396	0.45306905989698887	-0.395044564203414	-0.6399583800370925	0.21050554460783732	-0.07273723166698023	0.21734850053748284	-0.23993417560081318	-0.029321174994588018	0.8293635228198463	-0.2908658675956361	-0.03566285213764779	-0.18115551723996057	0.8678721167587237	1.070906278767474	0.297970592223313	-0.13139907982552917	-0.6926190239585499	1.0449671718917408	0.9075809694264128	0.10026305888611182	0.8450996854426224	0.47885355232456506	-0.10936376424834288
-172	-0.5142868148216984	-0.5711325988654934	-0.28529906200857097	0.027377577429433444	0.0890641210214726	0.16999886887068272	0.28295209932414306	-1.018267032913437	-0.4472391892108717	0.1965342457100823	0.01346616536704271	0.1913695479568179	-0.5691570625240456	-0.9688392257071449	-0.04215391714658902	-0.16385109681245863	-0.09536983048679154	-0.469051121481165	0.015866553370828523	0.8057437518757573	-0.4538264561162375	-0.3619820764462363	-0.4903230058688344	0.8098769167479819	1.010870930980511	0.17466007128963942	-0.3261656752934542	-0.7973663190737271	1.1056216927270672	0.9362485981191402	0.07458909582141193	0.9810020302800134	0.6803832633006606	0.027396218782039884
-168	-0.06505192799833444	-0.08624380060117547	-0.10864490243184423	0.2271898681149841	0.10611547502905837	0.28538912462659916	0.16442620712728317	-0.7162097674407065	-0.10162653748364822	0.27138510277894506	0.17642351940435066	0.16937203662548492	-0.4244409788859701	-0.5685372934292359	-0.06840359402314027	0.03542027986047588	-0.10099081669582073	-0.3605056992011998	0.3652624776678125	0.9636958813178174	-0.24124269126542483	-0.3070684067602798	-0.51555937398444	0.8925835467691178	1.1439385385241863	0.3905747821006702	-0.1977809960617014	-0.6423259361262382	1.3422481979813883	1.1724315852128073	0.3100174955647084	1.2873411146086629	1.064598557645399	0.365117161544217
-164	0.4371758986402708	0.44417503363999467	0.21512018089818083	0.5543930516551017	0.40750992195239855	0.6221095903902313	0.30753645223219683	-0.17178799168606615	0.36215159205554953	0.5501803741869473	0.5601769075555684	0.37453162575575355	-0.05292915166962182	0.393614589174218	0.11466694594281267	0.44442722089140263	0.17382013753874645	0.008557420202345931	0.7955529669703036	1.1853610247248414	0.2344987684528236	0.0637813283382848	-0.2860415868689857	1.0050712798492187	1.3390368189382877	0.8182697275483254	0.16985854463607455	-0.30745533031086236	1.5999413688319353	1.4764215908921448	0.7019704562583956	1.588821407121424	1.449561592256957	0.7705502490616277
-160	0.734140990311084	0.7538968901673636	0.5663201198584787	0.7822477201739096	0.8639996626020884	1.037931320430928	0.6255979522169037	0.3365499070730379	0.6934178454058129	0.9259247160422391	1.0005133126747523	0.6810721141785905	0.3590829661363256	1.4622144662179313	0.37196206952597394	0.884940025956354	0.571020959366111	0.4285882700589709	1.0213996146163433	1.294041630338816	0.7448827009468055	0.54183506828837	0.05151851834760655	0.9834749077762114	1.3931837046734672	1.2239326207730874	0.5790500030203085	0.0502783170563156	1.655492778413056	1.638891692792128	1.0541144582837463	1.6475682217008858	1.6123841960252516	1.054653641899023
-156	0.7046867591232417	0.7253057342336899	0.8569204785646332	0.761830149157649	1.2632900444560682	1.3481061424551237	0.9298266744979639	0.601676700980302	0.7281914931032046	1.2295640675972483	1.3105380502037827	0.9170460081789136	0.6321808679832119	2.1223623699009497	0.5370312915594706	1.1724981039962088	0.8856260754159866	0.6761494261836644	0.8482168295425709	1.1608881921068808	1.0625452968473603	0.8844901300987252	0.32016098418465216	0.7121369224688423	1.154429313606037	1.3909562791038346	0.8226714113445852	0.2785199575544799	1.3499340976964804	1.4980034790365082	1.1818788021765654	1.3045557704413597	1.4150291645563622	1.0736634704185328
-152	0.4312851716119916	0.44909268504245003	1.0520061227940742	0.509548483992597	1.4212894403813157	1.4184927904555151	1.028423425938942	0.5905770048489632	0.4736370730362828	1.3170905079966877	1.3717707360919706	0.9524587964806182	0.6832792741690507	2.0537109323148783	0.5128663765356423	1.2064177959500595	0.9697667335821529	0.6382594688513488	0.27998113561513704	0.7860051969710635	1.0716390582684925	0.9375446415118641	0.4081504930681824	0.20090359398663316	0.6191585644348523	1.2287194697829134	0.7888659218898357	0.3004388503595526	0.6903880817148844	1.0318573687250718	1.0077711318321483	0.583156345802452	0.884687838704946	0.8054341653515755
-148	0.1447411324899791	0.15972606797422526	1.1580964297619396	0.19301845084572122	1.2769327131456838	1.2318983046900487	0.8308741429332198	0.4379208076864705	0.09236291772649614	1.1465330094954191	1.1865030497158546	0.7632583360475063	0.557344494842993	1.281117912872666	0.32864925182336235	1.0124294732281631	0.8029025176757774	0.36959203984407624	-0.47796460865462925	0.30693113726370863	0.8150990584775036	0.7070950251846664	0.31982874789551297	-0.4057139446028833	-0.05217051120341663	0.8102602342175647	0.5116541372732609	0.14197194540418956	-0.13894379103866597	0.37482249642152304	0.5975374564343255	-0.3071838311545959	0.20244242199807544	0.35880011229525816
-144	0.07926771024717967	0.08664933570204215	1.1926226585794935	0.021635405664656094	0.9155559516679356	0.889607069630484	0.39872902531090243	0.33794847045451665	-0.2014981354156054	0.7966133932028253	0.8640036561132782	0.4372755576060836	0.38322368167443627	0.1452798690704213	0.11669665545564392	0.7156910878231807	0.4913547622672915	0.049418572211665415	-1.1272464962155606	-0.07571546714263046	0.4550699878170469	0.3428319087909573	0.1528595384076306	-0.899049816245895	-0.6156324728681323	0.3204612127796278	0.14110974931852918	-0.09830503885960316	-0.867662308409644	-0.253191232042028	0.1178082075720926	-1.0743578645284129	-0.3950578858414877	-0.09015151835568702
-140	0.3255997291927407	0.31191903273985444	1.1615165442705166	0.11285234959243269	0.513939975394626	0.5530511722906613	-0.08325739183863105	0.40938568011874427	-0.26739755205353904	0.4213002313467501	0.5557569251334087	0.12442961303766732	0.2863521270674814	-0.8747903682556916	0.02931949488866765	0.4672013509398758	0.20355787821874705	-0.13385288383544722	-1.4292066061175523	-0.20801922626427644	0.17677761569690606	0.048275966075367174	0.025067003380549065	-1.1123825283575808	-0.8715035893371406	-0.04846610861701091	-0.1441329266962266	-0.3108446590204905	-1.2763905492981755	-0.6606206281195384	-0.2554537647473447	-1.4921864233489854	-0.7403429131889498	-0.3933261026942334
-136	0.7680571059862572	0.717451391792888	1.0571435663235837	0.4137357760950813	0.2389559292720681	0.3555385461413834	-0.4064742912520409	0.6137704833746949	-0.11621104896530426	0.1641871925023373	0.3740626266095225	-0.04516373935860016	0.30869853418612625	-1.398158904360308	0.1428199704855904	0.3622034778986955	0.07432667147228963	-0.10451893482045801	-1.3231229748698847	-0.06813280267202876	0.0876431164912926	-0.035253681153458984	-0.006624410377854144	-1.0074104045228784	-0.7697364072439192	-0.1974486852667564	-0.2361208641528069	-0.4356520760981128	-1.305445906204188	-0.7807905654267646	-0.42934313308082295	-1.5119817218753622	-0.8177528360701382	-0.507199226529351
-132	1.142313477493133	1.0506148311792396	0.8743958451129193	0.7235531192631393	0.15613709350742594	0.33080935394689115	-0.4547644544086996	0.7749469856723837	0.1010752839278348	0.07962822148961282	0.33706244741216745	-0.031887318858462826	0.3810950806055917	-1.3136246171210388	0.40473613040781176	0.3936800350740161	0.13070772555252494	0.04941378148835369	-0.9468566155369681	0.22019864563183414	0.16550603467163022	0.09313579625218611	0.017691232219375835	-0.6937187892565241	-0.4353836763833669	-0.1632824834038982	-0.15372420808604292	-0.48768120880976945	-1.075203535226351	-0.6984507423886505	-0.4358128894293108	-1.275943633672778	-0.7582095842291985	-0.5076138960420065
-128	1.1862893074602296	1.0730123492806503	0.6263592823426977	0.8098628500518504	0.2033972884049664	0.4007746269121068	-0.2674550705356021	0.6913270336816605	0.18695130897051346	0.10890760990302849	0.3704076996034457	0.09487315243371279	0.36906054522795595	-0.8030224422207627	0.65803497863571	0.465588359849359	0.2818438403643099	0.1317333873760691	-0.5506283030913035	0.4554819751206942	0.282409846069668	0.29766315146633776	-0.008254477733394714	-0.3682896783590221	-0.09878712867590997	-0.0833746118228665	-0.02525626302839429	-0.534483193001756	-0.8072794655445179	-0.592042623455645	-0.4011650969390445	-1.025095937048112	-0.7506086807373415	-0.5349825011097787
-124	0.795496819395067	0.7030638438593949	0.34475064190607757	0.5485312328794656	0.2429944866721119	0.4275246251756395	-0.014742750637264292	0.2713136368100398	0.014282640964985502	0.1254474517516045	0.3600596478431493	0.19863638231671338	0.16318385261820514	-0.22072696630062813	0.7295209747015631	0.45478790883635956	0.3760036816640548	-0.03349063164480868	-0.3551935246559722	0.4690056133349939	0.28683897780477763	0.3876517107236203	-0.17935785605923465	-0.20948815292873485	0.02993655010950182	-0.10653571757598625	-0.009336208901079484	-0.6433439834564316	-0.693153558411546	-0.6248351319749942	-0.4627400028943464	-0.9551703905785389	-0.9216161347008834	-0.7023326736837812
-120	0.09299193299180333	0.06939346325758719	0.06776320917187088	0.005268067573866432	0.15872888226965062	0.3007396750009745	0.1027575877694698	-0.3888317932802265	-0.3971558203206727	0.02215250017116401	0.2256321901346792	0.1567741479491769	-0.24091134904595501	0.09898637955231043	0.5325238095190015	0.28769582437358293	0.2939912371365429	-0.4787413465810587	-0.4351707387904444	0.21758270208737523	0.09852152292888082	0.23329299629438413	-0.5035868870418588	-0.28320500183128655	-0.12694165078538389	-0.30028957052708954	-0.19738601098293332	-0.8285035470071981	-0.7856764177513126	-0.8453839399928386	-0.6798888427734969	-1.10376047809401	-1.253479596787966	-1.0186184618981453
-116	-0.6272895320313585	-0.5549095855054211	-0.1743025775323404	-0.5925985559760615	-0.06153141319117712	0.009433494856978194	-0.02691829197763111	-1.0346980068786054	-0.8847919084144611	-0.21302393025020644	-0.02806233048804549	-0.06442771090691957	-0.7206435185357746	0.005944029413057592	0.12459158120885493	-0.012084727145022768	0.025304840813763586	-1.0490324470737378	-0.6910192352968175	-0.19342017124933192	-0.23829778968728108	-0.15086826644000184	-0.8764874913020965	-0.5143454061873646	-0.4786662447288313	-0.6078206881435925	-0.5537017569867421	-1.0307760212622867	-0.9766359900612392	-1.154944655363464	-0.9921604369863076	-1.334035870044969	-1.5892046649863623	-1.3737246955520643
-112	-1.0549839708395343	-0.9008119083549411	-0.3660432389077541	-0.9783100461101742	-0.311039476801447	-0.3458268037647802	-0.3606950631571731	-1.3778068984531346	-1.2272534339437193	-0.4816881704089916	-0.3117665640589039	-0.3847089698138442	-1.0803868743322218	-0.4142945994407621	-0.3155549160619735	-0.3318209043708204	-0.3181220881059681	-1.4723972044963605	-0.9210998392691425	-0.5686945304817563	-0.5729255661804551	-0.6030115469966767	-1.1251031131948492	-0.7371869664653504	-0.8233978727532736	-0.8766222574035933	-0.926195201919547	-1.142853733992013	-1.069903132598437	-1.359487649346249	-1.2475521532985978	-1.4211804830909414	-1.7200868086302208	-1.592959638388442
-108	-1.0250462267744949	-0.8455234148612608	-0.5036563264528467	-0.9889589523142148	-0.4266233433442663	-0.60549312677099	-0.7225316744682023	-1.2449156014482599	-1.2595326868682035	-0.6297021492318406	-0.5018500076974891	-0.6483161433063964	-1.1513463229674585	-0.9135878063024213	-0.5802482351912029	-0.5274348841702164	-0.558465240975875	-1.5060148201112522	-0.9466446614206819	-0.7285147290910055	-0.7262546401761184	-0.8943811632463602	-1.100275871359949	-0.7935587743750883	-0.9628034209738486	-0.9404910183049623	-1.1222729654587695	-1.0668849918132102	-0.904081223112617	-1.2766175237849073	-1.284552451705242	-1.1887787550476334	-1.50436734773382	-1.5303273162351718
-104	-0.6029162987745661	-0.4744092512073984	-0.5877184256973975	-0.6521537287459261	-0.2958968274275234	-0.6433316452949942	-0.9044125057274421	-0.6753321272965677	-0.9601424312192145	-0.5450620637483623	-0.5142571913133197	-0.7092692238066489	-0.8860326386969731	-1.2237906425095908	-0.5463281260048398	-0.5033201562571623	-0.5516763315577432	-1.0802311870004617	-0.7174255829817654	-0.6057677849734215	-0.5897460564982475	-0.8532513358508134	-0.7665981034951289	-0.6253786071246841	-0.8118365982539595	-0.7129657250523516	-1.0123815510938847	-0.7747839669693346	-0.4548771071870407	-0.8421363809304506	-1.0252841685158374	-0.6184614285113195	-0.9530355906266533	-1.1518784732346696
-100	-0.04621148470297787	-0.02926152005854421	-0.6184842570902107	-0.1647760714900702	0.05763765037408837	-0.44437602050166986	-0.7877838591713153	0.0905002055267427	-0.46345752360634096	-0.23841176866896505	-0.3588447561740822	-0.5164077864960309	-0.3907632221846518	-1.1900132864471045	-0.24466316340186955	-0.2700903408860806	-0.2741974287262819	-0.3533501914163024	-0.33944708023199827	-0.2803481512144149	-0.19158162128239328	-0.4641135919297273	-0.23561493992923072	-0.3090757719819573	-0.4423684764660585	-0.24135538874724938	-0.6043609961509845	-0.33551937256979564	0.14201286399272456	-0.1574574853974791	-0.5269514905023085	0.1289026435935432	-0.23449975192945993	-0.5623180852044288
-96	0.33583864484872894	0.22724641802157197	-0.6025759562537579	0.22017718795976918	0.466869442476282	-0.12196768789491916	-0.41382735863154746	0.725105343418461	0.007557871732405463	0.14583699368373026	-0.14159341120733795	-0.14928877315976422	0.12472043899995339	-0.8296522477184093	0.15430217942380944	0.05280137421270718	0.15395891627541464	0.36147043017677616	-0.010205157075388783	0.06741879118348645	0.3072946659912759	0.11417220504068423	0.2816704802554184	-0.010123047952127689	-0.03710020324161618	0.3082096270885905	-0.047371975957953866	0.10940874340329294	0.661574898479983	0.5500389919698971	0.03857826804315367	0.7934506515497387	0.4059364785435904	0.04110789661161514
-92	0.34221661004449444	0.149381845812346	-0.5654833898572343	0.3275559834316524	0.6972339731732777	0.1336506154739126	0.03417972466660747	0.9665610765849364	0.2493399971388791	0.39452722569039217	-0.015839282383267483	0.213870405610847	0.4487143445606934	-0.3048430375508867	0.42758425962258667	0.2883706681600261	0.5217653499781403	0.7540793399845604	0.09545432752112791	0.251916735728336	0.682437835400881	0.6194875224685371	0.5755747542154536	0.1111737859422479	0.21212877279606848	0.7228797655928118	0.43409019599036186	0.40763795272905284	0.9091423130923622	1.0301492188194112	0.46413051964880075	1.148737189253648	0.764281568981782	0.4599962222883282
-88	-0.024154238341859886	-0.22387546244364942	-0.5553838596627014	0.13937827909565922	0.5708851203810108	0.1513224538320436	0.32680448807222157	0.7337908130239127	0.17396300987191232	0.33730912123394763	-0.10531503680580996	0.38277009032884074	0.46769127131637017	0.16981108443779197	0.4151859869011275	0.28487640547353577	0.6307918413448732	0.675791798315915	-0.07726401816172719	0.17522229210006382	0.7482239585105438	0.8121767619608339	0.5402315841386709	-0.01072715965185253	0.2043051267472483	0.8373327830154851	0.6443859322491196	0.46611019851304997	0.8212326148279847	1.1247243852829025	0.6051641091326605	1.113289353420904	0.7715829591343988	0.5846002087138457
-84	-0.5738339409645387	-0.7044253331519169	-0.6269977076912749	-0.2190751427841382	0.06963603180946881	-0.13186588850107028	0.3083522312008556	0.15013165734056613	-0.1567159440137007	-0.058188646884871846	-0.43855899461646936	0.2512709492061475	0.21530297344208424	0.4289509047168688	0.1005658951842898	-0.010094358560289092	0.3957188119434109	0.21324662810368622	-0.4350005675300403	-0.13120254841103973	0.4439008820770424	0.5912070259426485	0.22578300478674135	-0.31054696362291145	-0.02652586244800132	0.6058114155732869	0.5076182471810641	0.2954212419680613	0.4932388650838847	0.8376227596115852	0.4465548980882555	0.7833005170119193	0.5168364631001732	0.43817198165891985
-80	-1.0420824263011847	-1.0645624372307563	-0.8069379905354619	-0.5674129710176763	-0.6433346851318701	-0.6353811009577676	-0.024065216942467448	-0.5267710672430289	-0.5697013721387603	-0.6623067243066876	-0.9285507178704786	-0.1465122845050081	-0.15205629131550424	0.41334485903330886	-0.38643923304266053	-0.5201075063925432	-0.10981127592018665	-0.3595646908741841	-0.7889285067666919	-0.5343331085065904	-0.13755235041221991	0.04237844784289103	-0.18663153005210084	-0.6281293614741233	-0.34234383615844627	0.11949757456411565	0.10118643168889908	0.005914884138819872	0.12200278012944207	0.32683434999917865	0.10572502735386236	0.3728425195340507	0.1916090841224042	0.15675809939861166
-76	-1.2287300794096567	-1.1568490237592297	-1.0672894689316348	-0.7782404403111327	-1.3003424373221144	-1.1745550602822141	-0.5257568942147363	-1.0313007805535646	-0.8721416570578502	-1.2471334902747526	-1.4112970793378183	-0.6529514773095859	-0.441396771747061	0.16670313435427678	-0.8451521971345369	-1.07247531143258	-0.6897950751055113	-0.7284436207499679	-0.9595913266750126	-0.8792356230471723	-0.7934800962441834	-0.6076743587410383	-0.47777646659387074	-0.7974263409508644	-0.5873249158335839	-0.4394837010731801	-0.38605919382853215	-0.24553278026578573	-0.10451485190230121	-0.17807555153709678	-0.23082075954811587	0.0955416483255034	-0.01380119096728585	-0.08533777274997405
-72	-1.0927001210281237	-0.9814249848382717	-1.3237011399227463	-0.8354486205942473	-1.6632058578460969	-1.551070567029663	-0.9846378539974878	-1.2037739723330774	-0.9473639702720152	-1.6035600860164023	-1.7224842266463236	-1.0665953132403332	-0.5216378556432877	-0.20843997545068363	-1.1140863867288282	-1.4770235978028563	-1.1241136760940758	-0.7026950103184559	-0.873691318213453	-1.0733493539413594	-1.3052509990162646	-1.105080005716716	-0.5001468645819771	-0.7388575654448972	-0.6778889877370422	-0.8827757217053791	-0.7477668504909154	-0.33070057547045073	-0.1080408540620543	-0.4890583443215055	-0.4029584516841963	0.05379254729875528	-0.00655484710096402	-0.1633989061760118
-68	-0.7542919497519375	-0.6685241443921559	-1.4625935517577457	-0.8152073601167871	-1.6402587849212447	-1.644524689337049	-1.227087733031662	-1.0384983990198893	-0.801932452084507	-1.644708390851783	-1.7714583829023753	-1.239918824880065	-0.38000282549284037	-0.6017659887379501	-1.1514246434704958	-1.6097118813881386	-1.2727856603912615	-0.30470776480991046	-0.5977795108961473	-1.1261993618187904	-1.532215591376889	-1.285907146068277	-0.2450598919164929	-0.500158487487679	-0.6423354728693782	-1.0950474711427416	-0.85438167833148	-0.2057474101355594	0.04603961098491167	-0.5426855669625228	-0.35156947285581114	0.19717818448828744	0.17202828781087143	-0.05592319355196852
-64	-0.41180103913287924	-0.39297917386019415	-1.3933609688865818	-0.8129816034772039	-1.3255099024685337	-1.459946151862086	-1.1931925981913967	-0.6561027748709045	-0.5451952801290989	-1.4400491678119793	-1.5760869940066027	-1.1443254918770913	-0.11173941166799649	-0.9265056229087535	-1.041981813661058	-1.4610588513679437	-1.1330684394839428	0.2569299333761251	-0.2954175762824168	-1.1252779932221786	-1.4615491591746281	-1.138452407823621	0.16330492455259948	-0.22540497722936906	-0.590558765827708	-1.071845409548184	-0.7020463329710032	0.07758092860661722	0.19618323395788625	-0.41475906863400164	-0.13627029920982173	0.366222261457885	0.3821934749967394	0.15868486423959513
-60	-0.22694791796129046	-0.2752748124801993	-1.0970292063672304	-0.8678832032226239	-0.9413971877171947	-1.1117210360115335	-0.9463878846116379	-0.2262996280440277	-0.3178789607605431	-1.164991733470727	-1.2439867226664254	-0.8707861282297906	0.14241349661157085	-1.1264309854678027	-0.9319519377067094	-1.1285606594202506	-0.8231853821951858	0.7084688526386257	-0.13415442373260458	-1.1672743529412823	-1.193940994109307	-0.784853218004398	0.5395872579302756	-0.0729629023021107	-0.6364679320478581	-0.9023262239562814	-0.39601370592269264	0.40755450622657796	0.18236121489259427	-0.26386153631348896	0.10860388698576172	0.3908193697598885	0.46932449818373717	0.3554659774865526
-56	-0.2430076294962517	-0.3233525148810926	-0.6424284561149931	-0.9367123818589665	-0.7136232834918536	-0.7547100167293366	-0.619817911013693	0.11335077853194729	-0.20844843931022036	-0.9931310986240243	-0.9107418037308714	-0.568574129099614	0.27393025090675077	-1.167283770475133	-0.9296261644734457	-0.7583254556583493	-0.5061453568077381	0.8548852183692712	-0.1933801765327886	-1.2864086595481508	-0.8770617224484127	-0.3992737819604517	0.7330092173189463	-0.1274234947325316	-0.8191594460786413	-0.7099474054531911	-0.08267715552436877	0.6728849990068477	-0.06093183144444377	-0.23687168895998564	0.25277459557609994	0.1881913388984511	0.3489113739264412	0.43408539781646954
-52	-0.37433373833559885	-0.44016644247503606	-0.15807703097487152	-0.9286262369552183	-0.7449980359341548	-0.4999950515521175	-0.33356216465657	0.3056335739525468	-0.20191031643434776	-0.9907330249568305	-0.6664385182720859	-0.35641357212679936	0.2581034892241448	-1.0280841563017369	-1.02911495902588	-0.4659780848182389	-0.29712018295612724	0.6703193766836133	-0.42016139520422435	-1.4205849134818493	-0.622651337005227	-0.11046590628152139	0.6990410667890156	-0.35273963123908725	-1.0674180957547355	-0.5823166951736211	0.13211739029906505	0.816900489652002	-0.46485325576720005	-0.38588973782386354	0.24178135334006126	-0.19147311102685366	0.05068330826480009	0.3717707982213726
-48	-0.4669370937479313	-0.48745551582289726	0.22296981457205747	-0.7736514787214614	-0.9595279669377763	-0.364693283113967	-0.13462996448858322	0.37136694695171657	-0.19415320407009012	-1.0767978402607778	-0.512617586748978	-0.26005148821977586	0.15282711348095465	-0.7067118865290175	-1.105233070444113	-0.282021164182069	-0.20935845322203106	0.2926939420462819	-0.6562715752244822	-1.439178582372588	-0.4544060516805701	0.053873587263703414	0.5073041307038909	-0.6126175507337154	-1.230895754567458	-0.5292698727596388	0.23098221362924357	0.8542827346214027	-0.8611006715014669	-0.641736923028055	0.1209651303217477	-0.5947149380927579	-0.30001294537138534	0.22952261509166894
-44	-0.3888991167263303	-0.36411812809565897	0.41742735995760233	-0.4766922879104661	-1.144865033120236	-0.2773288779409404	0.010959440814600922	0.37122493888589775	-0.06064971893614382	-1.0700409385368097	-0.3707562079605675	-0.20981386250928763	0.05253361897318125	-0.2354948514714727	-0.9840446089695362	-0.14953573010360635	-0.16609987574602814	-0.06540721638378233	-0.7186077218986111	-1.2182058065175267	-0.3124643258312053	0.1546711619763599	0.28744140194800155	-0.7434930782620206	-1.1606460780404144	-0.48990508790304693	0.2758142345140547	0.8449971654538675	-1.069312450570204	-0.8552308657034511	0.0018754968139488672	-0.8482060411018938	-0.548630951449923	0.1129504513869047
-40	-0.10215155009466552	-0.058701354862064396	0.41611400141561494	-0.12301433800395188	-1.0717023584010843	-0.13400320674919122	0.17559839740764696	0.3592117419710377	0.260182171403116	-0.7980487326500376	-0.13874749804275502	-0.09780679618460301	0.02646547735506086	0.30806881111566414	-0.5514804706955058	0.025106968294770063	-0.06727857125700637	-0.2362004512545423	-0.4924707400286036	-0.7215315085313965	-0.1091878336891519	0.27557524969143116	0.14965704045657918	-0.6402585490274234	-0.7961805442735593	-0.3829746236668711	0.3511086097435714	0.84644359136498	-0.9903389786512152	-0.8831896163576545	-0.007978925461293786	-0.8495957233913234	-0.5895299896614822	0.11089106621163082
-36	0.3180250517445188	0.34608170302751856	0.26927986673079346	0.16560028451594336	-0.6292207225172054	0.1251047548473336	0.4032751013587661	0.3513399651716829	0.714009342775089	-0.21096496230744494	0.23314893186832575	0.13705559040275483	0.07600186000947254	0.8076556900613903	0.15930722613644607	0.29609593674289286	0.12837377158178642	-0.17833593442714069	0.006618087628911043	-0.044629771149727965	0.1955103571247157	0.4449501324386969	0.12291136352978178	-0.3131582431039285	-0.21352893060179093	-0.1732763792669946	0.4931857275432016	0.8705744125320829	-0.6596258266007486	-0.674777506078333	0.12520268527845232	-0.6198839529599374	-0.4185321916503696	0.24267220435862505
-32	0.721691904630082	0.714750943763512	0.05156148212051023	0.29754525347926974	0.09946142856997092	0.46673697115360313	0.6641579849640925	0.32640302098835056	1.1444110841467725	0.5676296935055325	0.6936634165416675	0.4525370884437116	0.1365079876314247	1.1355693311631143	0.9561077928245547	0.6264120920578353	0.3616611054349312	0.019909897768893757	0.6371976717120008	0.6104535445059637	0.5500296936453356	0.600909827622558	0.14830055795420563	0.11997235536087532	0.39791911739973923	0.09088893956840575	0.6547736509004138	0.8774493910570531	-0.2284623229695977	-0.30543577593935906	0.3378947964720319	-0.28532618212187527	-0.12893064287535574	0.448435305416882
-28	0.9543113088355601	0.918674407070066	-0.17757928326594985	0.2538762384203797	0.8572230317407492	0.7648007850411095	0.854489741552185	0.24590150949859654	1.3653571571210419	1.278155442825519	1.0930374833167007	0.7060835343653817	0.11731766134682964	1.1948971718183796	1.558873411057509	0.8874285794740884	0.49310043329674336	0.20236368426252593	1.1935036152270495	1.0152538989183588	0.8205121138837589	0.6166978462861578	0.12338320879779367	0.4929837274025678	0.8142724612658454	0.287808477151924	0.7222308498267804	0.8034025410395357	0.10809931131727017	0.05366276563566513	0.4987052666470792	-0.009746090484390927	0.1365525421032818	0.6195517762754428
-24	0.9237730479759247	0.8867251254582252	-0.3921089758509929	0.085484847210586	1.3236204352339243	0.8545647837997677	0.8445783236160883	0.0835869235670204	1.2577862707806937	1.637713070549315	1.2432298628889784	0.7225224357482855	-0.04148000840800841	0.9592874621967148	1.7240433649404219	0.9178426242543254	0.37802809381409497	0.23470218420376726	1.4964054785141145	1.0155488226999627	0.8548797347419658	0.3753424575389084	-0.026331800900973503	0.6704827530145302	0.8766562320510296	0.28110843825892784	0.5808836803075491	0.6105531438671319	0.20222796448671504	0.21831236724571215	0.47829443095566115	0.0880995390575078	0.2543813281789311	0.6551520211844927
-20	0.6365097745083848	0.6290993078561045	-0.5873324856234513	-0.12429348347992462	1.264872905398727	0.616897402636362	0.5521330819495038	-0.14959774873633855	0.8415559509010934	1.4737203083977441	1.0106941436045536	0.39418467779773286	-0.3257832816958631	0.49391591424217896	1.36165022506253	0.6143511518226307	-0.04260021064850827	0.07485695909435625	1.4697681628312453	0.6044955834385476	0.5698411450304056	-0.14751933477826817	-0.2914063625130947	0.6094156488291103	0.5647044167566314	-0.0006415371301219174	0.19296431492724064	0.32664579070590777	0.021384315511238254	0.08597369470347714	0.2233963007055098	-0.00834284348169628	0.17755503907674866	0.5167071210213371
-16	0.1904437984188262	0.2284785205317745	-0.7568982820474506	-0.30522802395051896	0.6504500491886126	0.04887778299627396	0.0003775618378785005	-0.40161913531947474	0.2793603532413687	0.8120710233212692	0.39426341553328237	-0.24357439516082874	-0.643529353901215	-0.055428393045195465	0.5866508469075209	0.0028584455067766205	-0.6901363713006334	-0.21393133645881482	1.1682032317231168	-0.06878308189430588	0.010101717871255125	-0.8448787310249978	-0.5754419550672293	0.37192383314644706	0.007478685099376135	-0.5103915320861716	-0.36131390837999117	0.04408232856588025	-0.340357570980966	-0.30989146154364905	-0.20909795112269794	-0.21231260842125285	-0.04808350267787336	0.24832563039549135
-12	-0.26133117013755025	-0.18751701665264842	-0.8772819616103018	-0.4231064308928185	-0.3153274647380849	-0.709359942075768	-0.6652831418406767	-0.5905287250868171	-0.18712437105618188	-0.11821559786752323	-0.4473827469974508	-0.9994853709735513	-0.856427428944296	-0.49875777833899376	-0.3180502645091951	-0.7458378653769197	-1.360473987005502	-0.49782237284857284	0.7498179655217476	-0.7559056262958674	-0.6496220214654834	-1.5033777914237574	-0.7412868123412297	0.09181566513245318	-0.5693015441826164	-1.0822697850559226	-0.900841770281898	-0.1174736839547159	-0.7059212309180681	-0.8083069900132066	-0.6705707294699965	-0.38077333473390645	-0.30711075586028574	-0.0405911690462007
-8	-0.5642533884107548	-0.4858380841863559	-0.9143226719660017	-0.47354560970910586	-1.2689529625325908	-1.413452860124612	-1.2197618453701045	-0.6330187304727042	-0.3441890469444217	-0.9719909405009759	-1.242475744925184	-1.5939004380992012	-0.8396006205341734	-0.6619622690654002	-1.014169332804764	-1.3749330009079004	-1.8032729580173639	-0.6390753968316191	0.4042977382465956	-1.2090567319861825	-1.1702045172710425	-1.8877305936836455	-0.6863833052471818	-0.08999636001514782	-0.9390624737872373	-1.4945657215531223	-1.2197589843471623	-0.0724490506607994	-0.895505604867209	-1.192525622218044	-0.9873835419521341	-0.38723635575755166	-0.46811100722381876	-0.22573028447857063
-4	-0.6150375589101311	-0.5690293297706145	-0.8475617148934986	-0.45960911992381176	-1.839241023188394	-1.8080964042789895	-1.4469089471525702	-0.48086923239416773	-0.10552384677709215	-1.4290024006050674	-1.7115756230056522	-1.7790365174199856	-0.5442730174628179	-0.45306584124617916	-1.246229407025082	-1.6507642227456731	-1.831821913862643	-0.5609714374684184	0.2699730687477811	-1.2792125908025862	-1.3519769872863543	-1.844380970112978	-0.4055878807795016	-0.09060732252371424	-0.9691897010175393	-1.5688183268038849	-1.1855988472568948	0.17776590540827042	-0.8063326457646514	-1.290303227027942	-1.0423349115758158	-0.18408907903446445	-0.4420121002958462	-0.22629539611425933
0	-0.39502072234556407	-0.40580144422119263	-0.693623600639058	-0.37782499098753564	-1.805378432484094	-1.7331281856648604	-1.232853767143386	-0.14777331016901488	0.44751262551808846	-1.3231556382151393	-1.6834697680885147	-1.4514412843298479	-0.02715450145898931	0.09530290192145835	-0.9419571733534456	-1.467048402897011	-1.4068707192186838	-0.27615204383746633	0.3790720989670225	-0.9682916974416205	-1.1231334181085746	-1.3697758878456645	-0.0008521658579724204	0.08280206450776083	-0.6705977899786563	-1.2528548209030077	-0.8042518476207959	0.536528764800638	-0.4537794578539508	-1.050411221713201	-0.8257496932162384	0.17793935492412888	-0.2163065517447949	-0.039138551702627755
4	0.020408878051371135	-0.04740274313045119	-0.5070520030571275	-0.22674116435024783	-1.1924693554335182	-1.1982053488043511	-0.6246829017126222	0.28300785946918966	1.1029565306473093	-0.7050806266149231	-1.171076175594037	-0.7045440656040097	0.5636432752683743	0.8253570178174495	-0.23313939512518575	-0.894968984251651	-0.6570597274403573	0.12273661761290272	0.6543759091068319	-0.4158607412806037	-0.5712883458018982	-0.6127284153727177	0.36618238595063096	0.3455918124533465	-0.1826860304034777	-0.6474519951686245	-0.21894721631561198	0.8537381865881096	0.04114718724829382	-0.5610567317148766	-0.43336215505859094	0.5777678475097823	0.1455601003071253	0.26549169354165775
8	0.4838001119796635	0.3821105351337439	-0.35868468790094205	-0.02968151487366787	-0.2615668767047194	-0.39051267406097107	0.1766515071700409	0.6806777698497521	1.6123938519776808	0.18526089144662888	-0.37067222501629105	0.20596504159424606	1.04304933284629	1.4986592493366715	0.6068324431357115	-0.15346117278931323	0.1740657533780845	0.5027930723847444	0.9568476652782837	0.16775110321607184	0.0968315971433144	0.18947841179215896	0.556751786256843	0.5826387390685294	0.2953429512673465	0.0373042709183604	0.3575045159373689	0.9990968678998862	0.5080353604841492	-0.004944229020361327	-0.015706011985821635	0.881043849151158	0.5334609137417943	0.5801372513429114
12	0.8270073512178238	0.7263140660068095	-0.30478668135939385	0.1516607548937734	0.6024417861987073	0.3921793093316503	0.8895524717760075	0.9141004658508401	1.7983591511144867	1.0209763024302172	0.41621544852076653	0.9671196317097164	1.2629542318882514	1.8802967024060275	1.2776281801391671	0.48538499948023967	0.8267611840355229	0.7434841375653268	1.1572418183673077	0.5882787689615162	0.6455239041242982	0.8075266460057774	0.52678680286921	0.7038509827963113	0.592316745216275	0.5732097015213821	0.7403655629539073	0.927184698624965	0.7989196757172967	0.4232516278071248	0.29129588530428246	0.9964284871693185	0.8327326753572689	0.8073437789560682
16	0.9238014197867662	0.8548628070228923	-0.3617590358660499	0.23240296483968392	1.0552074882568776	0.8574941732691479	1.2619988886442035	0.9064981914521568	1.6264342028562337	1.5192285737781472	0.9038491226264476	1.3349051441821786	1.173632022755553	1.834713215964108	1.567667361116178	0.8091310242251459	1.123304006601491	0.7836229185346953	1.1944113939646868	0.7362369876393188	0.9055306888606054	1.1029331656266164	0.3487226954238811	0.6826374513557297	0.6317815764688697	0.8073605874658524	0.8497003295426402	0.7008795720524706	0.8441627600337634	0.5966384395794482	0.4193838824174148	0.9070928073869349	0.9634100770468409	0.8959172941476332
20	0.7414483409281633	0.7183858734113172	-0.5024291860293093	0.14778591655135306	0.9383298134955079	0.8368251302572147	1.1736308306626604	0.6738747937354889	1.2104693620637927	1.5467560252238448	0.9349691844222666	1.2262513606582854	0.8453469851131711	1.390997406308626	1.4253281318918098	0.7449272256163404	1.025395152364129	0.6425687654484401	1.0951796742445197	0.612576304319635	0.8325492122611134	1.0639932128745884	0.17108160214145526	0.562302647601471	0.4508022356572592	0.7149751168319464	0.7296913843805457	0.4601388860052379	0.6705617887733029	0.49831864111971974	0.3816623678108092	0.6676032526327011	0.9036522484852515	0.8516712763264518
24	0.35975846557385965	0.37673345113051976	-0.6753207428094443	-0.09992102508351239	0.3421660653058525	0.35532492309504776	0.6841819269072502	0.32585427082761137	0.7538356761973338	1.1590852708162669	0.5367844687260789	0.737562833354355	0.4385780084981047	0.7450698595309277	0.9616273617307547	0.3729839613557456	0.6295683368046577	0.4104891409046851	0.9490905380128649	0.30844029706328885	0.5063118325801755	0.7842589000928432	0.1375969495875605	0.42764070522104647	0.1673206980772354	0.39010137221073693	0.5042120205546847	0.3510369053560876	0.37710779810108647	0.21131232327515773	0.24604625937806812	0.3710543503929813	0.6914278251357212	0.7224406581758601
28	-0.059240139871280344	-0.02180254267611976	-0.8327456691697971	-0.42435109508187574	-0.44456988460831237	-0.3810470094597017	0.0036579018832032166	0.02124609047770796	0.45435827855790323	0.5593209252541101	-0.10432296965009248	0.08533130564603225	0.13464327122549574	0.1825663740793932	0.3866944005262997	-0.1285085525844445	0.10859096767903927	0.20955870992680958	0.84995937132818	-0.0477101280080721	0.07631564121051977	0.4006289531606435	0.30704197210038864	0.35682937412770266	-0.08591391869549894	-0.015881622170047755	0.29660203978040295	0.45027437692446104	0.08240381607469954	-0.13330146636686108	0.08756227024143949	0.1045845371824483	0.40575453536587286	0.5679882750475959
32	-0.34117889318157485	-0.30585250181225404	-0.9512259340111967	-0.685843942817971	-1.070001957099225	-1.073560473592621	-0.5995311125877394	-0.10250839565145424	0.4194954325098303	0.003158513448608543	-0.730889318528217	-0.4940149175569009	0.058716181517414846	-0.04076015938958317	-0.08313918837775928	-0.570743022908225	-0.36531105545318177	0.14050883019258206	0.8416247346609905	-0.34379181179031904	-0.30958151739159956	0.029788428842318644	0.6209142788469234	0.3802226176198947	-0.22201210204338567	-0.3677163412823751	0.16446171659431846	0.728744743414613	-0.1256889995739469	-0.4167595793215472	-0.04802537324820293	-0.08198098817631105	0.13866370881357357	0.43510433921633224
36	-0.3752381792131371	-0.3582970788969463	-1.0293050978422333	-0.7563046197869866	-1.2718650070503852	-1.4515374862262724	-0.9069276429166793	0.011589299858158578	0.6337447150442355	-0.3022107772349617	-1.1182190151592513	-0.8324179628336494	0.2344345444482403	0.1925635630991051	-0.3032918266745236	-0.8250796774060098	-0.6758220774753845	0.24310859976424629	0.9014178491721978	-0.5120787607615688	-0.5536129460662509	-0.2621587508258447	0.9411007738194751	0.4716902959358665	-0.22162562552763782	-0.5891894683267401	0.0902321336375422	1.0770983668789766	-0.21048493630195828	-0.5677792415588964	-0.1457904871597617	-0.17825461879071117	-0.0284604541238821	0.35372692257265415
40	-0.16187250573297382	-0.1697844560628058	-1.0704101297056163	-0.5873551353884088	-0.9844084357203267	-1.3799140418499143	-0.8334435203490655	0.31714469114340893	0.985037801162921	-0.2685913138760866	-1.1546977729254277	-0.8762744046975625	0.5829352125708936	0.8098707774695856	-0.2406742566707983	-0.8533490874679982	-0.7833340148221984	0.48011702177900145	0.9660274958062542	-0.5322175012502741	-0.622047661164466	-0.4550858128501948	1.1295995683760627	0.5732935652563693	-0.11623432457903028	-0.6651532037153944	0.022853117378472003	1.3723143304509497	-0.17689067080659834	-0.5670558199870839	-0.1986793423643268	-0.19562238405428822	-0.044281300045509044	0.3449146738880853
44	0.19120672296886382	0.15966884751538535	-1.0690548392961352	-0.2404249751458158	-0.35149770886368276	-0.9074961520171115	-0.4505012023995811	0.6904042345735778	1.3292735781487286	0.05804613963015428	-0.8688655473706869	-0.6797437054638353	0.9655668115079484	1.581990118800964	0.034611187787885994	-0.6943360549562595	-0.7136828285318337	0.752885876185236	0.9805909370460354	-0.4176511753981689	-0.530614493937732	-0.550442455809363	1.1263909311466147	0.6340456588949467	0.049854911737932314	-0.6147768481945418	-0.062462299904477415	1.5470336636585076	-0.045727208141271396	-0.4305688429928895	-0.18294689013067858	-0.14567699991639588	0.09997788791448455	0.4280813623587584
48	0.5278902040505061	0.4770432996626621	-1.009256479576201	0.14303867482788032	0.3538367441303755	-0.2348203951152196	0.060233902034079335	0.995974895823723	1.5626913269643126	0.5355034457038004	-0.3975720693564107	-0.3576221755058585	1.2524245945781052	2.2260501328532745	0.3938293447088015	-0.42440637838976536	-0.5286028967862861	0.9511016583271538	0.9410795545659886	-0.19941794821935743	-0.31924277463420553	-0.5480839596262003	0.9827237700446484	0.6431474669431033	0.2524844699683882	-0.460952787427591	-0.12739825216553294	1.624745484064721	0.16940267341282214	-0.1876191492112132	-0.052579182998706696	-0.028116291317882475	0.37100353743343856	0.620586214882908
52	0.7216856461423964	0.6554753167769382	-0.8831600524539205	0.41036987201079067	0.8551834800109742	0.3753083338798606	0.49117159719435916	1.1491245002344206	1.6609049993542864	0.9898871754449585	0.07780017684128934	-0.032236553647191	1.3731392587325586	2.5270225937938315	0.703848956238394	-0.12350280551723354	-0.301031022503901	1.002668139787232	0.9011903978483091	0.07986702749830249	-0.038830555877399434	-0.44569921381002037	0.8266040661922917	0.6347506030269254	0.4915278541552822	-0.2223438614953679	-0.08748387523259658	1.69726502466837	0.4636474240041159	0.12848627534851595	0.23621602296795055	0.16238906938561554	0.7049072963083539	0.9252566671852832
56	0.7308883648539031	0.6532562954621977	-0.7154026609478408	0.46813422323290016	0.9833022927253776	0.7034552675606466	0.6915668231669865	1.1425074310067425	1.6690205293478348	1.2764006820877618	0.39591035146891307	0.20122811147429343	1.3314950432538988	2.422694915376814	0.866453824239874	0.13762783969463738	-0.1044238281593784	0.9023107267486788	0.9343145466103513	0.36113425998109167	0.24540883240728825	-0.2603200667484557	0.7826842049864978	0.6574138982387185	0.7636963705808547	0.06856328976725154	0.12524121968120233	1.857895011979493	0.8203257301600168	0.4758141028788851	0.6846438629030932	0.4166522909612224	1.0291463110689527	1.3165610995431292
60	0.6032379850416068	0.521499870890981	-0.5698670730508174	0.317818283232315	0.7241483908490082	0.6510665996326126	0.6142264589060754	1.0287120316282157	1.655537124268657	1.3155424561664897	0.45839998010295097	0.28488713430956825	1.1829854220086713	2.011928076432821	0.8333551266610868	0.2938756339282929	-0.0102837597691653	0.7060722690875476	1.0764014693740223	0.566215036870005	0.44873419290735356	-0.0506043619129944	0.8936679936734232	0.7302097659748485	1.0285901997346023	0.34394052537865816	0.4967330383634081	2.1338729804523324	1.1889098852658082	0.8003030399143961	1.2268623082656906	0.6976717692880476	1.293428894592072	1.7434444383472494
64	0.4288766969343108	0.3563414207044809	-0.5331790433773631	0.035662155508363734	0.19315047513356537	0.259840040742969	0.3107462219498925	0.8690199234002655	1.6578736263379532	1.1001536818384678	0.24276949403981404	0.19228179704280204	0.9889397596186457	1.4890394173220798	0.6022307261520905	0.2825719409007254	-0.08267733433830264	0.4915227877604891	1.2867840495999985	0.6110345109771226	0.4775989341598555	0.08360204824559397	1.091259119139672	0.8151096681042469	1.198978778673004	0.5030854331666295	0.9096332765501375	2.4600310263512744	1.4846767149634046	1.0468368503843348	1.7444037154978425	0.9479061341195234	1.4987775049516072	2.154052013680804
68	0.2756394736960145	0.23003339709378204	-0.6799756867407154	-0.2839859120828397	-0.4367710042893338	-0.32470914639507775	-0.1092262637837738	0.6862675530273202	1.6544262129021379	0.682078061765925	-0.20614203758645971	-0.07545576225541918	0.7833611349355029	1.0461014482789528	0.20552840777004633	0.05739070088082682	-0.35893744139647393	0.3152498892931056	1.4552037679171501	0.4368669975695022	0.2645315819260398	0.037439051921018464	1.2384942738735298	0.8295587876356374	1.1726195782619544	0.4523300219082847	1.1908845871422313	2.7132100990457992	1.6228115517652215	1.1888838976407516	2.1213760322416966	1.1221501798908422	1.7129887299204194	2.533026927274766
72	0.14738750420551905	0.14440983497399273	-1.0300418112497973	-0.5819871410934899	-1.0103331778767053	-0.9222910380919712	-0.5305882082894524	0.45544814948486956	1.5814998109942795	0.152652024837369	-0.7942568639729352	-0.48485746857298695	0.5684480056715877	0.7925604561822658	-0.2970411173950323	-0.3818015148536861	-0.8226812461109483	0.1905930335478058	1.4604278765999446	0.04741699609109711	-0.18610782874326529	-0.24032919048190357	1.2178816764600564	0.6989859920973821	0.8950837827971986	0.1666724230611338	1.2086973159790944	2.790845863925471	1.5738525350889043	1.260915395414212	2.313516610980221	1.228585716960375	2.059139008091579	2.9284970686408016
76	-0.008597405605663518	0.03568088626793711	-1.5244082173960511	-0.8523978569444294	-1.4299308025497448	-1.383989688240076	-0.8709166624015191	0.13713219727225898	1.3844870293948262	-0.37381073738133763	-1.397603508281693	-0.9624821519393204	0.3381529143855801	0.7318480592370086	-0.8195378759673648	-0.9611401533655907	-1.3860969508461447	0.09835067366564411	1.2497357098497865	-0.46854978681522497	-0.7688868026394359	-0.6981011611479254	1.0141514514113765	0.42232870948975276	0.41956090821195074	-0.26277324490960513	0.9646584367238649	2.688093178638022	1.4091659748738996	1.3694181407686257	2.389616721795777	1.3523508276174416	2.674836390417708	3.4460303696412846
80	-0.2523269050903223	-0.17363558665782658	-2.041041845890566	-1.11871659473258	-1.6571589666489006	-1.6325846869257883	-1.0936731072469805	-0.27070048383078343	1.068613288088754	-0.780298052248229	-1.8865147781425866	-1.4005905354424255	0.10730110826819521	0.7903007248952464	-1.2577648131086288	-1.5351519545896901	-1.90234910961506	0.01892450447072913	0.8856699444344306	-0.9526576971797315	-1.2944599357347935	-1.178370234375365	0.7370021920670132	0.10505414727628676	-0.08185171315270022	-0.6368545277728952	0.619165120945761	2.521413796734628	1.2995057073208702	1.6615511137020205	2.5106835301906743	1.6389310318575803	3.6508066562031316	4.19888209236515
84	-0.5942732676760873	-0.5104778992162331	-2.44328641274609	-1.3901867831417272	-1.6932432608769492	-1.6685235458209524	-1.2003524273130293	-0.6997901779626613	0.7160909157793245	-0.9731768345104329	-2.1553816740930967	-1.6841944413578642	-0.0770229695282835	0.8738312699190323	-1.5106992683416127	-1.9303998898405643	-2.2119166795198173	-0.03807112564965296	0.5325084315206883	-1.2314420907400898	-1.556149955635308	-1.4721127711322106	0.5690383300719528	-0.06594296528141269	-0.37346327210549674	-0.7217674833194664	0.42674568187735895	2.4800469812720527	1.454442020558844	2.2566428127534524	2.8494343685688093	2.2351198139979784	4.97230337794907	5.234313951628378
88	-0.971678194930629	-0.9194201207789681	-2.641478293425513	-1.6333526331671355	-1.5662327965293459	-1.5525996645828704	-1.2162702052879775	-1.0256884072156836	0.4524599898358893	-0.9164734459626468	-2.1582419817793563	-1.7373912290577227	-0.15623298247946626	0.9135075784507561	-1.5205185374971193	-2.0206830450539055	-2.2103767339212883	-0.033185999756711375	0.3801274290024287	-1.1941730945954765	-1.4242571556371897	-1.4141811096726389	0.6636480672293265	0.09236771590038845	-0.2643477313996943	-0.36307042745476475	0.6050911530476396	2.726474993497782	2.0198962637448568	3.167137137999841	3.484919062398935	3.206958047399425	6.488506777593925	6.471746428362559
92	-1.278568741431348	-1.2875905004417734	-2.6362345152099924	-1.7844358637579771	-1.338623639541748	-1.3810743058621826	-1.1820210188586404	-1.1315532894175777	0.3770169904250004	-0.6630266888091118	-1.9381871174515186	-1.5686930378408834	-0.10171794865676109	0.8808075167352202	-1.3152474131755965	-1.79879879497324	-1.9075696420191768	0.07092170399402799	0.5414530025163244	-0.8578481652535752	-0.9231473184166525	-0.9758784746327013	1.0479733917480425	0.6531690938671114	0.28182232308760036	0.41510695114235485	1.2037067382939404	3.2957572853801844	2.98165892801891	4.250642288920259	4.3271942029420725	4.473546970516903	7.928426722536358	7.689132671016494
96	-1.4312088453397922	-1.511084552764468	-2.523250096626232	-1.7979881718063415	-1.1187230320341994	-1.2608641354198344	-1.1501290769149288	-0.9855471824558854	0.4964573370796956	-0.3561758986063575	-1.6290652710792664	-1.286106106372035	0.049476098144309026	0.7725473622844298	-1.0229436133307068	-1.4012806380178926	-1.443546053102833	0.2631912224800373	0.9820888017654592	-0.38088211321034693	-0.2449934476388973	-0.30336320323646193	1.591085668361435	1.5131475887242252	1.0981775494505739	1.3845879996628208	2.0472040124704667	4.051484097742177	4.129910935465311	5.227478490982794	5.1192121376489625	5.795483574540174	8.965704895271486	8.575547196671579
100	-1.4233684503858324	-1.5574543436782795	-2.45124744750077	-1.6945576625002177	-1.0482925150153641	-1.2858798471410386	-1.1797128886001855	-0.6785329563175696	0.707562564017104	-0.18643793416635918	-1.4161982500560348	-1.0650700303843819	0.19423867713048223	0.5947843178991014	-0.8374535420254952	-1.0626959773889721	-1.0443859073973587	0.4625730800870744	1.5250756702065609	-0.009442745684088493	0.3167078189006307	0.32561796821399597	2.05774211364015	2.4088036953191123	1.8629314852410082	2.185829157078968	2.7918667722786066	4.728687751275323	5.1133398880605165	5.767703995447713	5.525374875423549	6.8330182856657675	9.313529944747316	8.834790207491663
104	-1.3340946402245693	-1.4838635884014317	-2.5470051701136196	-1.569791909069188	-1.2517111269819452	-1.5115222892745934	-1.3208783831626003	-0.3927877535439813	0.8471797683307423	-0.31110677044522855	-1.4628581963798803	-1.0749938460865607	0.20893311447798776	0.36416044739334263	-0.9387671327731208	-1.0127879355609373	-0.9299532151585025	0.5437313900571114	1.9343671749867979	0.026406494833914232	0.49015536780582686	0.6151192172732672	2.22081970607815	3.0175173206438304	2.231245750515938	2.474041694116804	3.074422113285804	5.044685351032925	5.567716584453609	5.616467938548053	5.270725713773996	7.2584638412322455	8.816968895585973	8.297343233140577
108	-1.2757922378754307	-1.3945652211265833	-2.843367569420308	-1.5474903544456236	-1.7589029029307182	-1.9259425353062247	-1.5853351314573134	-0.30714660805402766	0.7878246287482387	-0.7664921860416304	-1.8273245050071156	-1.3921086753030125	0.022057058233958385	0.12038385092620449	-1.3967021668456754	-1.3593796457301888	-1.2097867696735483	0.40484094517538466	2.0346660562643293	-0.37622293734930745	0.152037381741997	0.3876416077363564	1.9760229537665148	3.0999529283458567	1.9931330630525395	2.074873442179661	2.6842164925516183	4.8250884887943855	5.264790521680826	4.704047191187388	4.2679309737215805	6.878108960905928	7.507993679164255	6.990898591511055
112	-1.3088748422001695	-1.3597758974076553	-3.2446882642841457	-1.6967560010032734	-2.4423744616833285	-2.4271380840057324	-1.9142156791041427	-0.48451772209862504	0.5309025631852041	-1.4164777958393258	-2.4085662304149267	-1.9386836241412442	-0.3240870825214499	-0.0563559977777511	-2.104308123044066	-2.013019079848035	-1.8133256389612216	0.04564735281863518	1.8045813991761697	-1.1261945934472204	-0.6003041252238798	-0.31836217561451724	1.3986082041714905	2.613816016273674	1.1814298599932505	1.0765352221965607	1.675394173206865	4.084397782504049	4.213907231182196	3.190634719422449	2.6724946431396845	5.7120232437877565	5.603146062055808	5.1391730178781065
116	-1.3787344659327874	-1.349617597033522	-3.546866169557597	-1.9613115737987747	-3.0181133670900793	-2.824457876703768	-2.1654999201460416	-0.8066304901738419	0.24045805572358261	-1.9736146877050902	-2.9548282548688776	-2.4828987058894865	-0.6602843387145646	-0.04790993022743536	-2.7840242315574404	-2.694814198365926	-2.490811103254153	-0.395745336010269	1.3918400967743327	-1.9519393394779547	-1.4683116637351912	-1.23853873893842	0.7139379364108284	1.7403912500309833	0.07449515890148307	-0.1881279195565702	0.362502931633291	3.022417537687733	2.6686296395636275	1.4231992924043868	0.8391193726334719	3.9968449968516855	3.4445042523203084	3.0901033800308806
120	-1.31846308375311	-1.2274395196442383	-3.508205404960992	-2.1481430476312697	-3.133289806084565	-2.878813021067267	-2.1383097117796317	-0.9997860168010393	0.1885482962139485	-2.098230356640954	-3.1422619740306623	-2.707864039260102	-0.7413603644726969	0.2663941674659234	-3.0793614309765807	-3.0317091865290196	-2.89146613344682	-0.6754821521870886	1.0442621681551174	-2.4965739187150673	-2.058750624227203	-1.970265979560774	0.19889050671907166	0.8094885924882507	-0.9115334130161348	-1.2641721931965166	-0.7995690087158405	1.9397164534233045	1.034631011258047	-0.17901734962565372	-0.8015450814990899	2.108987087647121	1.405702110556168	1.206061598593781
124	-0.9242222285778181	-0.8134652355636904	-2.95016717165921	-1.9986162135208736	-2.514906638471638	-2.38001846666254	-1.6360745388685765	-0.7507347445607232	0.6299486144373647	-1.5390629729513978	-2.6983799866259663	-2.3276836813332467	-0.3465129426313798	0.9529836749811851	-2.6989953449770736	-2.7022986343821858	-2.6913399628400296	-0.5437989221194713	0.9913809870485478	-2.457787269109015	-2.0333509393853255	-2.1236941760804484	0.0631059555606206	0.15672430356510933	-1.3933635914909452	-1.7484295324050978	-1.394930239970266	1.116018888516857	-0.2799472205723455	-1.2631136147079784	-1.890855665201329	0.4397566009385952	-0.2040786141965125	-0.2378938192083358
128	-0.06768577528792256	0.012027407034667629	-1.8425810290545952	-1.3124124970679467	-1.1101223202334045	-1.236181852080662	-0.5478954897398963	0.14147564733072032	1.6678839879841272	-0.25076317723858793	-1.518307920437271	-1.2036509483465716	0.6188101752870198	1.9777892778053292	-1.549100275896942	-1.5691721399743783	-1.7194540457228829	0.1363335844412522	1.3377003635965081	-1.710999007673551	-1.2369884221317262	-1.4724738560693482	0.3695178320615182	-0.014362650887168711	-1.1732652157725314	-1.4372967445324905	-1.2027113407287044	0.7106955033478782	-1.0030455563969967	-1.6472114282981611	-2.250457996408594	-0.7239775639375132	-1.2056648700791577	-1.1093184919959929
132	1.2169177501471826	1.2254685132557819	-0.33216306483328967	-0.06098787843684263	0.8596129395716293	0.46756297231881505	1.088656899564638	1.65424155771309	3.1828889766441537	1.5713366230392871	0.2806518964834234	0.590673504768611	2.0710575528307746	3.1999208846364304	0.21088112837478	0.2609289281932991	-0.02844677299529554	1.3142812218862268	2.023221249240612	-0.3602302661383881	0.24933949049939982	-0.03951991712009904	1.0277922127523642	0.3007058493651498	-0.30425420326663727	-0.385637878398001	-0.2621448331413248	0.727223871302364	-1.0680198642468683	-1.3513503040527681	-1.9093152236416617	-1.2675530878489305	-1.5668668707388655	-1.4137154781888293
136	2.7228212287822755	2.6464660100877246	1.2998275724018447	1.5698581894340111	2.968466512814791	2.4729981359987114	3.0725226324708976	3.527921667728596	4.865885245435768	3.5612780957907417	2.392823451676597	2.7821500231118548	3.7694992923933297	4.412554729765132	2.221817487829171	2.473752253962506	2.1172189659069773	2.7607300211822925	2.8665428089247844	1.3059891429352994	2.1479859297880384	1.9143226098365997	1.8530319882338364	0.9360296106547883	0.9564961766889306	1.1407266826439288	1.1722646922078577	1.0475810739771214	-0.59307074397078	-0.551031051675034	-1.0499670479014562	-1.244749185280467	-1.3734111751213374	-1.246498104763051
140	4.146396626494245	4.003117551233432	2.7351849010075298	3.2388632215742432	4.754901873981355	4.423169601717092	5.086782442601445	5.361910329632644	6.342928870399218	5.3269848689053925	4.4331765062938775	4.985574232865516	5.403636441893018	5.413677678745108	4.06615208552863	4.662952888160037	4.3305649648049	4.159877289759771	3.659060707390788	2.9326000139582016	4.094205845986366	3.990556706843758	2.653782599424721	1.6566082197325664	2.275971406912416	2.7887425352259476	2.7544846465184953	1.5090519151734696	0.20734713919264716	0.5178138004580877	0.09151510126135151	-0.8143746832313772	-0.7716302256175863	-0.7311105113644201
144	5.211478697016842	5.04356430687682	3.7317364121633543	4.586307990892609	5.910434231140821	5.983662590178349	6.797523958210216	6.775021059097108	7.331188183394826	6.601650698206702	6.074736102979416	6.832052213585687	6.70692060684595	6.074247821730649	5.430659757254478	6.473079665053529	6.232892020701449	5.239780412796216	4.259275902484887	4.235613335405958	5.76577375863618	5.797874436045368	3.3029789841229378	2.273120159132139	3.3889121923715537	4.256787289362508	4.186475266377188	1.9796003053276123	1.1287620039097934	1.6556026893777442	1.3209243979482506	-0.15411107203198085	0.09036471671892973	0.02659749605496959
148	5.780103192041164	5.636176571921145	4.2002320183566155	5.379837976224343	6.393116934847701	6.9572529617131895	7.963038424414304	7.5527190971421545	7.749538402065156	7.330157738298551	7.15283439737662	8.085709551423925	7.545027713799757	6.37258814156457	6.213974937008976	7.708672027198851	7.572844009353307	5.877687439383899	4.638584125251591	5.097395407204776	6.978270989919401	7.080325108771847	3.764981260330762	2.7123155525392684	4.189164627942663	5.387268052804705	5.311384187639849	2.397538179066427	2.04999708611759	2.756328098967454	2.5360300476895468	0.6081610306644006	1.1013449402659412	0.9530384516495953
152	5.892961010359741	5.806561932208737	4.210996617175873	5.597061619932498	6.408525927576131	7.339810829704843	8.506122567635433	7.710514049136339	7.727643470327222	7.651316146606356	7.69182346309344	8.701508500064495	7.939932326297592	6.381897910217823	6.530631048880394	8.366224267817744	8.287040689526453	6.125419124396864	4.8607435103718455	5.57987593195709	7.711399535736887	7.778726081282235	4.074302663053218	3.0150251312427736	4.732655036421556	6.179906352652852	6.127517684724817	2.7639248301341874	2.9456438943879153	3.8068690203873587	3.7176284696177966	1.4171417915804472	2.194005960647191	1.993890161248565
156	5.723454460952499	5.6980485772275795	3.9318466087253854	5.405429826440492	6.271658881565486	7.292483788198356	8.519615151829884	7.449133377341428	7.514130573374835	7.791303138135247	7.848234156820856	8.805039383592167	8.022069910776494	6.223354800724307	6.614006025781709	8.584252335809756	8.48331067804459	6.146368964889625	5.016252505035375	5.85473822069184	8.065060595177231	8.007535914231157	4.286597717906629	3.273461810430372	5.1616129744864905	6.732173902680629	6.731045229130012	3.1029784601070167	3.8435768984074734	4.838106143180464	4.87805699070533	2.2653393688228043	3.32387303466833	3.088643543074727
160	5.476257787229686	5.483954892617968	3.534969797746202	5.0576338640312395	6.229809268481449	7.047329408018971	8.207120874664755	7.034197312715213	7.338876228877124	7.931390265467108	7.808276156738635	8.612402894210362	7.9457373418469	6.01771877676839	6.67761848671119	8.547491052028057	8.365491845944593	6.109971984695874	5.159133421270094	6.095174297202717	8.17936418375583	7.971439818283473	4.437971580744661	3.558170309619999	5.602663979690083	7.151868802133697	7.231637459616627	3.4233062180873293	4.76525686968275	5.86453150222229	6.00674961480878	3.1479961792621567	4.441111553423502	4.1555280580507805
164	5.286491857533018	5.281691537873507	3.1256184499027615	4.761210906405612	6.342367633065431	6.794444543850315	7.787127475151404	6.666411859847395	7.305218201313177	8.11971090174091	7.6948861881528465	8.330304124780993	7.815980414684271	5.852090343959023	6.8102125949579655	8.396119096538653	8.138699511006935	6.106791480858689	5.2819771633305495	6.386497481434238	8.161696413414694	7.8664340774292025	4.532935131072529	3.878778686267206	6.09540270220092	7.491260986487996	7.688984851497824	3.7047767545623533	5.686509118028199	6.84803770243693	7.046084386202046	4.028113355003331	5.475352273468545	5.098677622319948
168	5.172254549319242	5.114572035274203	2.723304026403737	4.592837322083399	6.480959399072941	6.609164698126696	7.409558754333434	6.41083334257885	7.366470318315513	8.271776178456593	7.531235675870712	8.08405778751208	7.6607394025029745	5.774404988015023	6.956826192457675	8.183852175077506	7.939697245579191	6.125249370368972	5.339934812415177	6.699651224387497	8.055395106004855	7.812137584036014	4.562355029985067	4.196976174248625	6.585727675023026	7.735035876772181	8.099898317867593	3.918526639581769	6.541029436763076	7.706650237653174	7.911738375715699	4.8359737274143635	6.347141726681307	5.837798580689443
172	5.05826615010142	4.933314787807029	2.2984003962661887	4.496738422484717	6.44143675131506	6.451843245429412	7.120970708034461	6.211601241641433	7.390065651355306	8.251766184000278	7.27242611002634	7.900782088359327	7.453848819986993	5.802906021726024	6.988372308253273	7.897272566883813	7.816950301461607	6.096450313434847	5.306665407134185	6.935652238501124	7.857887725064305	7.838788012740701	4.535133350366295	4.477702129502994	6.9801311316688555	7.840068320507244	8.432516076732405	4.062976826900173	7.26156185224127	8.36126706873358	8.543208100683891	5.503777490071583	7.001791936362702	6.34525821991116
176	4.849585044060906	4.6766219021025766	1.8357460452461682	4.359549511393098	6.095087512840143	6.2315144381548775	6.887176496283426	5.974458202536793	7.26671836925706	7.980861166831463	6.878075582304938	7.745946864598637	7.173901539810003	5.939906105303471	6.812446577038507	7.51576803217197	7.758800010165552	5.977428898024898	5.222746359036734	7.010442716064982	7.5694079207999705	7.923536280654174	4.502759445266147	4.7404599070073195	7.223927479625106	7.796823481901827	8.67952153875526	4.191483963874307	7.831467608706449	8.792589165422916	8.953429199501699	6.014556392743172	7.447990398676101	6.671396715486665
180	4.507931697908117	4.3294110188849615	1.3760187591143875	4.108015050053064	5.485644803502373	5.888906464013776	6.651161653892245	5.659751400963187	6.9957041563792925	7.505646209840348	6.375295622942012	7.5816402243884715	6.854029638151782	6.175127490665405	6.454522116577433	7.067425710000704	7.74138591719194	5.810060486429641	5.204238401624965	6.926478845274773	7.2350854690988875	8.043168047625082	4.5570602301937475	5.072113501140677	7.353582840473295	7.669469337173316	8.890905357801644	4.4095587619077055	8.311849573130807	9.071699119552216	9.244029975440364	6.433009131402256	7.774929503838208	6.939835530879479
184	4.085252274689392	3.9433286090473483	1.0020080779526557	3.7658269310287	4.8121423599818565	5.443942056262692	6.3841500121103305	5.323888288407839	6.692571146280373	6.983605844031908	5.866454109639311	7.404624443432806	6.586677057802612	6.47605894361046	6.05723045727166	6.638993246482782	7.7576527399658115	5.715540394657783	5.39851616450116	6.783912641563673	6.946115476237158	8.201950052534254	4.794400203044229	5.585113988126726	7.487408619096599	7.5817370223313425	9.156975723035643	4.831051814279817	8.820054031991758	9.336476302416433	9.566036200213315	6.889351350556499	8.125414827812936	7.302360516231281
188	3.7003164197957825	3.612808933673334	0.7830238918562151	3.441236010446236	4.315634716582097	4.986461149977535	6.105974181971592	5.091506945152993	6.5233015849401585	6.600009901549467	5.480968938340839	7.24880502778007	6.485539419965919	6.789572221780097	5.802856907498853	6.337740882131067	7.817384223274477	5.830653652728966	5.913206562371614	6.729403001961306	6.801648599618259	8.424213388154733	5.267447935156783	6.349812014760502	7.764379481739599	7.658536414837639	9.55508992643724	5.51703213252469	9.47249124042752	9.726703619241261	10.046723340418154	7.523171882708698	8.635639168870934	7.873037795216485
192	3.4725196273869057	3.4215304765146644	0.7158958893821118	3.2540492929317764	4.137837399526109	4.6168827893994	5.863375172116567	5.074046598975152	6.604339106097863	6.464638216863172	5.297784315085074	7.15192220789528	6.62037943122216	7.055367451974507	5.805077538138998	6.225496276396391	7.9203533926312035	6.2199449382146055	6.7522358723870575	6.870118123828935	6.850451452125659	8.717027642176191	5.945940479525297	7.336413841798381	8.262756326794795	7.953326682037701	10.088505719463054	6.425713522900168	10.31793782490186	10.307270977699787	10.716959926250382	8.409474351631888	9.365176177221903	8.667518593839276
196	3.4500522526419943	3.390440932296893	0.708454189896048	3.252021542921637	4.237264622480646	4.376698959744575	5.683929905845989	5.286483274464192	6.928173524530749	6.549858076724917	5.2867994174992825	7.111487847493217	6.965383035240026	7.231955033163188	6.036073192615604	6.26722477284255	8.026024798156646	6.819130403468165	7.793786982886056	7.204455357481885	7.048853379572741	9.032337165916244	6.7085537741086725	8.40446851515771	8.945239044493078	8.404969194172558	10.657272311960162	7.4039406589496695	11.298075647439456	11.021635027715039	11.479127854929121	9.504908537708955	10.252710316521622	9.577545141834648
200	3.575883617909628	3.4598472031024943	0.626405773965505	3.373260489530211	4.419966686533528	4.222490300008182	5.547556863129996	5.620931134337566	7.363171082026235	6.711715204459577	5.315557943275063	7.07134006622251	7.397819023528113	7.322515469183324	6.339070304124781	6.336876853202584	8.05569169871651	7.453299026744973	8.828792549730926	7.617242793878662	7.271667938946711	9.267992949928203	7.382167797523928	9.35517213366806	9.66896436157454	8.860028244537318	11.092561693795732	8.237706163588998	12.265356032875726	11.71189495944398	12.144849746558881	10.652859660909291	11.132513018157756	10.406143162203577
204	3.707626333412581	3.5118629843737548	0.37596177959888344	3.473920813372748	4.458549011417807	4.0547108547835915	5.390749440887957	5.890646919636824	7.721647243077957	6.774879915298637	5.215547548477516	6.945511800396397	7.7482919497367595	7.374121170499565	6.5137028529697645	6.277537330036973	7.926861742987087	7.9167518415843885	9.63797948311273	7.9373030462138985	7.370716076361434	9.309762931207022	7.808955172850202	10.01528451298288	10.250378582823895	9.147895789892065	11.237309427500103	8.738573052278044	13.046714749775056	12.19495579501636	12.523760763973804	11.644950837298545	11.804738968608985	10.949124308598794
208	3.6823789980423642	3.4222893628500284	-0.031991720118813634	3.4066173944295133	4.225764740765296	3.783034076676174	5.1434168685754	5.9224061816416	7.855100611881644	6.631655676310878	4.874115454765574	6.66851328119829	7.879686335696524	7.453165512341013	6.427815897925377	5.987553104542306	7.604248504513277	8.074020365357246	10.073265050251043	8.028742769951542	7.254897576135049	9.097098327556937	7.914732913061654	10.313428852745275	10.554362270410902	9.173008895602585	11.035364123139361	8.82995507871969	13.52539726657187	12.360068290021855	12.523031203123596	12.313604323769535	12.130711524853854	11.090466471327877
212	3.3936216745526564	3.1160516660218858	-0.48209112760897826	3.1007876317891836	3.762634029425433	3.3858990583764754	4.774840819701278	5.6463985300557376	7.7217221065116055	6.296311839419503	4.299223888986812	6.241142734029006	7.751823882558653	7.602581958649564	6.089151843909817	5.4831991057241245	7.135202866659417	7.925435999887658	10.108263943900473	7.862902144607309	6.946641427621328	8.673590638196504	7.745979289525313	10.3081712462522	10.559728595775772	8.972860313649416	10.578804943078683	8.590821244484578	13.698533023581033	12.235033958062145	12.205510108649381	12.609909979454542	12.105515449478016	10.865598651155867
216	2.8428220677127007	2.600663416972164	-0.8264473059769282	2.5950784617708105	3.2409105219078196	2.923329584370401	4.316237915585701	5.130790220658061	7.391928654127701	5.882331356455914	3.6153483299529334	5.737452492533368	7.4374379923917076	7.805820922217245	5.6326913691406375	4.895203578033866	6.638498766350974	7.601623992801152	9.835157369577795	7.52608583457512	6.575901014891587	8.183026293121584	7.451862316390934	10.150514577033547	10.362483952108727	8.702760674438775	10.077455495186754	8.228170374123328	13.676084483903823	11.97911068752909	11.768889397471469	12.623043982106928	11.86444184168823	10.454159710239084
220	2.1420166438381436	1.964809174345364	-0.9899076198380649	2.0075828978396655	2.848320000132902	2.4962246354975655	3.84731649381124	4.544197547883694	6.992549878585743	5.522383675937693	2.994451515266885	5.2682432995346575	7.085026246302702	7.978610018613271	5.2354974614520495	4.399590957977794	6.249557002501414	7.2937397772698915	9.411879515727035	7.162575703656957	6.313117011343627	7.807904223756175	7.22117612922922	10.003104184644492	10.118337605679239	8.553989388803643	9.762850736764745	7.990491846891377	13.622226680695075	11.803544014693545	11.454198808361202	12.53025910074939	11.61761185573915	10.102075551276938
224	1.46408974754712	1.341642018745553	-1.0387093994618615	1.4646263085580333	2.6666328839686932	2.177139038311236	3.452097407208364	4.0670533077553594	6.625948889215912	5.278971658729983	2.559762948249134	4.919077383973346	6.845595819355936	7.99671886332463	5.00747870134659	4.118267048928547	6.0484118308901165	7.1563129244369295	8.987271286208246	6.8856754129131925	6.273848994627583	7.677403430628627	7.199161034527723	9.95792004932156	9.954812978406553	8.64644239149991	9.772313093308238	8.059403399146591	13.667569125954131	11.858487099271624	11.427170724628171	12.501820532705956	11.54362580245915	10.007228826052536
228	0.9674495434177153	0.8562364556629178	-1.1562199563398585	1.0344465944875776	2.6204864912629358	1.9609579990468597	3.1725606838235505	3.8048458003302112	6.318447097084564	5.104557024465748	2.3214816988507363	4.703010070370914	6.803708536136496	7.757323722327482	4.927286135631087	4.049769868162765	6.015449031901074	7.24208639223795	8.642248131866944	6.713815672136159	6.45144317905469	7.7984204095406175	7.428310852369585	9.99689767220899	9.904637311724152	8.958347297938987	10.078262303656397	8.47494886165945	13.84130760512974	12.150839774925107	11.697626084357935	12.613591162306575	11.700772255919816	10.228785489006341
232	0.7288370114044923	0.5776668772417877	-1.5328162869854185	0.7050631028494034	2.5279827054094492	1.767036314317654	2.9867851658752302	3.7497768307426846	6.023327812246173	4.8760247107421995	2.180582279421927	4.556718337952179	6.94723699723042	7.238424759709353	4.860947596675041	4.07048558161144	6.043008789064158	7.496841888573514	8.371264436567225	6.569252474411546	6.717016203133937	8.050309160888302	7.842370967138393	10.013120625964417	9.896349881935505	9.333269095698457	10.503526661103214	9.131550765824445	14.058880770473976	12.538990942768361	12.119978874124117	12.813194242552138	12.002510040497356	10.666882488022324
236	0.7122172695297967	0.4927466201262499	-2.231653207866594	0.4140431870497342	2.2179810944825333	1.492308851289045	2.8251972127156955	3.806111326144887	5.669602856626791	4.480006683482771	1.996544832910869	4.383851040262407	7.185228329637362	6.5235771968169045	4.649083125774401	4.0071663755335125	5.999495967976508	7.80890605862303	8.108872393162319	6.3385252792543305	6.88902710128974	8.250141122969223	8.314336755741715	9.880186055987545	9.806062673606329	9.562873816188096	10.817549678193684	9.845382665572485	14.172734224776368	12.810208288275009	12.476171462030969	12.958586660092772	12.271972625266248	11.12443825774113
240	0.7926614860549049	0.5173536526015835	-3.1143362443495812	0.10846114131246565	1.645509596484831	1.086234209179214	2.6189830237069174	3.863534917613676	5.227018819963447	3.901643027945319	1.6822560983146624	4.124617089348305	7.406019192117029	5.783363327683568	4.216050137365751	3.7446658516753883	5.814906582456223	8.08478544101366	7.787964324361939	5.961472019403076	6.838946802038739	8.259092310080414	8.737170197362152	9.533656096230125	9.544110274060177	9.50555608256816	10.86707780001688	10.460884067827088	14.063071215409686	12.804168668844456	12.601589171064905	12.911568609064021	12.350862471868828	11.423314065702362
244	0.8197078088091904	0.5367106781760332	-3.8846554658086427	-0.2085330481032654	0.9319090819672241	0.5961300715654424	2.347610944542823	3.8684143922412493	4.740922915886766	3.2569436944747614	1.26433372178345	3.8041577243126614	7.537252407117728	5.214502798266531	3.6288838294915133	3.3005955135936773	5.531474576335883	8.299450853374514	7.393415432383225	5.48682592914026	6.567246897329207	8.064660051965351	9.085470176646353	9.017039276245395	9.121098495343022	9.168527580001108	10.663722965020048	10.932948084884753	13.712782825180797	12.50750252426876	12.478227583851949	12.626631704876191	12.194539039341143	11.504246682685526
248	0.6902219635703148	0.457843809163956	-4.2362189185953465	-0.4761083412070759	0.3063308886900135	0.15349523684371635	2.0579957910076736	3.8496990106661864	4.316051949094471	2.7466401984487008	0.873058555306115	3.528834334047093	7.5774693297762	4.9619788998257235	3.070230237838624	2.822262518432944	5.287356363298658	8.496267297274573	6.981478196637378	5.057152735339827	6.2049164615374615	7.79053829133542	9.42160222535825	8.465418794239666	8.653028466312383	8.706386544180596	10.378139469647326	11.338642091734009	13.224338498105896	12.0652103119455	12.243244140231358	12.184785812131881	11.89960095262241	11.454784364389996
252	0.3969424654952379	0.2520967119527809	-4.0222377675547865	-0.6152401550972112	-0.01445161454456167	-0.09162059403175701	1.8456699801576362	3.8895630738284788	4.062530030484065	2.557074540357972	0.669928370214874	3.4321584614884415	7.589115123661592	5.0591502061904965	2.742567293872192	2.507731669770271	5.2415537701830965	8.743282296040569	6.6566037963650775	4.832690226751267	5.940189823411886	7.628208617978173	9.844910596787056	8.041845301351566	8.30432508279336	8.337916353155327	10.244405720595323	11.81561848518308	12.771631208599457	11.703556031242377	12.109808891239636	11.755078286056143	11.650209397465932	11.45239541023343
256	0.027537753735992005	-0.034480575385061385	-3.3528869067416833	-0.5849795326722386	0.060227781382134415	-0.051704738158575896	1.8084604694483584	4.058793057684661	4.034508694953005	2.7599513461049128	0.7531242947637355	3.5987658409811285	7.657136420944688	5.4132213455858595	2.7548909117762586	2.4922599729556953	5.48005817937097	9.076360679599041	6.5144181087052635	4.894138800662287	5.907989487036885	7.724664668607448	10.41225716823062	7.856894950103433	8.196206072141042	8.223403909901963	10.424145672228926	12.460913626681307	12.508745161899899	11.602521867068752	12.240517585367636	11.50132080989018	11.609620064987844	11.651724785950876
260	-0.2820053689512434	-0.3055887810621112	-2.5560393268901267	-0.41681197180417257	0.4522784340883618	0.2500163012391156	1.9970009276515388	4.359838474710239	4.1994857682059115	3.268810740801001	1.0974626513429426	4.011092652684244	7.839212874647587	5.843773350266643	3.060397140405564	2.767912142441015	5.959010585998645	9.468735670978994	6.586837751924521	5.185448633453411	6.107932552175388	8.092535952163527	11.079497309368266	7.9167156019604565	8.335083940442752	8.373966195898783	10.90885541069021	13.252344098010774	12.488784758507911	11.791964501172975	12.647156683462065	11.490247697430343	11.821001023011286	12.083173721323973
264	-0.4173375655604749	-0.46410700561649626	-2.0166325518237755	-0.20466016181295654	0.9610482430035792	0.6883342248703995	2.3847165047518746	4.7127742648347875	4.454593647200498	3.874419917815076	1.561163421503998	4.5478353385544406	8.132377603979439	6.157347186755218	3.4792244346514716	3.1817872443929067	6.5175237491088	9.839557622862584	6.81684778399761	5.532633767464548	6.398264868794665	8.593861558197604	11.703079194085378	8.12611005638784	8.602348305917877	8.643510796658678	11.515406579507935	14.039961779432875	12.63683029799009	12.12988755024656	13.17219158661646	11.652454346801084	12.173362701198807	12.6203851381195
268	-0.34408187779338617	-0.462442754531602	-1.982883329153552	-0.05930951595233344	1.364823218714492	1.0939067574539103	2.8703753875741658	4.992184626372996	4.676341521854261	4.338264931216123	1.9526978681854514	5.034452425643722	8.468535401897812	6.22370718338333	3.791397085154205	3.512806645107456	6.953422051993858	10.092925046234122	7.078771573314343	5.728454575380793	6.56905172596845	9.006864524989345	12.105105369522995	8.340475061339786	8.810646034884163	8.806921936688	11.977404564181347	14.614591561612446	12.789857832088597	12.374845473517261	13.562996830075573	11.81824013587226	12.453524558096447	13.037438359722792
272	-0.12411244927303763	-0.32702919758245746	-2.4467885432456704	-0.05628946409318855	1.51693987463384	1.3264228072056088	3.311275712236146	5.093046175495787	4.7761592744403805	4.493782508948479	2.1193110889333115	5.3184361323547105	8.739869095670768	6.025301441238992	3.8458614252266567	3.5838727860565713	7.120327454709669	10.16499993618887	7.237078648415144	5.636049733237384	6.454143984711933	9.139977432062935	12.16917034891447	8.438309648189945	8.797173477850308	8.681244828240656	12.0824260406618	14.819259606139653	12.781497923052086	12.312321631817207	13.599141086576115	11.808155983676041	12.455567328477033	13.124442067388872
276	0.11810269922002309	-0.14393445813078684	-3.1652004638866886	-0.2078037554739574	1.3880237305882894	1.3235025372468563	3.5714611916970385	4.9850950115227315	4.731976497147146	4.305445660211338	2.0090300986111584	5.329204069034067	8.84241483363208	5.656282887483174	3.6266784576403923	3.3461315547384753	6.991415006152085	10.051033948317427	7.210928898725307	5.254302965249785	6.018671497408075	8.92792794834538	11.910335510700778	8.374776819065682	8.502961137284528	8.221581438287913	11.777839630908344	14.637313805817772	12.52332779583525	11.864121407118727	13.201803174066113	11.525457353103166	12.086111038211088	12.79594322788622
280	0.259303896964568	-0.014238370546512927	-3.804121246270151	-0.47262307882192395	1.0438033316007949	1.1058070631718506	3.5672883897361385	4.724205005162372	4.582178104275839	3.861414661195079	1.677558298643906	5.096066938885377	8.718344666403823	5.273346887626021	3.2407286085324243	2.8914477752162755	6.658675176975082	9.803187345549624	7.012721520838281	4.708249557052022	5.374041066906704	8.458412149054718	11.477478952040217	8.189114549942149	7.994314173541883	7.539624671973799	11.1887550071515	14.206118547812197	12.038536041382962	11.121616335446008	12.467293707841957	10.99840924347192	11.407772989081442	12.132904975776052
284	0.2371014499638535	-0.0035822095724650227	-4.118153084848024	-0.7888048867337398	0.5892156943703751	0.7502355556619896	3.300544730436457	4.420685280129126	4.392281521198153	3.316701165408483	1.2485823599762946	4.726041305053977	8.386865594669926	5.02491997403815	2.8440797257142862	2.3949921070666296	6.278364642504366	9.509013151956404	6.740590555338822	4.176328648513401	4.718971240527149	7.922387103105805	11.087274523398925	7.968804339316738	7.4202637485080665	6.841255647552929	10.545579883653291	13.752309764473091	11.436020822262076	10.291235897784217	11.613694161657245	10.353912327374509	10.601954433376681	11.339997262934201
288	0.07534364591887974	-0.11213310779632456	-4.063405026667158	-1.1040278645297974	0.12090279131405064	0.3540552845598927	2.865699283994053	4.1839947594864775	4.219151486234874	2.8243465352276087	0.8550922849046981	4.356885422196943	7.946835020982313	4.9939570300855625	2.556719296676008	2.024714941634912	5.995415195586909	9.259683585630336	6.526688559266324	3.7995676898393866	4.242153157014203	7.517204265688853	10.91977688893412	7.79480646072772	6.933133107800697	6.320901854768796	10.064278577190237	13.481826748188222	10.844380351343716	9.586832975978679	10.872683497634561	9.74090859814827	9.874238942965452	10.64406773740854
292	-0.1383032646263656	-0.2823104851270783	-3.7895061874081244	-1.3882189954040804	-0.28944441603062143	0.0070203146720010465	2.422784799180908	4.071276654454901	4.0881757632989535	2.4867010053793983	0.5912852272363963	4.106894005896959	7.544679145837991	5.169644819558986	2.4112873016513428	1.8671433878487824	5.88530825082706	9.122944808814923	6.4658827618429395	3.6209163574352132	4.038092126187854	7.354236107378384	11.030787440106481	7.696413974403872	6.614507181633715	6.069439395839469	9.84379956621125	13.481333698567886	10.343592617622733	9.127789474330035	10.383552525053581	9.247170424956362	9.353407836187161	10.18769452383909
296	-0.30677971166403906	-0.43760737666271043	-3.523844710036253	-1.6241127211573831	-0.5845239147687258	-0.22100292090408027	2.1425843184735514	4.069177617289791	3.993590106418009	2.3435525834996023	0.49447888011066116	4.04200648240966	7.319703083631342	5.459600911661389	2.361549609897646	1.9070562076103779	5.940609916947203	9.128231025537417	6.562648279787107	3.5853314309198323	4.080051411818001	7.419901829105904	11.328868837364153	7.639968852781245	6.446203692373582	6.0443801727276885	9.834484075512112	13.68451305749094	9.932807897285352	8.896848656126483	10.143953297753237	8.858112312840495	9.038830734320259	9.973977063746352
300	-0.37479397559907	-0.5248674737076434	-3.4271192464132736	-1.7899028017629732	-0.707232056262659	-0.2835246019357653	2.141652101831618	4.116875638104423	3.9189362426996315	2.3900697170949265	0.5553145990656473	4.166837204903332	7.3459048085712935	5.73682926636917	2.3381998479937076	2.063808435951494	6.09979484925404	9.258541083802164	6.725120527454297	3.5939996151783427	4.25836657402649	7.604706268183995	11.629381150448205	7.554241161347297	6.339260085313266	6.11379574185785	9.888634656735258	13.91980358424064	9.550191855160545	8.775497414367436	10.037911389756808	8.479907014417929	8.821532227178455	9.887680028746946
304	-0.34885415346760135	-0.5356734381502707	-3.508623352729102	-1.8536648703504637	-0.6091974362251384	-0.16464655059730027	2.4307305751465647	4.150031079304894	3.8578717611185747	2.600422375789301	0.7377404551953373	4.4322986490878415	7.59548423756763	5.892963871382682	2.3088865221857584	2.252143854177165	6.28992746672444	9.450306868535288	6.809548837635423	3.5728442578709148	4.452281463826209	7.77308748190072	11.752238243949057	7.375362854456391	6.197117312997582	6.140105231995283	9.853464101709308	14.005070650980928	9.126273132170777	8.626429536020652	9.914090131524505	8.007332781602276	8.558438279478446	9.770756696827792
308	-0.2772370569858958	-0.4962334024298398	-3.6426865962565915	-1.7854750111323676	-0.2800786488137434	0.11199238123036516	2.906469337754644	4.140587796247681	3.8251771830303443	2.9408824369566995	0.9959034298548177	4.756418216140612	7.947926024397527	5.877543434562485	2.304603332423013	2.430863374294789	6.45953129091171	9.608859037934787	6.697924597042003	3.516078224841628	4.59385107787918	7.834064463863466	11.61164662290509	7.086523038138522	5.977609142470244	6.056510433164592	9.652984594769181	13.838382686008709	8.638859727029308	8.374015786963112	9.668648695376607	7.3968424610305785	8.156814554601336	9.508152937725178
312	-0.2067632222915793	-0.4362025845958684	-3.667328825274576	-1.5814751346714047	0.22247527483560464	0.48014476774107434	3.395642272005441	4.110358227842558	3.851064433865254	3.3670575533733866	1.2823026147892305	5.052052008271406	8.24392698113921	5.707835659874989	2.395116323146028	2.612430327495434	6.5884222817972296	9.6400279755392	6.36472080531124	3.4801635654321816	4.689478862366747	7.77565381947969	11.251152010167791	6.729608518775973	5.717375264037916	5.894327625651701	9.315943694436045	13.438168491767687	8.135418871366781	8.037810305329039	9.289153075607201	6.7005252668962765	7.621570567915588	9.077237106293605
316	-0.1452663239149303	-0.35879987387667966	-3.4962716014327726	-1.2796385255930758	0.7720775584754962	0.8449304678565323	3.735260000335	4.113576878652303	3.9638819594440644	3.8167173766094424	1.5523899754430799	5.256098257145887	8.361556032050721	5.451871858183589	2.632040017158449	2.8355586457187103	6.67922352058165	9.492653822774075	5.899225696928396	3.5382165819482094	4.794727790171088	7.651903133146622	10.807919474970927	6.38708828267176	5.508532987038336	5.751974568149779	8.942430473638353	12.917138067057772	7.71199176748588	7.707239608379226	8.843413330638835	6.043808444976446	7.044440251684713	8.54195115793804
320	-0.05315541462590824	-0.23296531976055873	-3.1728541770936833	-0.9476630663787431	1.2196431129180116	1.119947311434795	3.8564076326280086	4.205163945071458	4.1743316544998885	4.216748226963597	1.7761576130846028	5.356812940424322	8.282630899498523	5.1972370016487455	3.0032613201610245	3.1282184045013	6.74885557378109	9.197444892550168	5.476092324736207	3.7312564755648348	4.969014632077247	7.543318252591915	10.43687340962355	6.148941024514479	5.448903546881269	5.734142288989479	8.641875245210171	12.41605755532239	7.4677114298152745	7.4857864190884875	8.43357656256957	5.567597375164359	6.553394301081223	8.009436587138957
324	0.1285217550132289	-0.01616299334558019	-2.8357677388120544	-0.6490080340212022	1.4667729102295546	1.2704154220931074	3.824007501484225	4.412311065977906	4.468798626107505	4.508566368164083	1.9530010174080137	5.404213414852987	8.107306459938734	5.022584902480325	3.4296712788775334	3.4860043437682653	6.825773698739479	8.87344739580959	5.28453062630628	4.046528806006641	5.239473329667109	7.5164093781481345	10.237477276704125	6.082001193903456	5.594686970890643	5.89714668692388	8.480575540112042	12.037996261721238	7.459811191798112	7.439056377702563	8.145154932438391	5.365544305606135	6.251789554070485	7.577524642886412
328	0.4345767487044349	0.31055533807548125	-2.6236007147352978	-0.40771096841871834	1.5255459508526514	1.3376417126261972	3.806869497224516	4.7239150881709175	4.817415225263954	4.680750835045033	2.120462412248886	5.494140134291471	8.004974345023758	4.985277163316705	3.80977200499917	3.878539790851549	6.950538140868326	8.689957596773345	5.449341283391394	4.434263695011836	5.593812928381863	7.603536586637876	10.221470807017974	6.213581069517294	5.940232261918859	6.2291269145097825	8.4662999893058	11.818804711066148	7.681944827711887	7.574290733287643	8.018339136860131	5.448984609197959	6.179592116966389	7.301958065670774
332	0.8432714917826873	0.7172775250445171	-2.585028641849895	-0.19713205049334775	1.5196109971780605	1.4209239447004758	3.985163678598097	5.097927080634831	5.185932623167765	4.781791198101699	2.340489143184461	5.722393021441018	8.12373159264873	5.115132795770834	4.078922261430227	4.270134438224074	7.1663608370092176	8.790872551657719	5.977311596084276	4.841817843610546	5.995174392822624	7.803029040663015	10.331612560890283	6.52927301665726	6.426475031839896	6.665676576951302	8.566898324317927	11.738766640589514	8.070110300669851	7.852344016277032	8.046870211312024	5.750707134986476	6.309375747009811	7.191553574524957
336	1.2803126541237835	1.1318207950626542	-2.65037583635654	0.0400704107166935	1.6207127530186893	1.6241249997141758	4.445808399419944	5.48199366139123	5.54892920046784	4.902238833448232	2.666459076824967	6.129754050991144	8.50342176197819	5.413975701968233	4.246141422995343	4.639190185278138	7.497336845542479	9.215047813037952	6.753578168984011	5.240997301220879	6.404279215855896	8.091035822467607	10.490423176028877	6.981157762067874	6.969054204511763	7.126304608472654	8.742650963644701	11.75719067466165	8.529735543650034	8.216745355841626	8.195792177488766	6.159450992291899	6.571266157725554	7.2235536392940185
340	1.6553927618193753	1.474472280594332	-2.6769187382823234	0.34729197533662726	1.9513174246159386	1.9942424246982982	5.123884188113241	5.832396969374955	5.897006496799722	5.130152689379153	3.1067464273216245	6.6684422324618975	9.044594741874066	5.856932148451193	4.38424300040546	4.981805311976594	7.925077418345595	9.859964345833522	7.5876202391744	5.628765091989906	6.791870100039676	8.433059671091383	10.647994968233585	7.498118858479958	7.486343841725019	7.5469183731272595	8.967238403568395	11.844143837589087	8.966543174993491	8.616002061071393	8.42069432993608	6.56190727484513	6.8855557267867855	7.361243229400487
344	1.9062887382061875	1.6970859723159168	-2.537078612597788	0.7134277802574839	2.5036988195149497	2.4847187933177524	5.823333725531871	6.121056064410321	6.22970579481838	5.498104558414763	3.604185333689003	7.21015928355391	9.554045653063412	6.3891281920294025	4.5736064795416205	5.29604338262487	8.378599145716187	10.512918445747472	8.282736757347378	5.999076351278349	7.132001381987324	8.785783745518223	10.795354815883998	7.991266230434344	7.909917334613119	7.888449648967857	9.222313857636307	11.983779876970427	9.303133941050419	9.00317094437123	8.673111893690876	6.8677954500371925	7.180974465359773	7.5579123306190334
348	2.0299901911027947	1.8082501842621217	-2.1967441980212588	1.0669231387857703	3.130866042815538	2.9737391396783095	6.316402419355351	6.3355340797684745	6.5441860987424105	5.957761749484464	4.0544714825307775	7.604112129086374	9.846811269694856	6.9315514389509305	4.841091143783279	5.567219720136016	8.757209755722203	10.946445437450773	8.702636696777954	6.316393836286525	7.3927125744138085	9.100192047031548	10.946545573253742	8.367970445486675	8.187529543232284	8.130272844768445	9.481102919482927	12.158216445743884	9.487729048616588	9.327162719065925	8.900986648974923	7.020033341803708	7.4020385555304	7.756178836313527
352	2.0800037331518157	1.8663968992795	-1.733579035196803	1.310176965266645	3.6194953827073557	3.3284599697000843	6.465405924685941	6.476897700169622	6.82810447876289	6.399340613420855	4.356407154528473	7.756233195749425	9.85020158188112	7.400321464928045	5.134416090399883	5.767161354763048	8.979092575291396	11.030910464092988	8.811872460051966	6.5144934489760695	7.537075977369638	9.331607795043471	11.10761639651651	8.554963090278235	8.286245325148577	8.260269144183887	9.699497198411514	12.330161063534863	9.499682402468244	9.531974768414546	9.053261734039683	6.996309739568682	7.5115899850023435	7.893527487852741
356	2.1336591189874183	1.9454591225143354	-1.2896610465867533	1.3788334096428647	3.8076944255061247	3.480485430513156	6.299794658014225	6.559845430978266	7.061289292627281	6.709948045955739	4.468047607585231	7.686604480410084	9.649687742665689	7.735649089356082	5.352767930821497	5.8715309948498815	9.030847526637778	10.80500790729029	8.677571274783134	6.52896784087678	7.540483932530711	9.456951117480916	11.257365198323491	8.526204087665299	8.202870348247263	8.274238565535336	9.827654813749568	12.443823782974455	9.35531327746653	9.574093794492288	9.094188667224927	6.810964567154554	7.496385555414266	7.920676688223649
360	2.2470312061798188	2.0912299103390484	-0.992837962981759	1.2868508068019784	3.6805786993561136	3.4673185260969364	6.002218231305816	6.610627634524369	7.223103505017812	6.838023645302789	4.434761036166586	7.528123359746978	9.443844771383635	7.927864531528256	5.415699468290785	5.882940277505402	8.984968162739941	10.45884034377219	8.435735681216464	6.345906241607522	7.414367657061771	9.489755606533834	11.355468721330197	8.324328401529478	7.978194216612367	8.18571851571	9.837249731022707	12.45001694396956	9.111520744207535	9.451343512514605	9.022162414660194	6.518440230124551	7.376537781211238	7.826928118971816
364	2.4282214580264347	2.2992110194330873	-0.8918195940389604	1.130116579063539	3.3899605188612165	3.4156198415350802	5.81146524869416	6.663224680290012	7.306389313370767	6.827909452365678	4.370703686169624	7.461791496511129	9.43604657651807	8.022932986030662	5.326598153971066	5.842568382770906	8.967824913271505	10.237700436493599	8.240856149848135	6.03349970247928	7.2175187882350365	9.479546523002481	11.372144670384774	8.058342913309424	7.700673083890189	8.03521821854359	9.744875883294503	12.33931442960062	8.85765550284409	9.221559501253934	8.878807999128576	6.2087182841902155	7.208230954091006	7.655721645099872
368	2.6436791353236426	2.525689118684283	-0.9431483721762743	1.0432633135204934	3.1834635654183376	3.4737622650180455	5.896975979221675	6.7515811749704975	7.3293933683358805	6.803397638310133	4.401081550930574	7.621221523116664	9.720695471063072	8.099172571714641	5.188971506369321	5.818610653491794	9.09097383111244	10.31503293294142	8.21486947846599	5.730523094967855	7.041859608991033	9.490405058741667	11.317693681752719	7.87120006481341	7.488104801345818	7.8864540854658145	9.612455343772876	12.16127297192025	8.691257454863324	8.991934753603699	8.737508751743622	5.987041935110002	7.0708455860907025	7.495300274044936
372	2.8473050522442294	2.7205293109871587	-1.0476961109412475	1.130862948423532	3.2794525540523316	3.7312827016084693	6.27390669192358	6.8961143319542195	7.336821537567615	6.904166681024465	4.595673072656074	8.0173558986424	10.227868054316275	8.22672078916605	5.156925188396031	5.873353466463932	9.38133237377535	10.701707812946605	8.411278703433974	5.588304028707051	6.972975236453768	9.56481358974277	11.245745630481734	7.885386447071293	7.445498447693622	7.803383330670665	9.51694486122593	12.009727447705696	8.68114850713494	8.874717689995835	8.669893242881132	5.936852440150049	7.03592966210659	7.440669040967535
376	3.0088567657798317	2.8568952011457975	-1.1108189793197802	1.409146662969041	3.7529082203526984	4.167963971105321	6.803196413029879	7.088987809403052	7.38384864850235	7.205954533503491	4.929222571325662	8.525363900594666	10.757405253907057	8.426953294458851	5.342256532532606	6.025523170516997	9.751690839942336	11.239662142032737	8.801597572992947	5.691237435277003	7.043315392831352	9.691596006720037	11.22332474735963	8.146047571596293	7.613255958408992	7.815930823619943	9.502872443048568	11.975149124428741	8.831500984782682	8.927491165509569	8.704373337703746	6.078430160434689	7.128806573035429	7.5416712570516395
380	3.124598018386783	2.9400386736073894	-1.0927412482329149	1.7926653578320484	4.492901313882345	4.660829532299919	7.27190015864217	7.288709622100707	7.5077409554710455	7.668948630997874	5.291042314522262	8.943072296451675	11.083035441073202	8.656046845516189	5.733946308917953	6.231599792005981	10.033419583737874	11.680904358936285	9.282818770813623	6.001533969985522	7.206532936974931	9.7993774166652	11.28328415882934	8.591136910682511	7.935019473069029	7.895663718316098	9.546628927923447	12.088544815060413	9.06906221007401	9.112772918581815	8.801304794978549	6.347402556606185	7.305337887439584	7.765869121018065
384	3.2099502005595952	2.996586315218771	-1.0191868517892884	2.1386196559316812	5.257526861268257	5.048318373332102	7.509462337607813	7.435233574214901	7.7065901561713925	8.14879224627198	5.542971597028291	9.093702293324789	11.073298426327277	8.827921845082246	6.185107215524242	6.403182490394798	10.06137654625274	11.815650910109756	9.71275517872472	6.367454989569474	7.355375271346455	9.787035917367746	11.392449350204116	9.07329557035385	8.272151926136308	7.963729361454796	9.560453390779168	12.293428389982585	9.27039620919948	9.308664298397296	8.866648651625095	6.615819437489777	7.466276149972707	8.005054453666133
388	3.2791385567844475	3.0501947325944085	-0.9552021002494794	2.3198711813529713	5.791877255121789	5.21084498043519	7.469590645051008	7.476288299758219	7.933732012745131	8.463108995051162	5.589411244585603	8.913141228106833	10.757501575012771	8.864040352376309	6.47774980816918	6.449043734480669	9.76149938026181	11.575078935009133	9.958835576662997	6.591669065999237	7.37295244262776	9.574137663510731	11.455296487496614	9.421594595963738	8.46012494812266	7.927589873325824	9.434134459518502	12.46114536953961	9.316053366982157	9.366646743014089	8.796674706184087	6.74788473332944	7.50333068860596	8.122393587586188
392	3.3280141269582897	3.10127925089805	-0.9608938669740006	2.2875034751358636	5.945984348543741	5.125606523924322	7.2369837578209015	7.393553238321598	8.11426065303641	8.481100060984742	5.422358022351122	8.47723100429285	10.30242535851036	8.742506958823288	6.4351911382326845	6.321464999451212	9.193998313579378	11.056900950172388	9.944479917214379	6.528094752042315	7.193279725033294	9.146579719338746	11.358992547920423	9.517042136005958	8.384095170787761	7.73142097428497	9.095649696273973	12.448782889407246	9.14825723245707	9.190127349538859	8.53344533673149	6.666182024337721	7.356520634197567	8.019629458206971
396	3.3379249488479403	3.1297662179129193	-1.0568680736561276	2.092855925044416	5.736564144909878	4.871402251342249	6.9662480178428225	7.217732411281372	8.180794695226826	8.193010309514833	5.122067915382231	7.959435442856018	9.921632741673918	8.518753983924343	6.023662075093229	6.04463098907227	8.529867150705366	10.469896290094374	9.68249509274155	6.159026607222169	6.8413371867067765	8.573988892842506	11.039787264607686	9.349009490251001	8.038519839018653	7.395374756261335	8.559464433040308	12.173288314602315	8.804633118334403	8.793487526626704	8.103331545397989	6.395819171016416	7.0534968198076	7.691336135518987
400	3.2968428051680934	3.1170210759620653	-1.2195179431642993	1.8551027727973948	5.324022279648956	4.583386409631675	6.792916280762133	7.017706853314708	8.110221842316626	7.72104928928308	4.813915717368737	7.542180995972472	9.762993787911846	8.305191972744785	5.383652673480338	5.706733212368007	7.969529608632534	10.023338292564597	9.27585790199575	5.608250126984329	6.426456435190773	7.98384282957418	10.526842090731849	9.018537498592686	7.535444240618387	7.016464692520725	7.930647353176503	11.657497376573508	8.404518106222039	8.30343053628683	7.612055282447668	6.056336387602287	6.70317838883782	7.232432823994501
404	3.2176294245544894	3.0664167326755223	-1.4004006350446505	1.6948391156321365	4.92163513848349	4.384091366189534	6.768471223908567	6.868186456505931	7.940198401431197	7.263738613862971	4.605724799925618	7.3307061010291	9.838447545961088	8.212049463519499	4.767758834245525	5.41877506795343	7.647476653818198	9.826731657013617	8.880142189493858	5.081487642810125	6.0907873953583245	7.505008201724284	9.940436338123027	8.686874367716188	7.054109078717186	6.7266340085906124	7.360954266083346	11.027141543204065	8.092146853043415	7.898728827561289	7.197446328111154	5.801397785798435	6.443030817930909	6.793383581175992
408	3.140625468907841	3.0088388843864444	-1.553104396713554	1.672306652615295	4.691031920987093	4.328895081081089	6.850580674995206	6.813513738595871	7.757081489051727	7.0037231268485485	4.540930736521092	7.313988667141864	10.03170106262405	8.291101434755458	4.418606746961766	5.263847814621439	7.574467639872889	9.849101041722765	8.642901398772032	4.767526614550066	5.9414214937884156	7.21154020396058	9.442137694361577	8.496904351716324	6.757880193814458	6.6293778252118924	6.980503064651314	10.458470318138358	7.96647928133921	7.720741729316815	6.964834672509477	5.738028034981866	6.367201789039107	6.506861670278297
412	3.1131939809399896	2.9850842877362136	-1.6557029443900033	1.7600974992182903	4.675528037664421	4.38953923070825	6.942790013904245	6.842451078305526	7.654337386833103	7.023059827239182	4.586795795304219	7.385961037107856	10.16811463649839	8.50560186145999	4.448748100492844	5.260359750817989	7.643883209003052	9.951637242940938	8.642122246857497	4.748607623508965	5.99921749507682	7.093986970157031	9.158332801584464	8.50673959491659	6.718126756872589	6.745800001279039	6.8393287486014955	10.100791905650295	8.03304288743336	7.801495055528949	6.937863809235287	5.868438705886741	6.474154932842563	6.424112780564122
416	3.1565086761889067	3.014732830065533	-1.7183710293300483	1.8642917824406378	4.796664225865661	4.477328289171907	6.953053456871497	6.890802366025248	7.6811928555153	7.2655997092867395	4.657153117819456	7.409016590485926	10.108963940846948	8.743790604449929	4.783994662604192	5.3554005487652905	7.695026855114161	9.97150323257584	8.850895859306467	4.964659201485216	6.189341529478395	7.072234135891883	9.120087600570184	8.66736695962335	6.882143003254142	6.998383981201629	6.88860128570854	10.013591741075533	8.201467493331371	8.047116259285035	7.049998742423853	6.085330470933625	6.66280554042901	6.4936275318229395
420	3.2445816911795564	3.0755436342790663	-1.7726973250455487	1.878595705057722	4.909384238245866	4.4916062241639345	6.83587978544492	6.874500257301759	7.8146562378992845	7.566914062468864	4.656191814110945	7.2837457472963445	9.821413969038762	8.877848602768692	5.202598558642045	5.453066335261872	7.597651462446192	9.810816740061611	9.15130040719304	5.250112520314076	6.3796787100891486	7.043029767374309	9.25440404462804	8.855746246867465	7.103297692484598	7.244878750629338	7.012450200495949	10.151134465337647	8.333259561480073	8.288626649910631	7.183134537680979	6.228236182700508	6.784882051503852	6.595822794473857
424	3.3095812713987494	3.1076979558684164	-1.8525544358211017	1.7393072799638347	4.879884707528109	4.36693190425776	6.599113924531466	6.734519941493065	7.968585947898832	7.734644870303442	4.519978988679703	6.990244847768809	9.387160277508194	8.83027932798645	5.447259889201092	5.462097154178281	7.313558083189093	9.48525903214333	9.390855765474939	5.420579419755515	6.446159823355138	6.936082345616738	9.431119895011953	8.945626236264562	7.2167591866439365	7.346759300756636	7.092195492958186	10.399009678334869	8.316311815246006	8.373332956154288	7.233117085314795	6.17354248395554	6.728225214183518	6.615004999625622
428	3.2754566586766782	3.0444981974983176	-1.9770966718347878	1.456047888894328	4.644861686423487	4.097599496032729	6.283260806432434	6.471084578388645	8.03714273330924	7.637168388158189	4.2371144187761915	6.585647566380651	8.956045128144996	8.611148812487455	5.3490323885335656	5.337389455671116	6.905678254812153	9.11337277972532	9.454687094659484	5.361127363020851	6.329241736644712	6.747262937676712	9.5358686206386	8.875092484001238	7.119733792449205	7.235697728008475	7.065677624983144	10.636701557007214	8.124408701411667	8.24498842065069	7.164176922830161	5.906086429943302	6.483028395497161	6.505880339409192
432	3.1032240312428714	2.8537177967501335	-2.142578358009089	1.1023706169906464	4.232386101527387	3.7362847233853915	5.937748894005207	6.149852260321504	7.952692011781735	7.261822682166149	3.847425689520193	6.169628604570891	8.675375916512309	8.308641412738517	4.901657092116693	5.098268496039243	6.497916682050148	8.85684487967719	9.31919095547521	5.073206888741677	6.056583389249613	6.534470541668552	9.530538534897664	8.675697304756126	6.817202550842417	6.945912820445433	6.952844125359574	10.795877429408069	7.832076529755937	7.971648196121081	7.025640469932862	5.534127698277427	6.156089290335054	6.320650561587057
436	2.818423025644786	2.5618879730393007	-2.3254320562778963	0.7745614628309498	3.7431254292397025	3.372765770979824	5.61179350389799	5.87329672284225	7.725466231868364	6.7175555059585035	3.4243278416962	5.840515121972867	8.628232934148423	8.039872149195903	4.253599156130812	4.815944659471768	6.211383327060685	8.839538551901061	9.057773567219211	4.661207187328263	5.722722992753662	6.380387766941607	9.464889502470639	8.449942567472098	6.412608130477201	6.59559200528987	6.834895116715717	10.88169858092479	7.576705913487844	7.70624254188394	6.921818238902262	5.237132059226243	5.921691402743258	6.181025489460329
440	2.5037448343006004	2.2464282455947933	-2.493196481132042	0.5455195293958585	3.304955950975857	3.1006700914299836	5.356171594448158	5.730761990383511	7.4408311656009145	6.181418880114853	3.0482156199742834	5.660613999380199	8.805151917161218	7.8842305938027275	3.625921240235077	4.575793731580776	6.109114154650432	9.084604240369243	8.796034790719393	4.269749630638375	5.437125669103388	6.34213875123007	9.431117033989011	8.30895421791351	6.0497536506499126	6.325236304525919	6.79924104881257	10.946289034863277	7.485649089987271	7.600417594793944	6.949975473023067	5.17077063208666	5.930957302378067	6.208436950267586
444	2.260300392166215	1.999780292230398	-2.6186046534228384	0.4364051211783038	3.0245735568931047	2.9851610585184907	5.223102556393012	5.754072174803419	7.216179352661025	5.818129524800381	2.7814528871883217	5.641730294288715	9.115310645931366	7.84421155856441	3.2026495852673587	4.435157764681209	6.174708350804403	9.496566748484412	8.639875390173716	4.00871132792219	5.270437704131168	6.416655524265811	9.491987204428591	8.306640604027749	5.838407024901773	6.226635440364462	6.883687955642819	11.03628251150374	7.606585483419729	7.720170955239888	7.141888600437703	5.380293832546435	6.228245242606492	6.452457411687627
448	2.156538242617398	1.8837405395631652	-2.689466231231601	0.4166112829657205	2.95430182664755	3.0419771594492624	5.251683698746389	5.89967964590186	7.140778046699052	5.71171902168159	2.6508829526730087	5.748944744854207	9.424391722726694	7.8527054588420375	3.0519750041200653	4.39756392322339	6.32833956074367	9.892714475450543	8.618602730925666	3.9062852760872846	5.225406156698475	6.53936670559662	9.627079939378042	8.409883477912594	5.803055271756165	6.298777087521189	7.049964410148549	11.147104235161931	7.877832392830112	8.008274058150192	7.439759712509137	5.76908062431997	6.718737108433548	6.85557602105193
452	2.1958315317027624	1.9020192575117059	-2.711436741658919	0.4288891543050374	3.079982034536415	3.2326624311846253	5.442009912102531	6.069309219295608	7.230977040154182	5.838057503265693	2.642118685727363	5.916789993606463	9.603361105514587	7.821466426175547	3.1127533834069223	4.415702331838484	6.468295557857356	10.076884244272668	8.674649216685042	3.90996622052074	5.245546327698651	6.616992456895995	9.731826757656062	8.51799962754197	5.878835663257953	6.4531597928198865	7.201451283392791	11.213757486641597	8.154360750591417	8.313049295417818	7.71977327305095	6.140711292021829	7.205790978358641	7.273499947303902
456	2.320032352312037	2.0051052519718975	-2.7060036590920697	0.42311891806586743	3.3294246112686934	3.4774033935488915	5.736595616162241	6.159321292585195	7.423158626888209	6.086276515853111	2.7066240242333257	6.07079313652819	9.57192609277657	7.698809127443479	3.2440328516118506	4.420557010933893	6.5160851314061325	9.923127149323953	8.700864769902545	3.9272923370388857	5.252979265301955	6.57608316668556	9.675183271776124	8.518211343239678	5.951418861622061	6.563753588317031	7.234138947342244	11.144912691588363	8.275483110515106	8.466521241746648	7.850524405685923	6.292850478496845	7.479885559270622	7.539864044226612
460	2.4430987773248107	2.1203992313255835	-2.7001893452181998	0.37905815148018024	3.595227709276194	3.6818432714964757	6.027592166941217	6.110718234846578	7.60869882569955	6.313520415578448	2.77954792274611	6.1484508359170835	9.323817229572418	7.502177219523179	3.3030857956461057	4.360398281532556	6.4440598325157135	9.434140181564386	8.603921868535975	3.8791954419424233	5.192539678815146	6.400407774978219	9.382129645501854	8.346457460311498	5.916861042342856	6.533533079817891	7.09177206156277	10.880479785151499	8.14068506092868	8.36996076377999	7.755949000803853	6.1152601087669956	7.415228824967312	7.542768459349895
464	2.496543162718441	2.190088504983864	-2.7155561378582354	0.30964901965163727	3.7700900936308517	3.771378746047642	6.19805668219687	5.936792358668267	7.68969104732734	6.407772524868072	2.805333368848	6.118176921656359	8.928392387736297	7.303801041282576	3.2119700827566438	4.230092037965064	6.279180987717148	8.750356652101809	8.355365732078557	3.7372493649540006	5.06055592212933	6.139540179964239	8.891398407421983	8.019172648210567	5.730821595028137	6.344621165469409	6.7968497104702195	10.439295742381105	7.756516437020682	8.043259600359226	7.451743583938842	5.642600522100238	7.026451569936917	7.275187474002522
468	2.46064829205101	2.194882148923177	-2.760233395283278	0.2501352721097869	3.788949956864485	3.7228219415132537	6.182688220626785	5.717191204895314	7.625923614321833	6.333782656890816	2.763945334131938	5.993269428380412	8.50969503161567	7.181918126093474	2.9861993714278565	4.078003873065846	6.087844356425324	8.100185373836107	8.002404192747532	3.5315449148660547	4.907544123657005	5.887303814329102	8.353917100795593	7.620960693191785	5.42658995211949	6.068864807065284	6.4441661672017245	9.929514859879115	7.2347831543413506	7.6165385053977745	7.040327531205595	5.03782461801802	6.460854037185226	6.838187200447639
472	2.3665172993992636	2.15303253583914	-2.825867407339858	0.24210613904862235	3.661317339236287	3.578544607664262	6.013266071396332	5.561880574489096	7.449007969169137	6.143783553824375	2.684707396404749	5.833021626050624	8.209098795191986	7.161988717116691	2.7170083454198766	3.9866022963007635	5.949880584953582	7.71182010610936	7.636943321020086	3.3300640498962295	4.815090644123583	5.741051182557241	7.967562178522755	7.259744148998789	5.095767961987939	5.834904655983614	6.160538657847014	9.511161780185844	6.7437262364832495	7.270202141526096	6.667692167613938	4.515273559614434	5.93114899091518	6.396873457970541
476	2.271805757508871	2.0998659080894617	-2.893198721256777	0.3186874977648799	3.4751458080290787	3.4320940884722466	5.815200314144935	5.561656461025306	7.2391576584196615	5.949788078545124	2.636123173733833	5.7240671966992425	8.136171320400525	7.188372593850615	2.522619717904679	4.034254063911168	5.929827675153136	7.719007472576809	7.343041401443513	3.203486911315049	4.8583640929584195	5.760131821394565	7.878907183781988	7.014785272053774	4.84374474256198	5.768658623436026	6.049946769698497	9.326192832288587	6.4358000592821725	7.153424244939829	6.461824877636876	4.242348660248572	5.621713624112202	6.109523757768295
480	2.2297964039772387	2.067192787673296	-2.93893098089168	0.49758189790983365	3.3688862238704784	3.3918967161372118	5.75276897885334	5.752604470034175	7.0865959942235435	5.877223953667295	2.6983799866259663	5.749225125102522	8.329067209195737	7.15597437005546	2.500634425525494	4.261806000439925	6.057575210536171	8.106208780803321	7.160997849504447	3.2010526576285683	5.077549921567626	5.946412071473569	8.110386827972949	6.910623056130235	4.74935053579957	5.941533073683153	6.15506027575025	9.436889624611645	6.391771777227806	7.326066952328654	6.486536963298361	4.273537148176421	5.618556962132867	6.069028362210135
484	2.270244115819698	2.07513737154606	-2.9422414228541474	0.7770267109326359	3.475301972197996	3.5356545359036526	5.946544155366058	6.10649727233282	7.058272343934947	6.0178642121012755	2.927656881570169	5.953429683913127	8.74076173482867	6.986268025879435	2.6972658566086376	4.6575722576804575	6.321194632783193	8.719677903094793	7.087619763599621	3.341796866562774	5.466741071250296	6.2509875139724125	8.551296212540912	6.927435380611714	4.842378604107177	6.347179396816709	6.448423369339413	9.80085847287484	6.602214319726275	7.746278743259909	6.727199060621656	4.54414414212211	5.890337452321931	6.278052314166532
488	2.394282334958436	2.1334929412382038	-2.8902976439935935	1.1299046249472529	3.8550307653371734	3.871860255956304	6.402524455118138	6.543428404499939	7.180002671233808	6.39453457171546	3.3233466064470027	6.3179135163058815	9.251357055194815	6.699806673300679	3.0960345190082155	5.161310659728953	6.66839264139757	9.330841040895017	7.10281274909593	3.614560594969571	5.976598247697405	6.59622429136005	9.012800193919672	7.029844743146124	5.10011051797673	6.908793431958829	6.848780614727534	10.29055688167265	6.985862237458829	8.299433687236862	7.105874043643865	4.91717623422839	6.319040759345028	6.659343225832038
492	2.584228747519029	2.2495915832943263	-2.779013388293114	1.5040140114004836	4.4565534479157645	4.331432808430638	6.997524720644716	6.964663964807271	7.441479664134433	6.952916604607438	3.819119443787826	6.7604660817168645	9.712194418228089	6.438291533427494	3.6270010379771023	5.686370358415512	7.02030943051761	9.732711767419453	7.200694542824633	3.9843566317098755	6.52985952636037	6.904405099602965	9.32046697170734	7.196108323048614	5.463759408507579	7.512448291884942	7.254722100061273	10.750015231647883	7.434236030882458	8.852866150439189	7.518134574982158	5.257779584961467	6.762724382492412	7.095151883331581
496	2.818577759302232	2.432842486914914	-2.6131439143008834	1.8309193803337327	5.1273064483890245	4.794957148843604	7.531450252591362	7.2891783530260374	7.812969664874978	7.58177087776949	4.303436268431743	7.164504509957019	10.002906774061495	6.410180552510918	4.189499367626877	6.147632583355673	7.295076351820961	9.823517774575443	7.400882702261833	4.399063576082153	7.041695100171868	7.120609265469455	9.394081092004882	7.428695183118127	5.862586006621733	8.048089960759627	7.579238872465824	11.05914589950754	7.857561568448918	9.307529425963638	7.872661570699612	5.49467419190731	7.1160535632714845	7.474365692341199
500	3.073541633475405	2.682474129579943	-2.4108090339828725	2.042621368973126	5.672376618369055	5.139725195305912	7.817147712044605	7.472168426721747	8.2512159139211	8.147663095884207	4.657323825521661	7.42066047702269	10.068387006134943	6.776088220654473	4.675382125494379	6.478971941802569	7.4297308734231295	9.630154585366373	7.7239699168697005	4.791850554765754	7.43384645492519	7.218321782007423	9.267698264565178	7.734514216922424	6.229948504931293	8.43591878668475	7.767404059826446	11.169209452086102	8.205773332859074	9.619750952274963	8.112048128627935	5.633775219998497	7.335947971895992	7.722110251957403
504	3.319106332028387	2.9729340001387166	-2.2042941991466063	2.1004409737008025	5.940574154160427	5.290936456673408	7.768632869180033	7.512579898940274	8.699319817513867	8.536695458793595	4.799150931639412	7.469085674501747	9.932726834968662	7.537775974316113	4.994291292932619	6.64203975907885	7.399682026300509	9.276752448502279	8.151681879443396	5.0901188721889685	7.648065070869936	7.196653347919064	9.050492263831833	8.095844248358786	6.513908846621588	8.637537934430107	7.80159805235486	11.103750200847562	8.465383508290047	9.795432066028189	8.216595628974328	5.728023514590865	7.43245599777538	7.8100485604512
508	3.517577162444655	3.2497570432630476	-2.0363531061257927	2.0206355997567838	5.896451935186132	5.25333450898392	7.442028026864982	7.447943191797558	9.086570716804708	8.691197373381543	4.7175507426364485	7.324030857668268	9.68144795834478	8.494354226600692	5.099692808627199	6.629825098465158	7.2290653999917724	8.916247345347527	8.606026627746969	5.236568914543827	7.660625915259609	7.0761866390862505	8.857314087439677	8.457294442758712	6.6856989691737	8.65604970653913	7.699371318451581	10.930360766470875	8.642889954680266	9.868654226182676	8.19740293340511	5.827847942897183	7.439661484054795	7.751678924062925
512	3.629744520559897	3.4425084503996883	-1.9517512272195185	1.8779703331263176	5.636226162985473	5.105394350513438	7.007507783363652	7.3376316838973565	9.337049460679147	8.624104478043124	4.475671280051334	7.06758354309967	9.419301962912884	9.306047416079684	5.002999293093739	6.465967162019729	6.984125596533038	8.65893552501329	8.965318657174317	5.212466703606144	7.4920038987786	6.893761617421585	8.748266198005524	8.7403754967315	6.744359476227745	8.528017976210524	7.504914264804355	10.72042462503314	8.748079277839981	9.878015493248885	8.083730677222379	5.943438514962522	7.3869681171834385	7.587470989144259
516	3.6324353126368436	3.4959146888207586	-1.9780291268952999	1.7818759634806267	5.341100202426883	4.961683260788384	6.670791609134433	7.245385628527228	9.396190619587445	8.410528161748855	4.187776078141481	6.818454725216697	9.232805228764603	9.645973181212666	4.771290290230262	6.204478725027336	6.753728849525622	8.54031465281522	9.11987207017522	5.052721487639833	7.209220868028936	6.69946001268754	8.713760353976433	8.882505394443946	6.718810541355726	8.31484315680245	7.280510407186105	10.523514721050308	8.79057214424881	9.855235074910404	7.915298918767012	6.04270981216672	7.290329437923034	7.371999721988076
520	3.5347385317250573	3.3999106798163194	-2.1058778709649077	1.8285465194312154	5.190123544940631	4.920712458584696	6.583108885356787	7.222025376205836	9.262059188346505	8.159845331571223	3.9765918154453	6.688016874593873	9.166501975758175	9.365223860937602	4.506542671269779	5.925411209405009	6.621980650395364	8.53382489910846	9.034717537003985	4.84008358687054	6.91377971810957	6.55088089242668	8.708184220262483	8.875782944204571	6.662798387871654	8.092463472915663	7.095955353941124	10.366732571177591	8.78720472024608	9.826255773530933	7.739839534291791	6.081456645870163	7.163811188730742	7.166857224489654
524	3.379557362606964	3.198947183161838	-2.2869713248686527	2.0481154866960707	5.2709736690956355	5.0193304888838055	6.7798409290800565	7.288622360900976	8.998074508837222	7.971634367843529	3.924315681086318	6.737585527575414	9.218651748270553	8.582585313108886	4.304885376551863	5.716208920351895	6.638336164880437	8.590558030373915	8.775573708312557	4.671013820299109	6.709645731198201	6.497258646773489	8.699592568367672	8.776108719602709	6.635315878328004	7.932536105155377	7.009362203067222	10.266617749042661	8.766710259238254	9.813346838016649	7.6067838476770415	6.041826232914801	7.03547857415607	7.03185699594866
528	3.226120702227753	2.973319999817307	-2.450052732003909	2.3750371873019476	5.535687909455128	5.215633856002933	7.1740450677942595	7.425535183278693	8.715653397489719	7.895093897913484	4.038500298794245	6.955081445300215	9.355196929200222	7.642641525046226	4.214298714488092	5.641203389230231	6.798627836228669	8.678834893249181	8.480514504955947	4.6081604841235695	6.662447912561261	6.559490187296301	8.700648285833267	8.675377823860936	6.672720415434495	7.878529528753645	7.0454129994849914	10.239345524685247	8.762605644990805	9.831706022235434	7.555269222257786	5.950812324758358	6.950521928404989	7.012172681270576
532	3.1226277272540623	2.8026559282114496	-2.53066968278914	2.6679654054039275	5.827310547421244	5.411373601602487	7.605174045435012	7.578982334075358	8.530150391976624	7.913282374430063	4.250864971872578	7.262426834844066	9.529655432482901	6.958206636027188	4.216476906621265	5.714586243506627	7.0481071294220365	8.79554746314494	8.29142377667359	4.648708331768999	6.771623594353489	6.71918962689554	8.762166954806366	8.653394677248958	6.768772108154634	7.9296226301261115	7.18488548372148	10.30280205986439	8.797759033879101	9.88380525000917	7.603028278228515	5.869070991956923	6.958428365305192	7.127952080850086
536	3.085570327597867	2.7318155696561734	-2.5014800962234323	2.773684017807912	5.960772499293758	5.501107678829544	7.914293269202901	7.684232215554013	8.510144212217565	7.955540636957648	4.44831179449419	7.54929063798333	9.702387785257244	6.813020212138377	4.2397708785778345	5.88929842415683	7.304773312245697	8.953425384804442	8.281690576624921	4.725631225098957	6.968596917678201	6.922907811806006	8.933929420803372	8.734044052960865	6.871869546706594	8.038663843840068	7.370434742438804	10.465449306768198	8.865978218582354	9.952814077044412	7.737703303828435	5.8528632969905185	7.08567331432475	7.365480404377583
