time	FP1	FPZ	FP2	F7	F3	FZ	F4	F8	FT7	FC3	FCZ	FC4	FT8	T7	C3	CZ	C4	T8	TP7	CP3	CPZ	CP4	TP8	P7	P3	PZ	P4	P8	PO3	POZ	PO4	O1	OZ	O2
-200	-0.021684532930343028	-0.026123732262458833	0.7353852968722735	-0.008985519386493432	1.1891676157491662	1.3964022362739228	0.7159182411238462	-0.23695409238117957	-0.1638018484748373	1.2402785985150209	1.3181633915999358	0.7605333905091896	-0.06191553532346231	0.9097112394253069	0.37948346042190123	0.9019838548775558	0.24891938206292233	-0.1449290808356426	-0.035282529801457435	-0.17902354850869473	0.3174127332302871	0.03891647969791652	-0.37702569270311564	0.2279307985511551	0.13395988907371006	0.17593353942321163	-0.20396895655156383	-0.21157313829887514	0.11231159390465383	0.2227264041045705	-0.437665044156385	-0.6003308877093163	-0.8593906738518231	-0.44305559880929435
-196	0.2745682292204934	0.26911172202830663	0.7068585735594394	0.2848812632520727	1.2650448051938252	1.4904813728848454	0.9542093252886069	0.08911547787339753	0.04682696226337462	1.2610377041449823	1.4103517496740674	1.0221934292734578	-0.018349382980033725	0.9891516541302872	0.37953781985779916	1.0775798531982568	0.525575457676498	0.058832008243082184	0.04250413168666321	0.015138572043702265	0.5160444961870421	0.32835462606498145	-0.20509363659099114	0.6384515746209749	0.44711750632887	0.4179327477393769	0.20026881942253907	-0.041058413580705604	0.566247461796681	0.7010795456351873	0.03434292590888075	0.00019161535553219054	-0.19916890511295343	0.0032449834898142633
-192	0.8022006729853192	0.7994925359567867	0.6146763547637042	0.7170176487939525	1.2686059442915847	1.6202125508409972	1.1503970593971624	0.4440806198829088	0.38332354925650525	1.2981494632370751	1.512625452037311	1.2771614757717542	0.06546472741526478	1.023358938494453	0.548637150332964	1.3084901538237603	0.8057478049915918	0.30757924836703754	0.3237112752370899	0.3449221542709857	0.8258831480155535	0.6919618231469158	0.09096944309155226	1.1462045879035359	0.88633584752418	0.8071879724150187	0.7169390302676922	0.21554729288040173	1.1677827805599328	1.336354490720878	0.6523472054223786	0.7652400116673505	0.5897461161028921	0.5810801372162328
-188	1.3330664601047897	1.3345134224577038	0.5178146945277571	1.1126502724212357	1.1459201545393858	1.6981449084323228	1.215075012953959	0.6982693654550569	0.7235681396335848	1.2987146344774083	1.5556304415527573	1.3953943217333156	0.1263539936928658	0.9083039141610683	0.7875829319142847	1.4477866851493164	0.9544301008922976	0.4311711181245018	0.6938452107077735	0.6711536628944281	1.087636587257949	0.9753384565523997	0.3463572552996195	1.5653291901168325	1.2842780319213891	1.1722437113729498	1.1523122758382498	0.3953210105451843	1.7109072165208286	1.899139399502009	1.2209123342206543	1.457966204776936	1.2763602701387062	1.1107246847719836
-184	1.6317802626419307	1.6360983807264264	0.47888651369304264	1.3258486952685817	0.9100351310641985	1.6594864088122137	1.107167241162191	0.7970258573436296	0.9354092455135323	1.215139862807311	1.4817084036610844	1.2984900441764617	0.14051079714585468	0.6263214929980054	0.9501491165014031	1.3798234427900844	0.8850503541535547	0.3428907981798467	0.9600257253250389	0.8370657542075655	1.149096486051447	1.042577860107307	0.428183286301067	1.7112015442559865	1.4582633935350358	1.3372313942525995	1.3316919769997395	0.3698495319088558	1.985107536072375	2.1776452009533904	1.560811277263554	1.84983264932895	1.6656298595337025	1.431900736054598
-180	1.5706359108370769	1.574891324835427	0.5325013981726225	1.315928217426502	0.6542499644927394	1.5013231001142477	0.8618566968138892	0.7722976188234514	0.9436058974284152	1.050535795420467	1.2862137523602275	1.0076810096094755	0.14401431345342305	0.28935408519169237	0.9387103295467933	1.0946308346768134	0.615786968107	0.08975987858759853	0.9682426428190942	0.7674658279115782	0.9552766060552604	0.8563792683914391	0.3107947997352618	1.5055478773252609	1.3190110888557913	1.219936248560277	1.1949511736264098	0.12211008339092806	1.888385529518784	2.0866777844197553	1.5957877595666043	1.834283347267073	1.6920428233342037	1.4826184473752175
-176	1.1918462484786094	1.1932629316720542	0.667768536312246	1.1605714530253441	0.5128116594718766	1.2872818675919058	0.5802375659598151	0.7066104394238659	0.7691435198438353	0.8694889523488188	1.0278792355335165	0.6394118650505267	0.21253035908922877	0.08761624224714734	0.7651552538626938	0.7016608697342139	0.2684087746519228	-0.17345130399780753	0.698336718703483	0.5173417912773031	0.5839706644573175	0.505538521920812	0.08911133535059611	1.0290604803806929	0.9289140081794673	0.877004800012796	0.8306130745897627	-0.23944596885785174	1.4843187294677875	1.7085750059859455	1.3817219699306769	1.4773611985100117	1.4432995282926644	1.3223984208098245
-172	0.6876730305475754	0.6852079612598233	0.8336766341141935	1.0028569673014036	0.590052662790198	1.1175110311903966	0.3872997154947879	0.6794861537944111	0.5220210539035811	0.7666812519743806	0.8045657852840353	0.3534593275206106	0.4160333265291151	0.17450296834756934	0.5425819144855201	0.37680759930843316	0.012696285700035434	-0.26867952875013146	0.2819435887370897	0.24299536584062012	0.20942199177320123	0.1667608316502737	-0.07536105792569078	0.49002131696006546	0.4759690749549098	0.4747476565772563	0.43271183858341095	-0.53602629764645	0.9720330809847256	1.2469522921550928	1.06876647202544	0.9812810992261471	1.1066206665709806	1.0923351021844407
-168	0.3060329250715336	0.30086404009198436	0.9646748876057814	0.9660865044044329	0.8970779157877693	1.079463479177693	0.37654167318643916	0.7289464455320237	0.3496847739927717	0.8106163123645539	0.7066268903057824	0.27822840143529715	0.7682045678770593	0.5607125148921678	0.4141228784595977	0.2717561118894128	-0.014994187242679015	-0.09324473119081869	-0.0686390472705698	0.11334484041922653	0.014163319917027023	0.020035132715186112	-0.0448140575350373	0.12294972656917849	0.17698922708648562	0.20338027127892597	0.20394803532130049	-0.6110572799513693	0.5849785193932799	0.91929667955995	0.8202592113766154	0.5810707792870267	0.8684453346260814	0.9360483861178451
-164	0.23110032023256782	0.22581434192865288	1.0133750413104925	1.0864998074756627	1.3337328400316961	1.2062618701997208	0.5699380621825657	0.8471978881427082	0.3664652099893761	0.9976708267772354	0.774139700365584	0.4527821231377646	1.201804396456092	1.085116979720365	0.46319562079785914	0.43634256610377	0.22509659769924095	0.3223017446010002	-0.18113963260216803	0.21372389739435899	0.09809706335334573	0.16286665160067257	0.21842759792493324	0.07051584851819644	0.16375365811965806	0.18256644858519896	0.25778987938645087	-0.4084112037837717	0.4733432817429266	0.8473942258421027	0.7339138966150631	0.43009966503272457	0.8219521024932519	0.926391301200363
-160	0.49852535002727894	0.4955550419693638	0.9736390089248544	1.2984923091529574	1.7290689901566152	1.4629306756277443	0.9128978825408881	1.0043430303011918	0.5999637827030715	1.245858070089069	0.9806109046019847	0.8157080987362809	1.5922912319036182	1.4938822946978532	0.6599664075401354	0.7960997799800925	0.6644163114938968	0.8317794182757828	-0.020439935796511	0.4976636456799367	0.4326090503737553	0.5675059542632912	0.63218831856379	0.311402022052378	0.4146598865053458	0.40726819531612224	0.5696945176046284	0.0038101645090346057	0.6323528273829547	1.001946565959403	0.8037012795183958	0.5326334820651113	0.9285801625649233	1.0340183947205923
-156	0.9827134584411282	0.9829313134172323	0.878734467195166	1.4769563637637195	1.919359559935272	1.762289162001148	1.3022243943715013	1.174513933077423	0.9760754679831867	1.432836528975209	1.2474619118666357	1.2405822245747402	1.8165645553501388	1.5814756115085618	0.8770066477567794	1.1932828396233588	1.1659287184842304	1.2498735157881593	0.2935254566411216	0.8144370892942995	0.8800909496975396	1.0987973185453834	1.0414875719478283	0.6748604161390063	0.7704913000680936	0.7589974384218504	0.9985908840716654	0.4729611265639141	0.915116367413827	1.2288471429316998	0.9370535588447995	0.7573226075125353	1.051109430520337	1.151769754362874
-152	1.4575626813328253	1.4598256312706543	0.7782698254009328	1.5049167833479724	1.820413227253569	1.9984146306127522	1.6283394057170242	1.3403619493975887	1.349282499721441	1.4561617337655617	1.4767746888069027	1.5937116105850295	1.8134846641530808	1.3042870727033906	0.9626135801807183	1.463861700176785	1.5870882232650212	1.4415407144390728	0.5554428086562355	0.9935439799973409	1.263046142250263	1.5771734674688254	1.299647804793656	0.9331912374777503	1.02286362389762	1.0700302097007772	1.360750314137983	0.8385739305305094	1.1197648020129536	1.3384849991383505	1.0120465729910926	0.9192981696760656	1.0360084745953286	1.1574487656934453
-148	1.7000600056641209	1.701955552572482	0.7101035100174637	1.330062624434273	1.4577228986175772	2.082011456001361	1.8102433635783786	1.4776290617829562	1.5652728041230173	1.2816365924901918	1.585086341670649	1.782659168510998	1.6122157532995416	0.8011547306814414	0.8273240902993605	1.5076582393728502	1.830641265061913	1.3793108428463103	0.5909613952021493	0.9357614493586208	1.442784424953816	1.8514747572883663	1.33690714498584	0.919838366570301	1.023261067667979	1.2019128769093093	1.5133312902389593	1.0019804213975498	1.0985777350345853	1.2058085172727038	0.9396771764872539	0.8812883474034093	0.7964984158433439	0.977624413883054
-144	1.5832525451741193	1.5825793703177258	0.6809519512150267	0.9832258795709685	0.9416983699864844	1.9629985044509486	1.8087649299731026	1.537718769005817	1.5223226508806258	0.9538452005145934	1.5229369363481302	1.7735747054144273	1.3128790822260705	0.3044612399997419	0.4946291136174383	1.3173385825276165	1.860393161845012	1.1381373376721338	0.3520789733580648	0.6605852229606312	1.3690258229977046	1.847031827078026	1.1811370819788531	0.6104276760901964	0.7542142252953465	1.0990952225592188	1.4064913952602909	0.9554131602960961	0.8302757719058304	0.8296094515835686	0.7015535217692445	0.6206544622010035	0.3553508511154596	0.6220931395083148
-140	1.1198096247057114	1.1159448595482326	0.6645290238768825	0.5527989850392533	0.405121981074791	1.6361932713206693	1.6188145835059646	1.448166366735577	1.2074145048174771	0.5645686373761759	1.2766191927149568	1.5763264854687056	1.0263890002086047	-0.002158175449957439	0.08609431960303679	0.9579442715300927	1.683466072600548	0.836649356160216	-0.06057210623826161	0.2858769588405317	1.0810322734242204	1.5716956814185075	0.9235771871136874	0.12643910912539016	0.32639706052388806	0.7952311018893292	1.0833660336798638	0.7624918799222746	0.419055788651077	0.3221696309061891	0.3475759616659426	0.22940884472624115	-0.17202919678170198	0.17334373251542073
-136	0.4432129848734264	0.4375964988150664	0.6189672335256063	0.13771618867913263	-0.057880569103257166	1.1361006469653008	1.2549993960166117	1.1432582111104377	0.6951636654468764	0.20164458402744878	0.8616603591144948	1.217253920342867	0.8110827187087437	-0.08697237797474798	-0.2470992201288505	0.5189211355459292	1.32218777799572	0.5669866189946744	-0.4587275374274871	-0.043350744883044474	0.6705674512145422	1.0895733805803904	0.6567383988011845	-0.33658683215038304	-0.0912063864550974	0.3791874041520494	0.6391518099860283	0.508664964345322	0.026185359739710694	-0.15854820569063138	-0.0379116981264425	-0.14729735218052387	-0.6405913813630089	-0.25911050969508254
-132	-0.25428256328278764	-0.2588536732813938	0.5123528229175541	-0.19058674525779787	-0.41658964647972163	0.5309099541611376	0.7494174819145129	0.613389728904831	0.11556843639044202	-0.08784540720456893	0.31973373809198086	0.7258561831268009	0.6486833675219305	-0.07338768970319122	-0.40237614410853334	0.07344862055115903	0.8034835437515809	0.3559208503320076	-0.6704208237887649	-0.23137539566751175	0.23590186178729386	0.48778128500809464	0.4243762184395852	-0.611635266190297	-0.36228713301742654	-0.05156096803045034	0.17047168271416976	0.2542240017194437	-0.22167880777180438	-0.49118322010006105	-0.37794551157896716	-0.3948303153083098	-0.9471853351520745	-0.5915833100641655
-128	-0.7933121899602751	-0.7941418866134538	0.34091204318758916	-0.40124511617445346	-0.684853015601082	-0.08338406660962012	0.1611467148765375	-0.058773930967475796	-0.3915113498816613	-0.3010198168307115	-0.2795504622553998	0.14303739332802087	0.47073045254114937	-0.14179721438847168	-0.3706235280216325	-0.33443877016506846	0.17147164003471946	0.1750964517940995	-0.6265183671392015	-0.2716096632775694	-0.1495715524950259	-0.14622876011168862	0.212065204442576	-0.6393520815919679	-0.4455192375855755	-0.4255046237693015	-0.25888743931257385	0.014627563730204095	-0.2962040595682425	-0.6453047378460124	-0.63394659597558	-0.4891898917721927	-1.075631615784047	-0.8022390583764576
-124	-1.061010000411112	-1.056887385560986	0.13354225422998453	-0.4937539088180885	-0.8786002375354708	-0.5938754662778608	-0.41533911123316886	-0.7062132340720855	-0.7167864423774525	-0.45271241550587576	-0.8388503768722797	-0.4602352965179187	0.21889738683270557	-0.3898650993994438	-0.225224509266606	-0.6749737841730828	-0.49144410962958424	-0.013343629393564774	-0.3841727366284763	-0.23013938905308629	-0.4425505984577099	-0.730617580953372	-0.020897215179492678	-0.4819208073369626	-0.3959468891160681	-0.7048482877101753	-0.6215075238748751	-0.22649659159219068	-0.2669666402752233	-0.6791836602229397	-0.8106518367327503	-0.497933416301509	-1.0908837290878244	-0.9307417250022454
-120	-1.0289459202537237	-1.020686981485208	-0.06145195647460184	-0.47847467540100685	-0.9832050775499944	-0.893178758750342	-0.8595761039012512	-1.1359468669821686	-0.8064063171054077	-0.5424851165426492	-1.2460073201192097	-0.9763962005759133	-0.09998882536677321	-0.7471877317637399	-0.0665305776704473	-0.9101120210557647	-1.0599876615465058	-0.21213091856327498	-0.08063755909111035	-0.18891173553454885	-0.6171195491468789	-1.1869167059495513	-0.2928143434284242	-0.2701843076083318	-0.3116732231854213	-0.8716213085102748	-0.9062627531058884	-0.48473101731941526	-0.2431468957484178	-0.6873321515849656	-0.9361680126396074	-0.5267695771269133	-1.0894477339895212	-1.0436716053361739
-116	-0.739642260591384	-0.7295126896559603	-0.1998945618589393	-0.3652823558167949	-0.9555473899557914	-0.9129298902350517	-1.059512970156713	-1.2110596864641578	-0.66742783616357	-0.5421081171653968	-1.4047341311274595	-1.284274217224133	-0.4026361991730318	-1.0045853827862365	0.038900937786830576	-0.9888281797239078	-1.395896908096793	-0.3765944530992545	0.14803765676792632	-0.18980266105891844	-0.6540322287259246	-1.4449692928071864	-0.5695040807650518	-0.12425585804800515	-0.266812383454934	-0.9124805308192244	-1.0974825592942474	-0.7465978842005317	-0.2991686157779513	-0.7351910453354409	-1.034272072088116	-0.6480665786593519	-1.1387180061200695	-1.1892368763462204
-112	-0.28090542483933545	-0.27134585312045956	-0.2608841949075081	-0.1685763444220648	-0.7603989820355604	-0.6572780592536184	-0.9603370403839148	-0.915931222510494	-0.3580278447171756	-0.41555377736078547	-1.2741091219205127	-1.2983280387523712	-0.5705631956953917	-0.9387854910036654	0.08671677090685466	-0.8696942307449069	-1.4048488104637178	-0.4440745402091571	0.2345098400155627	-0.21431700831186024	-0.5445006476006403	-1.4612195454898524	-0.7730222324881564	-0.09237170196099774	-0.27170237830228344	-0.8171855190625984	-1.1697834700614123	-0.9634877418987872	-0.4290870715275144	-0.8189536312407515	-1.1038765879417394	-0.8523821213182484	-1.2369815079929498	-1.3635549510861633
-108	0.2372906500070541	0.2448557907121361	-0.253706961229645	0.07856685648393832	-0.4162062992078166	-0.21831436400130708	-0.6037017687814331	-0.37027048971151916	0.02887729920606636	-0.15895569284360953	-0.8976009465443529	-1.0196813319210964	-0.5230575190689636	-0.46249040844497963	0.11726897180275167	-0.5580623135782107	-1.0906723710179844	-0.3848323216258954	0.19868059406186392	-0.20859995431685685	-0.30653986257406846	-1.2420604197614378	-0.8233584740831764	-0.14054638111869575	-0.2814645760105617	-0.5919967278792838	-1.1012421818586078	-1.0702693435350124	-0.5554248676582033	-0.8718758203428231	-1.1156885595763457	-1.0506333086190733	-1.315442439572809	-1.5063251218911695
-104	0.7012887579378206	0.7068730574880832	-0.2083727861150302	0.31792259136040857	-0.015610178893135656	0.243313073497632	-0.1278927471985023	0.22079697195574008	0.38756438991924486	0.16906678633919964	-0.40050861138314586	-0.5541664944008824	-0.27472174098272484	0.29292431399775715	0.16852873521217063	-0.1299136873779931	-0.5705697522063005	-0.2333329761097663	0.1154895347421198	-0.13385266031802986	0.001405823623006139	-0.8542963840850218	-0.6876831633371617	-0.19225043009856818	-0.24248340664677567	-0.2762381129443047	-0.8940631724672863	-1.0183461878814988	-0.5843885526207827	-0.8109095076114637	-1.0279594633851816	-1.125207063695075	-1.280509945497492	-1.529803391408919
-100	1.0133422587559489	1.0178321574262534	-0.15706618090551663	0.4804849910525933	0.3027804486259642	0.5564878568904439	0.2847396128141216	0.6584194285935406	0.6273552759543798	0.4562597561284046	0.05393714071603472	-0.0748143194217077	0.06432606263609236	1.0273337338259094	0.2389269614147804	0.2832584969998374	-0.030927658002969857	-0.07301649432820906	0.06408653392108661	-0.0025989739158696905	0.2887816421847148	-0.40667393700921195	-0.4026544679966093	-0.1824495787782507	-0.138155460008857	0.05806718379499716	-0.5829838499609076	-0.8016817549492148	-0.4671162057050291	-0.5903121814128948	-0.8091338256434433	-0.9964493487949372	-1.0676811906561097	-1.3625940050055205
-96	1.1120535107192513	1.1160982819034972	-0.11649763554724138	0.5162811862308476	0.4192028929140113	0.6124321206842873	0.4893924581569504	0.8334534743247178	0.697264907983838	0.5858573302736295	0.3311782470924747	0.25593906576388065	0.34529155405604856	1.4233417475050403	0.2856980554996901	0.5462749586618345	0.35653519540415646	0.017518173858997715	0.08800970740747749	0.12319340525756625	0.4640946674550589	-0.009030764899699168	-0.057647831592448365	-0.09459304040629805	-0.004288469896069007	0.32865831172934534	-0.22552506568712707	-0.46387675287431024	-0.2299859666978218	-0.23151467682083898	-0.4572901714223576	-0.666982112631065	-0.6782248003048589	-0.987248954664571
-92	0.9883996819336994	0.9914825533629886	-0.08237776884499846	0.4212206293438535	0.2969599656713755	0.41493672027730616	0.44685912019442103	0.7587581257736814	0.5987242445134521	0.49818524592504926	0.3808512380044312	0.36247864274060637	0.4600043583223195	1.3107410636233752	0.2568481260013774	0.5813471660241524	0.5126373754909934	0.017858825578899905	0.18383026076634196	0.16940382080223115	0.47367307424163624	0.26985967091138224	0.24758000609355613	0.038723200461849405	0.09330762899205913	0.4765770125277615	0.11903862625108447	-0.08632996656556134	0.041379589482976604	0.1847184146747365	-0.009692645607258979	-0.22221934739274646	-0.1823714519903086	-0.4557555902418448
-88	0.691879151504821	0.6922162753748194	-0.037253685201525305	0.243915125111827	0.007996357025878854	0.08061692098290899	0.24123567281852026	0.5412916527433248	0.38430023096332894	0.22970615269363018	0.25347211892982285	0.2890247993324621	0.3972444822295523	0.7570393066366331	0.1363775726689854	0.40572601454341983	0.4802889215740997	-0.0158349535959516	0.3184881202286096	0.0997449306115487	0.32829806125723243	0.424378781439304	0.44793581849492525	0.16647288161209078	0.10413919362955275	0.4936590182238456	0.41066473618775007	0.2403851443420452	0.2532462173266945	0.5579298124532096	0.4634923327188019	0.21188050455004462	0.312150775598156	0.12588958410427087
-84	0.3178961268981951	0.31330951969198645	0.034413579764502995	0.06433018280715207	-0.2996859542909731	-0.21819546763644154	0.03152693800118979	0.31444662729981804	0.13950462604110286	-0.09814454590337003	0.06734346581384174	0.16692592161472353	0.24114397107276483	0.029900737031307974	-0.03194413698595151	0.12250462888544203	0.38672429225557914	0.014184490741739731	0.4554749417726285	-0.05516774565954105	0.10011633460278704	0.5001455532797954	0.5344841466760699	0.2557759576538646	0.02923163205455511	0.4257674802520973	0.6358649118581879	0.4482688594467669	0.35623049646083393	0.8143792727890132	0.878575263189373	0.5287945257187552	0.7074288707992105	0.6360631569062104
-80	-0.024845857110474663	-0.0355965382452123	0.13090196218819633	-0.04494058329441481	-0.47607302545513563	-0.3416681877093007	-0.03919414420961134	0.17043063001518438	-0.04884459811037904	-0.33786445770791784	-0.05741321653533388	0.13227632608395734	0.11195174576389214	-0.5427903519277734	-0.16123269457640893	-0.1320260759834997	0.35982954411257484	0.17434357062668118	0.56776356553736	-0.20981380290464302	-0.11057870807147402	0.5557243213927989	0.540803609913136	0.3093619338808014	-0.07659134994481284	0.3479036680020903	0.7988489846087716	0.5137505518340081	0.36635619309435713	0.9335427856717481	1.1635936469264052	0.6856323463295526	0.9526140069752214	0.9812732314130567
-76	-0.25533953244592106	-0.2715638869104975	0.2276015871977306	-0.056770801400856954	-0.44586306697809425	-0.25713604623723796	0.07223293912055065	0.12656980720989142	-0.124603606445908	-0.39218258758710467	-0.06277583523636557	0.2409157448884961	0.08867246635222294	-0.7365088444234529	-0.17130112604760878	-0.25632312829152126	0.44808843618748734	0.43999406584278083	0.6367004497665398	-0.2705490880334362	-0.2218314403655276	0.6225839241521562	0.5101665245527126	0.35516732841465953	-0.13739988173126944	0.32466101564454314	0.905676303007424	0.46344616892153995	0.3444322636968136	0.9433038806941008	1.2807739940731802	0.7104129177277115	1.0539932224365791	1.1265336246658468
-72	-0.3502003839710994	-0.3692724397395975	0.2870494418049482	-0.004354821972729964	-0.24318030415173006	-0.056526455885507455	0.28320965099356726	0.13847558165397622	-0.07954537103358421	-0.2626373761221827	0.022386114987835885	0.43406626472554494	0.16347712237092082	-0.5307861553142517	-0.03870842596056301	-0.2270682746399493	0.5950151070830889	0.6951057297323009	0.648204503807014	-0.1864854390681252	-0.20301368781332166	0.6906027180401787	0.46972861767429397	0.42067873371724623	-0.09948082988179632	0.3808885505119664	0.9570729708349658	0.3659875681696744	0.3530966928627127	0.8952996708200299	1.241447326386826	0.6765307170953299	1.060727951232747	1.1047317953828175
-68	-0.34916433603822933	-0.3675891747730679	0.2755218141275249	0.03722628196615901	0.012003299749884573	0.09287653094922893	0.43150624523890535	0.14128170871827203	0.045716509107561226	-0.045782219502969894	0.10624170276521275	0.5732548818420077	0.2530916028785375	-0.0947786865225629	0.18177866889835279	-0.09931924914079879	0.680309293936681	0.7966216186437836	0.5924004897419729	0.022016849313223452	-0.08139734694672458	0.7242969256234134	0.42460888516987844	0.5085207211053298	0.03832794343689023	0.49471309656171475	0.9522716378964959	0.3073618702280905	0.41678684844646313	0.8345029929072731	1.1026697130973742	0.658998428111427	1.0344184610953147	0.9988818739467241
-64	-0.3304097346070035	-0.3454131475310834	0.17971155002043881	-0.006384444872562	0.1815951163952304	0.040353618460338435	0.36987912561491204	0.09184599644598666	0.1795694376464919	0.1209566217587275	0.0923359391742228	0.5259019719197532	0.25902008944918653	0.32214227237430626	0.3806250085757574	0.03344352534910356	0.6025174840973809	0.6667341573094254	0.472899405954405	0.27446782519662277	0.07902374843672995	0.6978738290333261	0.3719890406276667	0.5916860088668542	0.22600376548927084	0.6153641923626756	0.8994690157115419	0.3562277248448589	0.5087897764711666	0.7803677896824401	0.9452167129494031	0.6960173231671942	1.0185832951578166	0.9042009092390237
-60	-0.3672895422245385	-0.37807309532078676	0.015327362304971068	-0.16645376342232734	0.18331785453766283	-0.26191255384122153	0.05653620497019392	-0.011242669978665024	0.24951210555023354	0.1341175582599041	-0.06011503547153612	0.25194248493481397	0.1356527354868631	0.5260500894616461	0.45115706210671125	0.09472928172274943	0.3527883282337458	0.35422861486646195	0.31843352237413325	0.4738029825645962	0.21308901852213682	0.6244185551137108	0.3226585976083695	0.6296206696826384	0.39284670253751536	0.693962870276263	0.8233867862893733	0.5365387187762903	0.5714374170181051	0.7280575614667325	0.8419740178784925	0.7753382901643462	1.024012205399542	0.8887215830299364
-56	-0.4878625261387184	-0.49579927200071433	-0.17895275309204148	-0.4094661761913102	0.030893795114242333	-0.7254328709406749	-0.4093971242105122	-0.13504485751865603	0.20959863013754712	-0.02223125094522952	-0.3078735164975507	-0.16038282175102475	-0.07366069387673443	0.46458247186666907	0.3476703158183838	0.0635395346467833	0.032619092531103344	0.02665218890434837	0.17764818623513623	0.554987309962012	0.28343236374820824	0.5564988837496995	0.30931913774596076	0.590471683441911	0.484970687595452	0.7066995483675801	0.7589142303379541	0.8156849721341665	0.5526667223328305	0.6617234928590329	0.8274019935698853	0.8475375154077809	1.032602307573594	0.9670526956938026
-52	-0.6598705632715786	-0.6675315482452173	-0.35709580688917597	-0.6526579840394529	-0.1812928314400152	-1.1663929194565692	-0.8317292311650086	-0.23794323145872984	0.05616946504239746	-0.2743589275108931	-0.544559179361662	-0.5352032767134695	-0.2611310773455444	0.2251422697581848	0.10845478596723253	-0.025441838364143637	-0.19986526617610617	-0.11781146347580523	0.09392181760201587	0.509824036264698	0.2872220568557819	0.5526691065186156	0.3674508919975381	0.4635177242974121	0.48529577132723617	0.6559401734003678	0.7288495283798636	1.1114004822327408	0.4327694166701186	0.5653390870125974	0.8790778495528502	0.8524246194298659	1.0100456450710347	1.0937347384495228
-48	-0.8092984536718972	-0.8188533762284924	-0.4871232199291134	-0.8085963109582159	-0.3369375756816783	-1.4006288016242747	-1.0183204386750206	-0.2951373450457129	-0.1741341795101139	-0.5063918816179067	-0.6583842022485673	-0.7041934114796814	-0.32393655099144975	-0.03996262689276023	-0.16833016233860276	-0.11503704608244986	-0.2239362293788445	0.027238313039912504	0.07510142754428528	0.3778514554497491	0.24181766746979896	0.6302856190980739	0.5015897738190568	0.25679561430946285	0.40737229482795967	0.5527291880003975	0.7202338558132677	1.3199976649336227	0.22715489508975042	0.4243731786027093	0.9222986674864831	0.7450977545046122	0.9200602746622396	1.1798632115139296
-44	-0.864603398047494	-0.8764311649129259	-0.5661982283602208	-0.833926198761238	-0.3664629748152027	-1.343577143137945	-0.8867943264506347	-0.3122277847990114	-0.4237216104299921	-0.6299252494166717	-0.5971419796172394	-0.6043302401543581	-0.2341862762022164	-0.21439346616975286	-0.38244181774856906	-0.17002879040228444	-0.03693880503984281	0.39638474483548264	0.07539299111404858	0.2120461756597795	0.16034933884190672	0.7341649513782232	0.6601476652644397	-0.016260212246253698	0.2712381475276224	0.39455544848962204	0.6750464422348805	1.353657123009041	-0.03340084097297155	0.219469814938522	0.8568612315478761	0.5104483949171438	0.7347211223172182	1.1266269655393295
-40	-0.802061972977277	-0.8142964223329847	-0.6215615852875499	-0.7588384728346358	-0.28758662866463014	-1.0618258687867377	-0.5186684714573642	-0.3240506938859064	-0.6403177364395359	-0.6359550936855054	-0.405364631583059	-0.3231066457220149	-0.06863849592760701	-0.28445541786855005	-0.4893627750439272	-0.2049905056546289	0.22709391953829916	0.7640459518215797	0.009039238072461627	0.04228506971650554	0.03435596442489245	0.7450579386020028	0.7385484557578724	-0.34708115370858894	0.08045370856476484	0.15650360246722447	0.5063310252757447	1.1697758406669	-0.32812073743947334	-0.07737275938526475	0.5967197999193612	0.16334132808930416	0.44030594714578064	0.8631859399936691
-36	-0.6672540290198438	-0.676457284173152	-0.6971397382301258	-0.6780669672058921	-0.19815389761963595	-0.7481606583779521	-0.13077676263216173	-0.38150644206047046	-0.8001174310510342	-0.601837037474343	-0.21352463906737795	-0.0640623716882718	0.022036926765236324	-0.33609282885573183	-0.5254068957414988	-0.28027242351341897	0.3544840803733243	0.850829837558282	-0.20478042908464844	-0.14153802359132028	-0.16619820850849806	0.528742431259353	0.6163142307933519	-0.731330273689152	-0.1830736543086346	-0.19684064338577661	0.13589239086173868	0.781541643553683	-0.6599633080986149	-0.4966607677318004	0.10573062273987652	-0.263254433205662	0.038631189517	0.3735175421344277
-32	-0.5603342042127335	-0.5629323110672885	-0.8305639007579472	-0.7037804705017201	-0.2257039094233241	-0.6311382635394331	0.023534426406211815	-0.5330381976021145	-0.9175856686313475	-0.648643074782164	-0.18216392351888586	-0.04864175977943021	-0.11015620054805039	-0.4920854556057482	-0.5834887609055252	-0.46819674850511167	0.15776540299161138	0.4705546486418282	-0.5885776266496655	-0.3748099496438295	-0.4737184333761958	0.004915958723680249	0.21605059449961442	-1.1549038857865406	-0.5393341766091984	-0.6822238547266776	-0.46154248597918746	0.2489136749181995	-1.0449479791961716	-1.0509804460693688	-0.5828172549791809	-0.7291844468780109	-0.44971525555555714	-0.293952136489669
-28	-0.5880785569602212	-0.5818625673862239	-1.0298964951262017	-0.9054819918659468	-0.45858842018693263	-0.8615826942625485	-0.22220839503929665	-0.8053963760068833	-1.0335130665434624	-0.8711720086990922	-0.4243152428881339	-0.40203919905246877	-0.5294654952032977	-0.8314096310605299	-0.7520709018792797	-0.8064297417307453	-0.42204886568323885	-0.3587731709958877	-1.0742570134697076	-0.6814026219330356	-0.8929861761435589	-0.7962716201705461	-0.44362565763048695	-1.576594944788096	-0.9783505176638746	-1.2670263019997354	-1.2277464835640564	-0.34079280409601703	-1.4833332262735592	-1.7086604790463376	-1.36809539449511	-1.1911236017671771	-0.9796813701690594	-1.0348098251919218
-24	-0.8049803355874016	-0.7899966816030148	-1.2617905108065948	-1.2651808229928592	-0.8936192966787647	-1.4324244224622724	-0.8606452920165326	-1.185643789158942	-1.186051723346755	-1.2780048814931966	-0.9424545741128405	-1.082112071166245	-1.173819062130386	-1.3295634951401842	-1.0526437732822713	-1.2644778458141532	-1.2714678016986047	-1.4029039109096073	-1.517092939361237	-1.0385774347786618	-1.3782874310981006	-1.7226980881112377	-1.2330298392636079	-1.9244683932353617	-1.4387248718177033	-1.858712430075879	-2.023452515261757	-0.8933157898283347	-1.9342615555565226	-2.380793565461242	-2.1068177170013533	-1.6026753146715904	-1.4818443022508292	-1.7154278711877597
-20	-1.174150225535922	-1.1526871890529404	-1.4593378268590442	-1.6705087381148294	-1.4254810774099174	-2.171477550746184	-1.7021007494867884	-1.6103185374611309	-1.378961917256676	-1.7720302298629067	-1.6099884469391983	-1.8872171592748466	-1.8695745420937429	-1.8504316760074304	-1.4104313814792864	-1.741109724417292	-2.1413323825178496	-2.307804340257949	-1.7543859437517537	-1.3650249208319027	-1.8310474111103872	-2.5427060063061147	-1.9459922264558605	-2.1112317985636952	-1.8119877531079709	-2.3235099256980325	-2.665521376555728	-1.3215892281543968	-2.3101630152550454	-2.9328653738360715	-2.6511247091116075	-1.9112992238426463	-1.8705770922163338	-2.2072644177975542
-16	-1.569555636257895	-1.5453551968658703	-1.5448296031095679	-1.9558094690534498	-1.8821703148051667	-2.8094241548178966	-2.4481146273792853	-1.9709073255369378	-1.5628023108126043	-2.182225221846368	-2.208346599725364	-2.5379402573404857	-2.3982233940610347	-2.196902746375961	-1.676757093010858	-2.0939996189654786	-2.7455346515001984	-2.755632155136814	-1.6780166583610714	-1.542337771336379	-2.1226315444760755	-3.0245108528069595	-2.371320956918874	-2.0630667157537816	-1.975063438197343	-2.528534644418676	-2.984502069567518	-1.5525326689623118	-2.498385661493086	-3.221128217193971	-2.8854832576379508	-2.058288569022071	-2.0597772546262223	-2.4164392887141406
-12	-1.824155087633831	-1.801235790473374	-1.4646601639961803	-1.9769387195265318	-2.0949635452783526	-3.095182887845815	-2.817628376522647	-2.1454696601105536	-1.6480418402070753	-2.3360302389293612	-2.511438363410204	-2.7977430749828867	-2.5855925017880463	-2.195717329203661	-1.698285336975059	-2.194205993834552	-2.879570000054003	-2.6055447989483653	-1.289651390634324	-1.4663057290249848	-2.1405992453889633	-3.0241129321994435	-2.3760447442146866	-1.753957028729033	-1.8417241526834676	-2.394510978375217	-2.8848714755655207	-1.5383527240060473	-2.406990283611044	-3.1460671345435163	-2.7578339507092577	-1.9910008857050174	-1.9882272431720422	-2.3069777430462906
-8	-1.8042163803324869	-1.7857708885882857	-1.2204415767374068	-1.6841711955464604	-1.972821945931579	-2.906775228790859	-2.6696824960062817	-2.0510678239536317	-1.5490637978544317	-2.140375608762331	-2.3843266903760276	-2.5769612724092035	-2.3715884625639503	-1.7810435250137955	-1.4001649582798037	-1.983907456157497	-2.5056433614411926	-1.9492796610255023	-0.7079918366676926	-1.1050358982796937	-1.841627473949886	-2.544747346175228	-1.9633181045554273	-1.228315111873778	-1.4099738562271455	-1.9363841961609045	-2.3846819340579923	-1.2759349313946629	-2.014576906839952	-2.7007193497182045	-2.2976884783907887	-1.6869302945461473	-1.646255965844824	-1.9125287484519686
-4	-1.4752567969268848	-1.462922450186786	-0.8759255983172175	-1.1555134028824747	-1.5473074873959143	-2.3059792460395343	-2.0662672467515604	-1.691215034029653	-1.2360807626033783	-1.631445880585585	-1.8502399874703168	-1.9716440389445016	-1.8335356666048983	-1.0362534496847369	-0.8367520549629046	-1.5097800455122075	-1.7663123563040397	-1.0572011444102916	-0.12125572531603585	-0.5309047685570553	-1.2843643394468058	-1.7406475500028704	-1.2740892139692082	-0.5957136735180928	-0.7778048495682139	-1.269511338843437	-1.6152117211569679	-0.8222460726005419	-1.3956271374752205	-1.9873039672268025	-1.6123136241260156	-1.1763123244150455	-1.0892555686152505	-1.3290743794263922
0	-0.9274805164762384	-0.921120104848315	-0.5351247773964984	-0.5717117771973136	-0.970049736434832	-1.5150319299593968	-1.2482534615472545	-1.1728216380072327	-0.7679221014661819	-0.971095797947999	-1.094748017408146	-1.2232981889357	-1.1553069323934941	-0.17820359721491225	-0.184566422830943	-0.917603371210801	-0.9254937148569565	-0.2517094307743306	0.28782918976593114	0.09089113003909571	-0.6251248105478713	-0.8642748572463215	-0.5340478406774156	-0.0010949555989649554	-0.11861743748042317	-0.5778473601057119	-0.7813985924065833	-0.2943593554217463	-0.7081522923710228	-1.1928541630192164	-0.8619278647595713	-0.5520269856820715	-0.432347385983852	-0.6919220072443063
4	-0.34543964179561915	-0.3434173456104631	-0.30242067499100833	-0.14037713373028335	-0.45848503593083073	-0.8253447392606568	-0.5344784842348306	-0.6746258718624072	-0.28274625468393094	-0.3876443197476868	-0.3987539698546779	-0.617765186657456	-0.5557488785063843	0.5211003409580602	0.32541191495752764	-0.4054162194029819	-0.2636039250394201	0.2285104537201323	0.41378399625258283	0.5600933418438043	-0.0697527302530638	-0.17573854282832127	0.03631708761821188	0.42147472394388946	0.3788373460741673	-0.05257991688089364	-0.09409729367579159	0.16086126823342886	-0.14209555053598047	-0.527806161501585	-0.2157277459420036	0.04725937533367685	0.1785338069461342	-0.1387562450243537
8	0.06728653592764437	0.067489139565305	-0.23991875289901649	-0.004877914662264547	-0.20880490488739958	-0.47865122435838586	-0.18846064758402759	-0.3736867895228401	0.0574916040935962	-0.08458414652449793	-0.025311751227249785	-0.36895394232104434	-0.20661444909859555	0.8390166738307832	0.5059778081516976	-0.15159329733721916	0.027177691391038688	0.3119575075379598	0.2640675597676349	0.7226524334782124	0.20236214944292685	0.148369460923392	0.30840080898622485	0.5939759597086983	0.5818064794156318	0.17457029179367317	0.30003687663620227	0.42159744990717213	0.15101766548175416	-0.15265272519194334	0.19815580496826396	0.4784328031381579	0.6092380865927727	0.22896277846702953
12	0.1741626705302446	0.17512424245965585	-0.3405182054982301	-0.18044815911987452	-0.31095805685688943	-0.56973397587937	-0.3103705338748217	-0.3643380692343249	0.14517427944246827	-0.1549835350176779	-0.10804679217477506	-0.5370747433454022	-0.1721989508095937	0.6946637016877626	0.2974013678671452	-0.24559588668328236	-0.09476620680009457	0.09228548384254781	-0.05220773057869459	0.5398462401111709	0.11059842975826428	0.06996285152652774	0.28677907513692963	0.5230546580460216	0.4663203942923197	0.07667124997093253	0.36253723410627264	0.4447293866373286	0.1177861091500979	-0.12322595684411203	0.33061116850351335	0.6455450041684954	0.7787483314879815	0.3729078164222373
16	-0.037899803274549546	-0.03438714137932156	-0.5339947925436995	-0.5480760322084651	-0.703884242188012	-1.0124974225230354	-0.8008085469054599	-0.6131879075781311	-0.01575011010961834	-0.5398796783168055	-0.5926117286025235	-1.0142726872585435	-0.3936786045625451	0.1888047600986083	-0.20241124876893662	-0.6507486088535387	-0.5216445909681302	-0.24575012860241044	-0.37271907831503254	0.11247591645930412	-0.2907184653094787	-0.3116262547254569	0.08860425628703031	0.2980061761961541	0.1280163523302932	-0.2621618502673652	0.1648789789090151	0.2884808175432929	-0.17374685362818013	-0.375915764813233	0.22332239094617493	0.5414642081895139	0.6866244060346895	0.32483622349741803
20	-0.45770338062121974	-0.4512304056219222	-0.7222249489669625	-0.9132522321531831	-1.1958562105503945	-1.5837049444268223	-1.4126856291390002	-0.9771360134249976	-0.30600207966794024	-1.0526381704456766	-1.262411948831454	-1.5819698532217914	-0.7234476786467978	-0.4370805908135156	-0.7790940980314506	-1.2179640500789282	-1.05601274700576	-0.5260400758813492	-0.5465688691644799	-0.3569499841261011	-0.8331951477949135	-0.8148475268771865	-0.12740509179850365	0.055713429906372326	-0.25751170450998645	-0.6838184577843276	-0.15319643876021172	0.08316554108126407	-0.5624033198462425	-0.7603064756271025	-0.013777593115949822	0.2547323399311272	0.41283482208925354	0.16806448953634842
24	-0.903793273074434	-0.8954308606428494	-0.8252619484092728	-1.0995899411096055	-1.5454517563901626	-2.0230276533548706	-1.8662259531587158	-1.2795332637906682	-0.5477570281504327	-1.459164973389632	-1.8380275918331204	-2.01085400073668	-0.9961502526882094	-0.9020978189580787	-1.1947663992280726	-1.746658320785424	-1.4987478218385841	-0.656029759181239	-0.4884698974674462	-0.6499202235025417	-1.3059915271210845	-1.2582281796159427	-0.24707065460291402	-0.07454824428810214	-0.5088136183290166	-1.0211052868811854	-0.44926583653508534	-0.03970840935814472	-0.8634842016353722	-1.1048436136961337	-0.2511630946016987	-0.06657592935442629	0.08770503826647728	0.00011386081285665785
28	-1.206824061207823	-1.1986192434566265	-0.8151477554721621	-1.03257751204143	-1.570875163880601	-2.14669537002262	-1.9754019925788124	-1.4039916956740117	-0.5940382465623314	-1.5804265697631634	-2.1050255245467717	-2.1584749167305506	-1.1055439682704764	-1.0077759002037183	-1.290485974868362	-2.067746395612572	-1.7264447168630699	-0.6507309658787297	-0.20574068971187792	-0.6282681210868102	-1.5460922679013018	-1.5320376119080388	-0.25924369627349686	-0.026121776485057077	-0.5154820667603615	-1.1628639668669072	-0.6372633560303774	-0.02394545631025486	-0.9487957930451947	-1.2859995332674454	-0.3930632462114376	-0.279446988592331	-0.1568491454932762	-0.107410110262053
32	-1.2834246126196498	-1.2774701086216218	-0.7226735931270543	-0.772005138832277	-1.238299128267028	-1.9259860466968008	-1.7282278494116685	-1.3524935211366738	-0.40564766423806037	-1.3716638053595136	-2.0091590830621264	-2.022325749059768	-1.0508642170123503	-0.7218482476129332	-1.0511411401912776	-2.1111054367170903	-1.7273274616499648	-0.603013096717437	0.20821048266771658	-0.2952577762301775	-1.5042623243499909	-1.627472634974889	-0.2524518960301007	0.1757797892424017	-0.2821073226958743	-1.0912449332342513	-0.7117694598347297	0.07693465034611055	-0.7993397692526131	-1.2701576916097495	-0.4102045883312458	-0.30795743983718254	-0.23604136645803844	-0.13342213596990418
36	-1.165353414454311	-1.162764188691805	-0.6141562446347073	-0.47822949169534235	-0.687353072815229	-1.498294826539435	-1.2881833282372128	-1.2372118203397804	-0.07216820102590743	-0.9426043605847829	-1.674831982198763	-1.7300704673956029	-0.9341400838155343	-0.18524350179155957	-0.6055551156013999	-1.9288778256354226	-1.5876929719893853	-0.6266270860109973	0.6101993306966385	0.20748212881156142	-1.257446643515621	-1.6161137778487211	-0.35455748349317984	0.4267684210492833	0.08074178526281758	-0.8778213240395125	-0.7298057060889362	0.13198117878493598	-0.5058789240462648	-1.113585707713979	-0.33821794305286584	-0.17208069519465788	-0.14201466703322446	-0.10627289089551273
40	-0.9707748865413386	-0.9710046624463676	-0.5524541125654535	-0.330351411462238	-0.17460437074923746	-1.104327437473682	-0.9154436565174623	-1.2090003459923673	0.23883078932067814	-0.5061931001280827	-1.3376961912713845	-1.4731965027807805	-0.9057346559545117	0.3630198827161228	-0.16194440383555259	-1.6631666379899337	-1.4386285507119894	-0.8008148053931455	0.8619455077343803	0.6678289754218957	-0.9619879102260908	-1.594313617495741	-0.6473549588071752	0.5949411377191094	0.41496825113431274	-0.6417139752398744	-0.761876223547944	0.016999997155660827	-0.21510253792337186	-0.9229333377424491	-0.24375238953083986	0.033676337365718144	0.05933613687673904	-0.0784756017730176
44	-0.8390798547540856	-0.8399476983798242	-0.5678445086447607	-0.43900236376551166	0.04100529466647395	-0.9807240938221274	-0.8474371411862326	-1.3673608268547526	0.3715427508510378	-0.28092726994159045	-1.229159352060245	-1.419241424792004	-1.083628174906924	0.7001640182937487	0.08659391828370215	-1.4777197800520752	-1.393945690450352	-1.138732072816201	0.8835213758096366	0.9011319256919321	-0.7762905935715183	-1.6277178484828758	-1.1069009276100068	0.5872962459995194	0.5914714321462046	-0.4941144573134245	-0.844024417653589	-0.2993630461287177	-0.05139970393912738	-0.8006978610803914	-0.18122363044760567	0.1980200702912919	0.26085659795704674	-0.09387958771129912
48	-0.8623605348749035	-0.8608320929727871	-0.6496743543434641	-0.7951678017567375	-0.1810150886972243	-1.2551530567904547	-1.193657037582314	-1.7017558770129888	0.2627028816266255	-0.3926685740570538	-1.4698661528670087	-1.6429325300698285	-1.486389990868503	0.7146393638687742	0.04195814569131852	-1.487559672414622	-1.5075322351541132	-1.5870971639617149	0.6850326043953369	0.829948005965038	-0.7923949340841424	-1.7252099470450204	-1.603834267381677	0.3986978222794413	0.5667874798769825	-0.4949662374874367	-0.9582232212669372	-0.7206045967028346	-0.05483775199515585	-0.801105676058915	-0.16346870321486756	0.2552943819276177	0.3642145088060174	-0.16160435933796752
52	-1.047046539524125	-1.0404384109931406	-0.7632123212618559	-1.2790262666834888	-0.794767914195949	-1.8905246210050823	-1.891806597701675	-2.1001408047104717	-0.0331663488504366	-0.822152314494547	-2.023299927371517	-2.105122084071064	-2.016667599354815	0.4384176720040637	-0.26820769838328073	-1.7190629200448542	-1.7658002331974225	-2.0506193586074737	0.3607231071424691	0.5069754110887845	-1.008778807954177	-1.8528064442585759	-1.9663757036153957	0.1136593219748481	0.3912581493512947	-0.6396411641183987	-1.0507960292988994	-1.0660556527878993	-0.16833370881495796	-0.9143122411531924	-0.16040869016679196	0.21810990516908252	0.32727083481176683	-0.24844218727805537
56	-1.3207114901576504	-1.307836648500093	-0.8822305776256397	-1.7216374830647823	-1.5853800733593606	-2.700887673234625	-2.7393634250143144	-2.417251103973932	-0.38724586269836936	-1.419817920914816	-2.726176731856079	-2.681665652180251	-2.5045869287198608	0.0022941376024677757	-0.7176951747894038	-2.114830727006147	-2.1105625576138465	-2.425312751368739	0.04780565562695437	0.07350361328640607	-1.3512308563449398	-1.9726422975326796	-2.0734515137774894	-0.14109963143010412	0.16745242434185645	-0.8762148596575822	-1.074859974054733	-1.1711105078693411	-0.2801741056521102	-1.0803428861044888	-0.12267843602916824	0.16273270506303925	0.18926960182087676	-0.29059263990467554
60	-1.577048178505824	-1.558898206589673	-1.0100355122814484	-1.9844205329384281	-2.262217277537352	-3.4279794606445004	-3.478843441763029	-2.557448619107638	-0.6758055669888233	-1.975944752472767	-3.3698305998599154	-3.2196099676860856	-2.789129250160274	-0.4459713686173777	-1.1454884977030124	-2.5704622203778826	-2.470221513233505	-2.629508250273361	-0.1352269199056628	-0.3178772620281713	-1.71891581578192	-2.074133390911998	-1.9216102313163081	-0.26735967330187993	-0.012049010924376439	-1.134588953968324	-1.0236545775317927	-0.9823335384362891	-0.29252344296033234	-1.215855237752099	-0.007638161051360353	0.1817622180164363	0.06755720806946665	-0.21152628904819995
64	-1.7335042909724434	-1.713192220177169	-1.1771359413944724	-2.0189142176200168	-2.589298241753666	-3.8489799402334315	-3.901317586585667	-2.5257441933759166	-0.8492293932454588	-2.3150062502586866	-3.791572799646559	-3.596573820570403	-2.799394838894732	-0.8130649903750342	-1.4262667858353628	-2.9830140992191017	-2.784899227740534	-2.626775496526599	-0.14534629844685576	-0.575425623394602	-2.0288052507676517	-2.1771578733789374	-1.6275229412949523	-0.2508136325702629	-0.1123336252714233	-1.3513834442351795	-0.9329977011966534	-0.5900298342113066	-0.17659328833340354	-1.2399800984547393	0.20746652729583084	0.3327891222181073	0.12336429922428643	0.06041646733527513
68	-1.7715709164714273	-1.7535737708640946	-1.420503135909424	-1.8801498365616718	-2.4924817022337	-3.869372596508239	-3.9238488575096158	-2.4209058223637525	-0.951416728478641	-2.370555394863312	-3.9336626430378168	-3.759233226821715	-2.5941708022424628	-1.081970688949195	-1.5169973335112585	-3.287635556503595	-3.017697565089176	-2.44026874879802	-0.03648520624366671	-0.6988389474390925	-2.237058633878337	-2.3066205920156984	-1.3646937574263667	-0.16739106136021512	-0.16322763222968215	-1.480421181755765	-0.851449249025224	-0.1764692212656168	0.018304234324375508	-1.090380069840744	0.5296397195795363	0.6151034220424416	0.5073135482377417	0.5780210480401489
72	-1.7415673688787219	-1.7305569605050313	-1.755105252603087	-1.6938080744894148	-2.0896913952519904	-3.5589406400471315	-3.6106889156733155	-2.3778197705316164	-1.0776901217908128	-2.204127544560235	-3.8459803960973282	-3.7281021977712845	-2.337164396107284	-1.2795979944347309	-1.4586769305594434	-3.46594976503777	-3.1512441555570567	-2.151046509080238	0.07226377707356346	-0.7524126749115588	-2.330694192723961	-2.4553902087207797	-1.268561717645273	-0.13060483303474119	-0.21965768877837968	-1.4870640001899214	-0.796000240223569	0.09336110925944882	0.2111417496834024	-0.7269176226382812	0.9653882359926522	0.9909256075636136	1.307114240207239	1.365904566177277
76	-1.732921357548012	-1.7324845747122006	-2.155819410603222	-1.596855636379704	-1.6347478586885154	-3.1212434689872937	-3.141267291721162	-2.4945626195868447	-1.3014470305963033	-1.96732687453432	-3.646587839456581	-3.5794792084919806	-2.2212758008188196	-1.4247304165155112	-1.3437247242380363	-3.5346677214072426	-3.1842975536059295	-1.8782380771899725	0.06495278312258149	-0.8064846376084448	-2.3091461600177445	-2.568993085097168	-1.365598198303905	-0.2119799399984401	-0.30632156056312976	-1.3432295288504927	-0.7290771585176861	0.1690268363261398	0.35726511388223303	-0.1363119777575757	1.5246653518329631	1.4299559557097765	2.5098149713092	2.407311433436283
80	-1.8294844581190328	-1.8410648061046269	-2.5622026855629203	-1.6805401998052005	-1.4038860762437364	-2.8109164167007257	-2.7426247527496104	-2.78841637861056	-1.6196930367584466	-1.8299556924394373	-3.4678859623137654	-3.417927971793535	-2.3811693131409575	-1.4979137144417032	-1.2696800199877254	-3.529428473144714	-3.1368997017816276	-1.748503084536565	-0.10362295035187588	-0.8864812828570647	-2.1766817514776733	-2.5707209045355546	-1.570012327045011	-0.3842735578848593	-0.38515752456696895	-1.0359806988309335	-0.5794719442996082	0.13733535970346297	0.49105524892805136	0.6533264501289211	2.200424904036136	1.941310639248442	3.9881780046860675	3.6253821758290896
84	-2.0747392125199657	-2.097108358810535	-2.9059481547420436	-1.963668103028665	-1.5763500889079771	-2.8326144146928187	-2.612421267589451	-3.2020144381742357	-1.9541856001152889	-1.9068349551695303	-3.412274113622995	-3.34733056176975	-2.8379969525210256	-1.4600639306398648	-1.2982275453215337	-3.4921259791898214	-3.057377807527445	-1.8557019186851644	-0.37381002212560216	-0.957820591892496	-1.9502541969651195	-2.4139251648038624	-1.7458020404607428	-0.5224297629517741	-0.367415397431664	-0.5861338362200444	-0.2969908110749689	0.15897460241711678	0.7140452843757978	1.5559512337501287	2.9355935976298424	2.5682322914131754	5.519692407023589	4.8721933241857105
88	-2.457720035069878	-2.4871411260753087	-3.140428296743422	-2.396497958808433	-2.1585426276068445	-3.260364524239074	-2.8559474872962616	-3.6428096202430975	-2.201334470913112	-2.2128868047157324	-3.528507223757391	-3.44417666519345	-3.497345438710335	-1.3011972871353248	-1.4341753685027736	-3.4629235180208746	-3.019334308630576	-2.2225618306312467	-0.6030450448069559	-0.9524586176666843	-1.6729223685942702	-2.1288423484459904	-1.7942588284014505	-0.4681116926772319	-0.16517870086451142	-0.06365648641011794	0.09223417914468693	0.35732957630539486	1.1300704450685992	2.4240565238786247	3.6021377949368483	3.3432302390567137	6.834623796373384	5.940315231584177
92	-2.920127622861151	-2.9512634202831514	-3.258974543926421	-2.8847794459942198	-2.9827916546853617	-4.006783952133599	-3.4519090565313495	-4.029073705037527	-2.2989094199312854	-2.6616284780059862	-3.805962314533325	-3.734026899447	-4.198346127400684	-1.0815845700613147	-1.6273506838719864	-3.472942343526585	-3.099664918703029	-2.786848299619768	-0.6387066228953249	-0.81792336495841	-1.4159846270096992	-1.8301509572552286	-1.7160067514963568	-0.1256314661907227	0.24678239164034682	0.4160141338335459	0.4679572868453311	0.7280842643475245	1.7622494653078278	3.070919744367645	4.01559828698073	4.228689183049172	7.679882983845022	6.604426844134752
96	-3.3781583223883285	-3.4055533323136697	-3.291981927189643	-3.3218560134942234	-3.7791557216597207	-4.853557574415867	-4.253872383821772	-4.315763939451644	-2.266626829146702	-3.1043016832176895	-4.17928599256111	-4.173768509817472	-4.782293307628018	-0.9290489530948981	-1.7944884254925455	-3.532804480216268	-3.339389792594242	-3.4127900514268683	-0.40247082608651996	-0.5570009932760197	-1.2578413454723272	-1.6698759752074914	-1.6056621034137442	0.46593323232315864	0.7965918163214711	0.7234752159926146	0.6565434916132611	1.1282603712206303	2.503492349025969	3.321208945472175	3.9928438562673048	5.0850143304232915	7.88259981072579	6.686615450189452
100	-3.744094123924146	-3.7638106251103287	-3.2821769631488467	-3.6143028644862127	-4.283031929646589	-5.5282592633862375	-5.026928412143431	-4.486929882165243	-2.1897056047467935	-3.387540331870867	-4.538336265549859	-4.647734153457249	-5.143639551527719	-0.9734833811977388	-1.8498829556490135	-3.618454685612205	-3.704505911057178	-3.929849853130451	0.061011615986564495	-0.2316606038920419	-1.2447296349570303	-1.7551112130675495	-1.583790655905793	1.1309356660899743	1.333546158284731	0.7663549761497039	0.5152032958374508	1.353378411690775	3.136108152101009	3.074078075277029	3.4325563820959575	5.694903359340013	7.393823604989617	6.120680316730605
104	-3.940990199629424	-3.951787461793936	-3.2543716348499077	-3.696736088002454	-4.333905685926837	-5.799456581732291	-5.514298425103614	-4.531567085269098	-2.1584844534736907	-3.407916060426601	-4.748651015690252	-4.990460383213287	-5.245482431519614	-1.2605196205739027	-1.737222428704145	-3.667361965456988	-4.075186719142295	-4.186960209765855	0.5978460892841934	0.06728763861356994	-1.3589287961982461	-2.07904958200066	-1.714497800313033	1.6279230076696747	1.6886078076644706	0.5318797217291847	0.012105853266252008	1.2523384062619776	3.4131629380836417	2.3460786283388058	2.374022000994696	5.83679626898543	6.2954912026723076	4.98197125130723
108	-3.909872045182233	-3.913412561072952	-3.192871800944511	-3.5359773546589413	-3.9233891864902684	-5.551416383078748	-5.513532624629473	-4.422465313236204	-2.199163192918716	-3.1401984612337484	-4.682249057392324	-5.032859789539344	-5.0982427468327645	-1.701517935271646	-1.4479579888979683	-3.5905666260665265	-4.274212349590731	-4.100230206627894	1.015722629843689	0.2688644223577579	-1.51335656260828	-2.5034160550808493	-1.9571921775994583	1.7596392587104142	1.7484996274671767	0.09978397910435859	-0.7409136872658779	0.8118646124369332	3.1649632374010817	1.2725309101401345	1.0011310552116448	5.376911149754682	4.771201121681902	3.465889206718831
112	-3.612242927967976	-3.612159004628344	-3.0378210467888573	-3.1287412564439494	-3.1753857055601924	-4.8102307198194465	-4.938785540509281	-4.113723744496658	-2.2388808670738096	-2.630255454098379	-4.25358198999316	-4.6578359486282785	-4.723482596869519	-2.0877432770470703	-1.017566082292648	-3.2994937813424308	-4.127506245682564	-3.675170650740007	1.1750982970133255	0.3615794172694728	-1.5797252615145068	-2.8065719533633056	-2.1841108743837214	1.4648667536944502	1.506322499286806	-0.38290515445356077	-1.5240433177616577	0.1602440919406603	2.3765954911310208	0.06326673163891569	-0.4157666553490633	4.332314957171087	3.051385871812593	1.8222289039381325
116	-3.0342092437431667	-3.034356348006101	-2.7043437889485555	-2.49919223154415	-2.274095052699624	-3.7150947953840814	-3.846357335869936	-3.561187496730912	-2.131036276205344	-1.9612007091597723	-3.448247900839909	-3.8420674703869926	-4.130221356454518	-2.1750605051438763	-0.5027965890587772	-2.737561218979436	-3.530963173534516	-2.99552177626577	1.0528986427426874	0.40181451934455514	-1.4382642471240419	-2.7756586004750456	-2.2557957115440432	0.8435943105379757	1.063790199454996	-0.7553572635653183	-2.0978002495253407	-0.5102088438503963	1.1978698938644021	-1.068828937693007	-1.6161340434278935	2.872775308985343	1.3536231483616048	0.273486077095006
120	-2.194058412734461	-2.1967408601611598	-2.113662475971499	-1.693751926914178	-1.3741584981556443	-2.449335568919782	-2.4099025665474167	-2.7483327319374697	-1.728069181847677	-1.2088253467557486	-2.3281984270442275	-2.662121289207745	-3.3161964332777996	-1.8041590406643577	0.05182570578484214	-1.899371857616046	-2.4906279977858654	-2.1863942091100124	0.749542353645002	0.4900993394398795	-1.0223606799062752	-2.294908756184062	-2.1054186767827177	0.10561852130449823	0.5887069091238569	-0.897704837439934	-2.2973959387949696	-1.0493280861110772	-0.1153403666683654	-1.9714347074325789	-2.4357621608272204	1.262032148035904	-0.16004158516054717	-1.0439497206079937
124	-1.1495764226499667	-1.1546183795387872	-1.2252758710443543	-0.7738436440957321	-0.5341589437349965	-1.1625580758306922	-0.8528487660810168	-1.7043336586837265	-0.961429951147757	-0.4055053283466961	-1.0068378423066116	-1.2602343527447277	-2.2927350940038806	-0.9876543854573095	0.6435013397182413	-0.8274188020796696	-1.117516991654859	-1.3711883987139855	0.436974285929827	0.7304994445477255	-0.33543848906703966	-1.3872067893290605	-1.779529090203166	-0.5251945243927002	0.2525835030854325	-0.7610378246166501	-2.086052412488351	-1.419044729464742	-1.294966456004816	-2.5791387492866407	-2.8416097092410304	-0.23112784267722336	-1.395707007699018	-2.089774603335887
128	0.00518562364014061	2.95431708927828e-05	-0.05623825997816547	0.19812142798947655	0.29943013115624306	0.08417112359015023	0.6388953908048519	-0.5005348312138406	0.11878889769126728	0.472754238842421	0.40058547157238966	0.21909710709568248	-1.1081289024985692	0.09407988166898053	1.3225898709283597	0.4151786555298386	0.4242662776725745	-0.6323896034486883	0.2829569273003577	1.1976867883961144	0.5701972231773947	-0.18645900440823407	-1.4059594834116582	-0.8956257678307729	0.18258078350223125	-0.3572360268156561	-1.5392377337694378	-1.6824164348087034	-2.1376302188309078	-2.8897797988410923	-2.8972549365327906	-1.4031329119542562	-2.306483024495904	-2.877359382994155
132	1.15703963941274	1.154594895308805	1.3149793114840735	1.1726920575098183	1.2469458548534733	1.3209016289740039	1.9795991132347197	0.7696689943908486	1.3604422773345615	1.483939524718684	1.820846672229281	1.6843292670640058	0.14855629168196877	1.1763281792505158	2.169643635040365	1.7734130576182046	1.984271044489709	0.008714213945322027	0.3890276243401416	1.919680352132643	1.6314593512352702	1.1351250381420803	-1.1083559961945901	-0.9583177542333123	0.44057983048783206	0.2756665938093188	-0.7791218737958459	-1.925702567006965	-2.5374188359093073	-2.914939396174421	-2.687748186954933	-2.1434709971669914	-2.8596196102423126	-3.411984435050118
136	2.2003424112079752	2.2023460809416857	2.75365280409811	2.1170978492690997	2.4080135761499646	2.616006129335771	3.1876990714653832	2.0089251944366184	2.5672395164523034	2.669014447149326	3.2316532053418365	3.109428874748324	1.3639918531312638	2.026675696024493	3.2422809518970355	3.2073728957260146	3.4673242481428206	0.583708702044191	0.7627672533804417	2.8732664512570523	2.799075119580964	2.4370138583643435	-0.9257774925700156	-0.7539610843696246	1.0240552399529612	1.1024216385664454	0.09355564391834335	-2.1752314512646604	-2.4774203237927224	-2.6444554262152375	-2.25629996683757	-2.4241959987470474	-3.019293300635074	-3.6552660372953882
140	3.0640277785189562	3.0702524107664244	4.089908589527489	3.0099987907708448	3.7816562557110247	4.001184453398957	4.33526371814997	3.1281323353944614	3.5707061200589303	4.002223481564058	4.634848106126503	4.503012168959357	2.4335875449727253	2.5414900715557667	4.524082172415681	4.677661883941992	4.836552130885804	1.1501289577056395	1.3348228897725964	3.991918553764148	4.038317193325958	3.6461992171736264	-0.7838480452774437	-0.36074197201249286	1.880848164578097	2.099064821665703	1.0359860632489497	-2.3597853124167485	-1.9971028515938474	-2.0451230951173223	-1.585312958529513	-2.267462247845765	-2.7517092158461813	-3.533451071401159
144	3.7265589143126565	3.7352223301995973	5.15597675929076	3.8309543036059686	5.232445226810098	5.412603841467545	5.469861016768542	4.054205884234329	4.281468380608788	5.367458806791487	6.00799702081149	5.8524775357305066	3.292353621753524	2.7682301928247335	5.900388225917161	6.117151721768812	6.081033691311905	1.758026714654732	1.9974394986266888	5.175733076379552	5.306232915832786	4.745159137189547	-0.5404016957944303	0.15018543563117895	2.9217848704003018	3.234837285457699	2.049672598432252	-2.34908127191643	-1.1663749188538926	-1.0977735491693061	-0.632903872322512	-1.7212840275221566	-2.052533382955669	-2.9882574005974654
148	4.2122840774997705	4.2214283836595445	5.824854836062698	4.549142349201776	6.523372156839395	6.6827273200112804	6.553363306666018	4.734728801217345	4.698545920907088	6.577517016016657	7.266396504176085	7.080166321998566	3.9234125515109617	2.851428978396537	7.179685097687247	7.412622909904311	7.1732473192306	2.4195043979593316	2.640779726990509	6.302450640978711	6.52527330658435	5.729399666625965	-0.08276042321290976	0.7275996785867239	4.028598775229156	4.44304083656072	3.132519237238854	-2.045591587624074	-0.08033201823218253	0.15162460467680838	0.6008794292537993	-0.8573619105627253	-0.9796774958671588	-2.039539808846018
152	4.568083274752099	4.5769634131268955	6.044956192013343	5.1207632889206804	7.4069318584355255	7.594939689534337	7.4552788546208335	5.143097864517368	4.883392798492151	7.436151008904967	8.265850999943721	8.04468248243571	4.343655098438843	2.9402916357191775	8.15896699752803	8.41836164256404	8.047993639653914	3.092348329366033	3.1761255184092767	7.246206265274424	7.579245071348865	6.570536120038188	0.5851776585109718	1.3250629868431363	5.066359507167168	5.608036503937993	4.235767353807669	-1.4665414057898316	1.1355857820450308	1.5659670790236082	2.0261609503135123	0.2186654949627924	0.3346215180054884	-0.815287766782386
156	4.829201209273504	4.838680731954648	5.862153515320335	5.499053941194348	7.730738620313304	7.976310233005063	8.00596235161306	5.285694108969358	4.920185076689055	7.815970401103974	8.851524330679393	8.592679002048246	4.578283775214627	3.112196437607547	8.702909447631757	9.001890159767528	8.618108727631016	3.6874666120889676	3.545330992330638	7.905035952636918	8.341361978451804	7.211112481030752	1.3212943043727927	1.8818923187426362	5.908174976690958	6.584887964789551	5.257706628876446	-0.760061381328405	2.33153342612028	2.941250555241903	3.4686341198130974	1.3668338025869793	1.7067717270674636	0.47486767052920853
160	4.995472895407663	5.006995665306549	5.413888917605658	5.65375851157402	7.508219223139516	7.784343222991686	8.085177401156713	5.205863939493176	4.885819899621278	7.7168946071341455	8.932515121795712	8.638152100688322	4.641321170532767	3.352596989750228	8.801211334895777	9.103195167446328	8.82030961670791	4.096917142061064	3.72751974118401	8.233493784144066	8.724376656439864	7.595172386066953	1.9054374646716548	2.3280067385071135	6.4720506504687245	7.249029141243859	6.081470474147716	-0.13956198061039315	3.3650231276430493	4.07724999352063	4.731007564044123	2.43868445734389	2.9554605409390584	1.6145999390845378
164	5.027621256532551	5.041295038846661	4.884362685269488	5.586274132929705	6.914591771787939	7.138248425581171	7.693987826949059	4.971878039205027	4.832049357612259	7.270682316543194	8.537005402945645	8.220387438046787	4.5332517509447765	3.5849449544040843	8.570078828155111	8.77074239423784	8.659459092211675	4.231925953670883	3.7443714047309413	8.26171777546685	8.721466996107853	7.708989600745412	2.150364155108572	2.613486998635344	6.751004678847686	7.547774295824073	6.631296617931658	0.22543156090087177	4.14734457876236	4.8573651191145055	5.675470337843667	3.3215272342744724	3.9603464503434935	2.4649195608848307
168	4.864920127030001	4.8779916640148215	4.434937942751833	5.330000387086256	6.2053398929328765	6.272841914552001	6.9663514915058915	4.650091159524297	4.776114451747622	6.684195501617681	7.813637236894777	7.503579120764757	4.255975712521296	3.724755277766307	8.196145990659259	8.149970987724082	8.22251603911563	4.06162022518851	3.6605005171863474	8.087908724392005	8.413002946593682	7.602455596802959	2.0036752173380568	2.7433385779736383	6.817823869657987	7.5247134972372764	6.912221891117653	0.30053883715091084	4.679894435511063	5.294612394316715	6.281315310831877	3.9802200693729075	4.697858798563852	3.013887636204752
172	4.460699070158716	4.467597950146181	4.138647069018694	4.936964022569544	5.598988518883933	5.4373054367115765	6.114742740451651	4.279472817106747	4.700570094638549	6.149355872841068	6.975748998196032	6.715344412061499	3.8356666468100133	3.7262711430884075	7.853206614694043	7.42799232514871	7.653769950616274	3.6377324966139484	3.5709733872854286	7.844317416413264	7.935530165664175	7.377093296499141	1.5836290081095703	2.7923147607876073	6.797930700305137	7.303018074670782	7.009801370088818	0.2061091954272714	5.055953966727131	5.518103585616467	6.646208269505338	4.471378315126871	5.2369036542280405	3.3665330325006875
176	3.8175055884299622	3.8117620848739064	3.94735812144257	4.452927578173942	5.182297216682803	4.787515628171474	5.335895524858237	3.8592445752935753	4.558534133846032	5.762491211647397	6.213356956053504	6.052025779703014	3.330907574826961	3.5943574814646704	7.6327123449260315	6.759534818749245	7.101143342209276	3.085161678154319	3.5708095937219992	7.6467528150138735	7.426764946306594	7.144811612210108	1.1270679207002645	2.880472175955046	6.817167741729956	7.032384377844301	7.0482549489407065	0.15387830099355945	5.418195710807676	5.704669937989671	6.930091840413357	4.915454375254465	5.696139321250955	3.6817319300203164
180	3.0012001915498954	2.9784228726529345	3.7126569654189225	3.8978495499428116	4.884968745296034	4.325314987706339	4.725944030273949	3.35866998778177	4.2868003736983535	5.492325292071932	5.617190823678064	5.597928509883923	2.8175795007140545	3.364533415882811	7.519210796445505	6.210690959508722	6.659572584504555	2.5610866481969636	3.7157447244290713	7.550003986370201	6.974270803009334	6.980391484756577	0.8777238108409062	3.115728132010862	6.948372823338393	6.825885278634217	7.130448323366977	0.3360657385447498	5.889399036796957	5.990612491741612	7.272786122079875	5.437884317020173	6.183762534741504	4.090351571246341
184	2.1237780994200803	2.084084982378572	3.256532660845428	3.264558068616304	4.534696567530484	3.9141304394128147	4.247181404834759	2.746355288247394	3.8296363257040227	5.210570799069915	5.150933729518336	5.2975220546487245	2.357125991592164	3.0759370249335904	7.417016487468902	5.747051224503762	6.337907775136016	2.195243353069604	3.99181651061255	7.530558090270616	6.59189747099744	6.892785054924051	0.9725881790401174	3.535483828201447	7.183534127218544	6.717963678564895	7.291913490958585	0.8281443098140439	6.511445029031373	6.409250243217612	7.728829364336679	6.107902511434498	6.74848697865873	4.6362819554576
188	1.3019496169597804	1.2504175869842955	2.4682297644287194	2.5372772152736784	3.961096276772875	3.362510434244242	3.761284580271125	2.0222525545561685	3.170775167089167	4.768113601090333	4.684705245588027	4.993931757716242	1.9639809082036563	2.7583124567963067	7.209520798600688	5.27032612423643	6.064448818154315	2.035836453066184	4.314326275423292	7.505252819185824	6.232580169200771	6.828883630677427	1.3822032178313783	4.082018365090623	7.44507453946105	6.663043959007509	7.491727810064698	1.5554980000324008	7.225086670753771	6.884791833661272	8.250973680645345	6.904680234642553	7.362456779965051	5.2664351330353165
192	0.6136340483431485	0.5583575949876824	1.3796110118366411	1.724651928362042	3.097846261786234	2.535974734579335	3.1140756528432814	1.2362403838416838	2.3607721269131585	4.080659379193175	4.074416627133741	4.516770351450255	1.598948117033906	2.4386479793013796	6.821104986135299	4.684021937942048	5.729928955870234	2.033095593087752	4.565278995431786	7.379789810621972	5.829426750724007	6.70814417099081	1.9358546684980569	4.628702628847097	7.63209436397056	6.57535694369545	7.644556979905892	2.3386576116644266	7.903230170323361	7.2846169287821825	8.72848985375614	7.729207973039337	7.942984084102387	5.871091827828285
196	0.07479452322911166	0.023470450133432706	0.17878688826721154	0.8882572032436638	2.0312738367294365	1.4409711324550372	2.228951210116458	0.4843333947351225	1.5210368594867774	3.1821300903087892	3.2473118223219557	3.7770037555701834	1.200702068158399	2.1557621901443818	6.254616244737177	3.954871644525407	5.249533640005479	2.0745141453818623	4.654356467893655	7.104918461981239	5.344475255824124	6.470955355519098	2.4172117649084797	5.047237383497185	7.6792230412197355	6.389294131360038	7.676830272365914	2.990409128268424	8.421616532997716	7.501619796886646	9.057519889851687	8.456427552807288	8.401081063994388	6.349727137746556
200	-0.35328438788863653	-0.396491317940072	-0.8514597990473226	0.14211603963257027	0.9678625440003212	0.23544880688349995	1.159210917407136	-0.11937014728448818	0.8125352838982527	2.2173402253435266	2.249124282880467	2.821020834476118	0.7382050137955438	1.9633983324070925	5.589539513780836	3.1376283089575225	4.613979327950432	2.0547356553652696	4.571268546960853	6.709703428494198	4.7994046090069356	6.115436061677928	2.6759605340153336	5.27651547053428	7.594911556142074	6.106534942468223	7.575068931527865	3.4087293061978627	8.726098992250945	7.519851188747355	9.202862716327994	8.997011161977113	8.690102555269073	6.665004236559933
204	-0.7273240667099784	-0.7630081157493709	-1.4483827315955655	-0.38052299522648186	0.14232903683013737	-0.835024712361675	0.07865575681139636	-0.48102125404028356	0.3796620955418421	1.3819049561896752	1.2336155145016923	1.8228691770306933	0.2570796006387782	1.9120100688344428	4.95090054215716	2.3560092389704717	3.909816732072021	1.9471685837221775	4.397427070959331	6.297175391510828	4.277234543491792	5.708815083395465	2.700167410708978	5.354839788268659	7.461599807974015	5.8072371336230475	7.403816204451692	3.618472805424171	8.861666657008767	7.429996471719578	9.220832801426667	9.338275885846947	8.831685997599598	6.859599096145533
208	-1.0783479186488931	-1.1106053562734446	-1.4860169850024403	-0.582817731816338	-0.2868434779554468	-1.5447859725097024	-0.7853959778983524	-0.5583546147554512	0.29300099537306706	0.8396580198069472	0.4006748487370047	1.018300053886559	-0.1124688086054326	2.0149147459656858	4.465885627915396	1.7519725516908913	3.2984061157873152	1.8361070109740167	4.268278588009033	6.003235801798853	3.8955900570743704	5.369113908563431	2.6167921953890843	5.3965525490886375	7.39848373452497	5.61988972198668	7.2853011901024765	3.748541107250321	8.94878099089527	7.387999039116871	9.234972930480321	9.545855498054793	8.908667541899867	7.031994325049876
212	-1.389948602981806	-1.4234573805156128	-1.0395750973203934	-0.4622730899106772	-0.30862456482214673	-1.7922983124304481	-1.2510993449095151	-0.3790189614263394	0.5163821564988421	0.6514193995241474	-0.09249894297611075	0.6044719203946315	-0.20924282021145876	2.224127287017675	4.219190586881748	1.4234578573527696	2.9532043859307167	1.8751805973392934	4.30375765667556	5.932495579046547	3.758114328432816	5.219121442969225	2.618929856363912	5.52346943414418	7.5011067201057156	5.659442887322609	7.34520290427619	3.9574227233153527	9.116633392204882	7.534897308399309	9.374164557631337	9.723310446032055	9.025654769998058	7.2832631880934615
216	-1.6089745719341286	-1.6461154180927984	-0.36393833068514797	-0.13290043141666355	-0.061483692222574306	-1.647740121495984	-1.2637721268217943	-0.03619458889763684	0.9170109010432295	0.7495783548503555	-0.2032932484977736	0.6518382413619266	0.06851901841745639	2.4377989707433425	4.223385323351869	1.3815892899917417	2.9814581795758133	2.194068664733336	4.541540611244894	6.103665813294559	3.906263103159484	5.332754598505083	2.8612353729488045	5.791787132899116	7.789818744065508	5.965738281446748	7.650984744782241	4.348930824743882	9.431995368032204	7.92120740797939	9.70598599844396	9.9547958122689	9.257994628420244	7.663931350431928
220	-1.6872281985599824	-1.7268413261684041	0.20626746065991167	0.20387601800943245	0.22949343861812505	-1.3243854012430403	-0.9265644526929983	0.33437904631115434	1.3123851981407084	0.9666199659738258	-0.027069507098399344	1.0655899020948003	0.6829560977858945	2.536126607213839	4.409691322637352	1.5431702098032105	3.3630452071158166	2.8039729524390813	4.908931242946716	6.4289641217994316	4.289726723330858	5.693908200193356	3.3769736204717637	6.152473434173529	8.189461687392445	6.4706230000206695	8.16947362744535	4.920018660521262	9.858159040357123	8.471856095859154	10.195748303420809	10.25747296604573	9.610495543057608	8.143682459297576
224	-1.6292322832935053	-1.6676741796350474	0.3944343616540666	0.33436277424317173	0.3480901709351216	-1.0879298421095034	-0.46502113224878605	0.5908671602589973	1.5357902011243336	1.1030747862622452	0.2384437912642898	1.6154777962905733	1.4367833101236915	2.437530511423952	4.6430048825341315	1.7603489116093183	3.9379601379152724	3.5564894586415767	5.24976061449221	6.739460928113892	4.769945132610366	6.187093719120301	4.055860509169117	6.467773421170442	8.550507523883235	7.01136301177799	8.764179207608903	5.561613068844019	10.264705632043094	9.009487129352841	10.710237476011008	10.566997501397069	10.005435918342219	8.616855599582422
228	-1.5105293951044318	-1.5442798098675479	0.09584141498448319	0.1274464425207122	0.17786417856609574	-1.1403653592882126	-0.1337669339378981	0.6317351444507069	1.4945334158357357	1.0113079522349009	0.37791010642006	2.0290017076763354	2.0440671392331473	2.145780557936917	4.766600596791174	1.880017275832026	4.461024273099789	4.197533596885156	5.396284566606404	6.853196603638504	5.165194021535554	6.633609754980261	4.695565688675842	6.577344877802981	8.707923867174761	7.391652088576642	9.242199874431801	6.111396774120988	10.486604664075626	9.329667067814484	11.069376917548116	10.76647183561024	10.310247395233777	8.94366262085204
232	-1.450835343512591	-1.4789886437268502	-0.5847647175330104	-0.3974609961011522	-0.250553249680219	-1.5300981959812339	-0.10560598197738527	0.4383384276290349	1.1970963447864602	0.6605913026343828	0.2558972829079986	2.1106445736048505	2.267513507840142	1.7582660869075455	4.666148173949089	1.8100534631806036	4.707691180741175	4.496922004790163	5.249918924428334	6.658554060337204	5.323843942552238	6.865111333680444	5.10336016320168	6.379973872289331	8.55395505652834	7.466200809701901	9.436188673990856	6.433958037344684	10.404164288002029	9.294076896090376	11.12555691771145	10.744887324861514	10.394692394715397	9.010234810015016
236	-1.5546990593758487	-1.579826947038237	-1.3897989953237975	-1.0684154006685993	-0.7775014619270731	-2.1314449256488923	-0.39300253888088715	0.09251215285547575	0.7377838473766242	0.15277951917222168	-0.11942300170310932	1.8336216165024475	2.0504450746265905	1.4254232609046311	4.326621998353673	1.5627925356508858	4.584445941794527	4.385464657201692	4.828413474290141	6.173311217934395	5.194406019447642	6.8048567600105505	5.19644974350254	5.8895816654280875	8.09222696168579	7.209937554275905	9.28626916448167	6.489878161257455	10.005148862373705	8.898291565363563	10.83635995036299	10.457626316370469	10.193827603352414	8.783122040507854
240	-1.8513966752039075	-1.878268356349442	-2.028307671194323	-1.6344438750009282	-1.1885641783269838	-2.703219168513773	-0.8396260121127836	-0.2457237237448416	0.2526220970928271	-0.3203632823485091	-0.5985010251193318	1.3589321340583451	1.5682558973772045	1.27845561181585	3.8517122171430374	1.2536884514627316	4.1868610276372	4.01748274742519	4.2566585433301185	5.547977910339626	4.856770980016885	6.516418917416032	5.050622450474722	5.2347016202370185	7.4461951067799985	6.736346704641529	8.882008530126354	6.362608416705734	9.397932982559121	8.28039262588357	10.296198818914265	9.958510373721925	9.746801351734465	8.334427812514722
244	-2.268921607964761	-2.301823610216286	-2.3015837611263152	-1.881846900003432	-1.3124659028295307	-3.0005392952502943	-1.1909015148613047	-0.39712822337021136	-0.13130451705683177	-0.5614317045342119	-0.9600219106277829	0.9661196445868444	1.1590899199785476	1.3668769563496876	3.429263583108299	1.0524924966942133	3.7685179615242252	3.7126660253249057	3.710688104797673	5.0082058780110135	4.49432419595883	6.190271838771701	4.872730719661649	4.605277526672353	6.8163590259116855	6.253526194996276	8.439822175651946	6.2313170275718806	8.77088067701337	7.665972690301041	9.710077261251014	9.38823983683164	9.192324615158311	7.825969199449091
248	-2.6623682908550705	-2.7024879387335146	-2.183689350336934	-1.7421050027732385	-1.1059186430665884	-2.895237438521527	-1.2205908267675476	-0.2450670444738479	-0.33918473038868174	-0.46415343763465905	-1.0233409378917764	0.9161159969088312	1.1533952922310842	1.6298994976854364	3.2435967840317748	1.1000852557064384	3.620063772598499	3.7919158839810203	3.339303485068825	4.753979670919718	4.3084282766283675	6.059881195027419	4.90302895261738	4.169936169586669	6.3971795874253345	5.970094188875936	8.21352861238051	6.295203193029479	8.312612512582007	7.268966179615154	9.311708426807579	8.91901013983518	8.715222336699792	7.450892429613598
252	-2.886253111227926	-2.9306192324080267	-1.8180559827679432	-1.335528966392823	-0.6849610192171424	-2.446446651004102	-0.8523804523881989	0.1971498722820906	-0.3677914729369248	-0.07628273199610625	-0.7481515388673246	1.3116968837045802	1.688300247698206	1.9189981173702666	3.375637045920695	1.429339524475066	3.915255298266176	4.392704952593568	3.2024552741258816	4.8630275603538715	4.414519775689126	6.283512576451329	5.293253408419267	4.003991116905055	6.29040430388144	5.995223030212638	8.375252702548368	6.681043608009916	8.130057314373481	7.193929654078285	9.25997064159885	8.6792926569199	8.465428330982805	7.354424458055398
256	-2.873309843438339	-2.9159345553210785	-1.4363896810505887	-0.9204844213133904	-0.2836886935224176	-1.883501882566087	-0.2118887746944863	0.7742726783277422	-0.2769987576166854	0.4076589335639608	-0.26694983176543907	2.0293791242861	2.6108524733429235	2.0654456563300507	3.746588459092409	1.9324992846335427	4.60586260586399	5.36939858034616	3.253133765590338	5.247819410426067	4.774220931397179	6.851691705571015	6.020555957852536	4.0617189304800085	6.456423743159546	6.282951815954698	8.92433354985592	7.375313263392063	8.20258329227875	7.387091141169944	9.561573004423803	8.69492242525202	8.487072923213313	7.568036537136441
260	-2.6742942265701997	-2.7089240482601116	-1.2461743323334487	-0.7701533417330705	-0.1534910347162703	-1.5049732885510767	0.42278066170762113	1.2475663392040186	-0.16281270939728704	0.7272688132044112	0.1715278919180842	2.765174620322682	3.5334584623770926	1.9516456077892432	4.142660130532	2.398115628863553	5.428482995632777	6.343662245946683	3.3679847632251714	5.691404328281952	5.203758703445025	7.574032287548549	6.8830175226000785	4.204445828313017	6.729137880502015	6.650910837547664	9.673442816153077	8.215738275766045	8.392988183765796	7.660202007027037	10.059189771050741	8.875212646964801	8.692648865687449	7.987998465397428
264	-2.436425918149763	-2.4595131811987736	-1.3378438915807649	-1.0350137922858282	-0.4442619372118578	-1.5375570020003049	0.753641782288369	1.403810974391509	-0.12045262723552105	0.6789053065325414	0.325381904018959	3.180423966961046	4.023014058446382	1.560961123340141	4.318065632408479	2.6077587538683127	6.029945358311008	6.886879426734615	3.409271231626793	5.950338825461458	5.462725148714048	8.162819841756583	7.583883743212153	4.271369446460702	6.89340971159972	6.869393331350297	10.326780293141253	8.95064637785345	8.512157418694414	7.779194812207566	10.497092220506667	9.05364225009097	8.899492241324888	8.4134197022689
268	-2.3278253019688755	-2.340216153912079	-1.6532558161002833	-1.6625693994507922	-1.1225446434289699	-2.0209515043732957	0.6160618051233654	1.1638785571277122	-0.20797601289692338	0.22305098119687544	0.08960964508082145	3.0787572782986623	3.827099313610208	0.981658038998755	4.127755631515675	2.4493691859393505	6.15194414492926	6.745407087461672	3.2891573822901585	5.87616966671317	5.382283197165436	8.37778852254929	7.871021250879535	4.160552491174082	6.791191560765267	6.779403669407088	10.619321796308906	9.349040961503363	8.408588388194183	7.578037242830185	10.639547321160187	9.067090965266976	8.915812469860343	8.633631684439969
272	-2.4485783515144672	-2.455174678325816	-2.0274367281270638	-2.417858117674792	-1.9701905200806789	-2.777464382788602	0.07279777508475797	0.630139408904809	-0.4252062429183092	-0.48093241331747016	-0.43652447947916523	2.520569079711004	3.0166180057657295	0.3680372824913579	3.6162536052954963	1.9867632338907655	5.775864586552598	5.981606945194525	3.0091581268630554	5.492295728168198	4.963035094128476	8.155676821144736	7.661046962469239	3.8790933987908254	6.402399046945848	6.376958354108468	10.446469280571002	9.308291411740523	8.037772158356479	7.039847356188496	10.383412334929423	8.833179451575319	8.633179642815133	8.523813226160105
276	-2.778400175709213	-2.7859880853885417	-2.277020687076393	-2.997966997206862	-2.6748576096711942	-3.4906027228917873	-0.6108996256663364	0.041793648048024656	-0.7164090257676876	-1.140688654880658	-0.9891753767788479	1.8033217146166671	1.9590045164239231	-0.12119762568868772	3.0036516113740284	1.4397910797007534	5.139647947686478	4.947682368184572	2.654040329908079	4.980977045834886	4.382400024793657	7.647793750527603	7.082723122834396	3.5354349523928543	5.854450211049012	5.814595207792703	9.912610028989178	8.903410889081107	7.474649410449613	6.300734980887827	9.803889249844728	8.382776239211502	8.07546899664021	8.098885515746128
280	-3.1864674010888545	-3.2007303157104365	-2.289831394136334	-3.183494321414964	-2.9741518422376925	-3.8576152227281093	-1.1030321093366937	-0.3442569962392941	-0.995705542434663	-1.4708940945682099	-1.27188169635088	1.310106393367409	1.1294639082048963	-0.37926587366669806	2.570144646831321	1.0785007449577115	4.6110052946022275	4.1049184695555105	2.3482689798194816	4.5854020002943106	3.9031546017330063	7.13999651059873	6.415506346717443	3.279109231299292	5.353653894259202	5.318119512482463	9.271549201445104	8.352550485503635	6.86444137747486	5.574924931755967	9.109130836376655	7.831159571903028	7.37891767546182	7.498464088581626
284	-3.497750750293784	-3.520824185065241	-2.069678539772733	-2.947855465122078	-2.78268789542495	-3.7385916615509536	-1.179402467610979	-0.3850215663725795	-1.1830192774468182	-1.3374029364198299	-1.111214038904354	1.3058048453741191	0.8653146006671584	-0.3768282225154734	2.5005619462776303	1.083764073496669	4.485192764402295	3.786135902382454	2.1960806791172947	4.4777297860581005	3.731173982736674	6.896151525252465	5.950758918996774	3.2170815386610974	5.072417246409686	5.06281565341635	8.789342858058065	7.909479598102993	6.33854912111218	5.040010916382862	8.525782563618511	7.304209213888967	6.713288290240518	6.908843499860314
288	-3.580204239389198	-3.60977767986629	-1.7199667648759462	-2.4662015375814232	-2.236687416151613	-3.2261767305937004	-0.8431180098227782	-0.12377176402552284	-1.2382415501803201	-0.8300588706040404	-0.5528346882213836	1.7902363493542943	1.1967672079388414	-0.15744930466000434	2.7776143480744784	1.4483125173241973	4.819109427682772	4.032340039562972	2.2306895199722985	4.664670932436705	3.900471915887729	7.010186177674516	5.847396358985523	3.349614611751776	5.052697168944826	5.076135622559966	8.602626778817564	7.735810260315148	5.940958961746126	4.7423057436420635	8.175527551990614	6.8608221834532355	6.186850055333075	6.462151511089421
292	-3.4054343614429983	-3.4357054146807804	-1.378756162023431	-2.0181367346355295	-1.6263071257538935	-2.595800154807929	-0.31825059571977937	0.2415546917777139	-1.176661726841837	-0.21904802267083387	0.1585827465821915	2.4953727659165863	1.8505696011550925	0.18628397536929303	3.1904494681869546	1.9773534486438318	5.400806413366228	4.595462310632681	2.398581021928784	4.985223757555121	4.254553784119124	7.3549752049717325	6.06107757945433	3.5630683808966954	5.1823201048663385	5.224510179680474	8.653522469607035	7.824004153525097	5.608910546446772	4.577293861276696	8.0135135448313	6.460204108140236	5.791740879694887	6.17009733549622
296	-3.0510742587304938	-3.0750842016782975	-1.140813705425081	-1.8368505193110676	-1.245231029227615	-2.1584024374826867	0.08274721333354476	0.4775636184079152	-1.055043933112027	0.18719835532132253	0.7094971519676946	3.034700862852033	2.4203579364703605	0.5479882941715774	3.4568476589663906	2.3935747086174493	5.875839218563369	5.099824415682531	2.5850365096629853	5.2018833029065465	4.536585319509358	7.6602043912128215	6.381350977998745	3.685705414049591	5.258189188079329	5.29201983069411	8.736398674842128	8.01070402030226	5.21820543879063	4.354814995261252	7.862531165299163	5.9934935418442015	5.419274793293964	5.927334293659187
300	-2.648543351162192	-2.660928242640933	-1.009447810485447	-1.9841430137130547	-1.2345117299382722	-2.0924916214564684	0.14521573447280492	0.4559801805427915	-0.9369278526492856	0.20843489415472935	0.8881861545072709	3.1237397115041845	2.605664485074772	0.8348223545931733	3.390613308929148	2.491641992000224	5.959118351196127	5.264576421797334	2.6703414849572544	5.13562582626719	4.538558471665021	7.6757263943474605	6.556085569995327	3.579526176951945	5.103068815698753	5.107686029889977	8.628469445378295	8.071742037421103	4.667790401117794	3.9138083359132616	7.524156551437901	5.363365159798648	4.9369993085191615	5.582753644199579
304	-2.308974498641225	-2.3080108107469295	-0.9046252347041085	-2.322122329571165	-1.5053839645525424	-2.3461136758698453	-0.11371166230340934	0.23328722954501668	-0.8549034573905264	-0.10583770248394515	0.7035843712209041	2.7499556472013165	2.3825428425716937	0.9844957565247021	3.0183348579495055	2.259269231814204	5.612184510366729	5.060517298319613	2.5927698546751987	4.771942603461036	4.226962078866521	7.328444939230609	6.439578993751391	3.222518197506624	4.673744189860087	4.6520686032143725	8.231331804474232	7.855189303592846	3.9582352538308796	3.2256436266521753	6.907382470811268	4.567785728366132	4.286312569286744	5.041905867244776
308	-2.0704374261080973	-2.0585598893644033	-0.7216891628164293	-2.597724669573578	-1.7899591877567884	-2.6680064133994295	-0.44892120247986417	0.017421426207545776	-0.7932825664518964	-0.5022642003729876	0.3803067197734604	2.1873950903025534	2.0022354075424977	0.9727329587219113	2.5694539482094076	1.8899983119930446	5.074115740362918	4.70763491395665	2.382234328931115	4.2729430090788	3.766300907162757	6.773769361559986	6.073750480575899	2.7322666576066945	4.093625535166298	4.075685013971359	7.634428958691228	7.370790462957926	3.211526624200635	2.4217476783644347	6.0936655844379715	3.729852666974629	3.5360267073046905	4.334731091045602
312	-1.892513866414794	-1.8751344633443539	-0.40319174426325816	-2.5871028834828413	-1.7923897459553029	-2.750035040587957	-0.5285015688904238	0.04255852465017373	-0.7008913737721064	-0.662945626492422	0.23228281677728127	1.8448923779638597	1.826554055370694	0.8172392228474054	2.3451039731898993	1.6785496430933073	4.725660789002691	4.522764671350893	2.1472003405718825	3.89005230875156	3.427304497648768	6.309965594573018	5.658449158687422	2.3134672583344718	3.5908694176612213	3.6189670471374007	7.064375859544537	6.785801393542547	2.6180746489228337	1.7302617983048487	5.301290975537646	3.0511436385368373	2.859119646483199	3.609850159114154
316	-1.6950232939840273	-1.6781351523945858	0.020191317373199947	-2.218838447690818	-1.3577985729268687	-2.4013266502787856	-0.13218571212296634	0.42602437627043066	-0.5227708207283178	-0.37996232413681774	0.487606196364509	2.033998961081687	2.100146765174934	0.5816586598969621	2.5447499687795916	1.8581690741354784	4.8663091536683405	4.715064036862698	2.0246806093596086	3.8293781183835076	3.43471550074285	6.205830081530271	5.431138024922949	2.1571316664592834	3.3782055292668716	3.480697861466599	6.752429468272799	6.332538588748205	2.339678043180405	1.3574738468229521	4.76924704301252	2.7109050682288647	2.44427632668402	3.0582294386898456
320	-1.4189752304491092	-1.4065409863246188	0.4416295576866435	-1.6124415356933808	-0.5705432281394424	-1.6637850957825617	0.7011313420713663	1.0864056321371554	-0.23843426942231097	0.3260876826159625	1.1561145753281616	2.78213333381136	2.789001934639355	0.3673241725230656	3.1466853539175657	2.4652721819624315	5.527984128346649	5.245407568085965	2.1117412990659488	4.140428532637243	3.836896409837914	6.536419375129207	5.519111619366364	2.3397755563790117	3.5368509203305636	3.70431803721732	6.7929148502506616	6.174278243688789	2.418063634489459	1.375154253348748	4.6217760923045255	2.7631959845397143	2.387838596037327	2.8052508760198394
324	-1.067038056540607	-1.0592912408787083	0.7429586630183137	-1.0057593558667686	0.28265836763543156	-0.7971903661627944	1.6719795423255934	1.7794741347208216	0.12174573509949718	1.216561910418772	2.0201287218588937	3.8049108886021417	3.5894265084241415	0.2911927692690814	3.9196660419684184	3.313988677240893	6.442203028626358	5.841757759604007	2.416727536775547	4.694957244463511	4.4774474984611565	7.130142193912184	5.85759209107648	2.7815494467126145	3.9748663801926987	4.15243576908764	7.082817536591482	6.311524852076406	2.746259443978837	1.682203407808814	4.798091876313717	3.0968887727749794	2.6338877611418208	2.839663021547581
328	-0.7006732803774238	-0.6941044313072472	0.8713998772554932	-0.6163023694690716	0.8659517147135539	-0.14138027989932048	2.371870750160894	2.2322285118965133	0.4906975912579796	1.9671130130694057	2.7537672450157897	4.656268584893222	4.1009220973427	0.447756855549439	4.55711220544386	4.095210065039007	7.18325994585327	6.160990699471849	2.8559861111059788	5.263530717912034	5.083121763747162	7.660915355413907	6.222851737523673	3.2866063035002124	4.481009472023941	4.582937229029782	7.3789033703471105	6.58263157136263	3.1189870755603732	2.0598649926631105	5.08644484189429	3.4829308898728266	2.9966425820032967	3.0185735149465835
332	-0.3999625434314148	-0.3891029348086251	0.879091856644337	-0.5204659091206728	0.9795887445513123	0.06811127794473859	2.505948537221672	2.2954025210601343	0.8008270243452936	2.3456294477369126	3.102394096171114	4.972575651965717	4.059990395785887	0.8698400833103042	4.851842867999298	4.543991077394713	7.4063591770099695	5.995679363371886	3.2965993797994453	5.64238737589106	5.415753827726682	7.8328075211176165	6.359840377009353	3.6456775573238693	4.841964709454902	4.783204543435044	7.439134578996311	6.755644781222445	3.337006083646403	2.289815181672996	5.243936525456622	3.6887187864632476	3.2568280614641894	3.1478390614189253
336	-0.21391363387936121	-0.19416545282456055	0.8981078840468877	-0.620160518510997	0.6762346012208333	-0.16936995046292305	2.0630600400335837	2.0271456190427157	1.0194900010118506	2.33746051198178	3.0232291145289456	4.675073611853801	3.4984471709615814	1.5039800367530474	4.810890662444733	4.583257186762128	7.046657544464759	5.405947194755837	3.623366585166454	5.759336933853848	5.402467714021213	7.553091030124614	6.136616691354677	3.744390478217221	4.956982123257529	4.688601958835026	7.168867093106405	6.663487417563519	3.309453717459252	2.2713537158840356	5.1361522544885165	3.5991694836345283	3.2796268380332148	3.0940768640601553
340	-0.13227532770615988	-0.10241154555451935	1.0619640323529782	-0.7166393977191629	0.24040183364254017	-0.6173485501915279	1.3326511349410435	1.6564819770952508	1.1624208659387656	2.1467785781065163	2.706760161241649	4.0140118497593935	2.732030146376823	2.215243572364201	4.642211902342042	4.361226070837107	6.361153586539729	4.696084487502657	3.7901503944072306	5.6988835190894855	5.168870436016019	6.990171891683788	5.629815087409618	3.6152806190766396	4.882788645814234	4.415757168111539	6.682518465336515	6.300622924155933	3.0945749204706408	2.069263453027565	4.812283026943171	3.2737035668689702	3.083454124295105	2.859109156065745
344	-0.09415113902162961	-0.057250998769696915	1.4194081985876645	-0.6418855770117494	0.041554845764625266	-0.9272232032253926	0.7594291548628687	1.4512524568156762	1.2794107166413196	2.0769820160879116	2.4707229075040895	3.4332899960620007	2.190836900901774	2.828672640334484	4.625777232888907	4.1652827157715135	5.79145430056353	4.252574909917577	3.831978549819203	5.639408097334129	4.961967455733955	6.484867556411707	5.091398226281197	3.4087214383847724	4.788702952692402	4.195423115628278	6.2457485041284615	5.826444611144134	2.8595788406653893	1.8702175569999564	4.475008953240263	2.9087731764786855	2.823185436750316	2.576016181164031
348	-0.02960010610498112	0.008109196068734375	1.889010782240899	-0.3692159643388154	0.3369704476431889	-0.8244246819662268	0.7108446341687298	1.5651880463183607	1.4170633518681208	2.357345098265805	2.584616892964826	3.33006714933775	2.184208387582328	3.192747823283691	4.945927607446815	4.260577191086338	5.723180279587224	4.3322329411800835	3.829285850393628	5.741769776152839	5.008069025746955	6.3635234672100145	4.8131828186584285	3.2967584049913046	4.849051940119382	4.242568959015106	6.128850444578631	5.474334226138351	2.7812011171694264	1.872058386844552	4.361674774601844	2.725098841462682	2.695942395079386	2.427944892475375
352	0.09381925290977756	0.12570618061276004	2.290931219038953	-0.032327547587791494	1.1331752510071105	-0.25277379091339747	1.2858015266380016	1.9559495399683184	1.5848796327630899	3.015873186126497	3.124115697602478	3.8452250860406414	2.7390613486753552	3.237210503988084	5.5851845600259615	4.745932567058199	6.279453261733795	4.924682604753872	3.85320710163023	6.059207900961736	5.390297876100279	6.761433107471259	4.966523157931926	3.3719313059550755	5.140379415885315	4.639740455357314	6.457226260094776	5.4214434486839975	2.9471125528314728	2.172169203042411	4.608585822867613	2.845978491273457	2.826974146381253	2.5405991013279134
356	0.2505764656893004	0.272571175602336	2.4405083594694124	0.16046714742200785	2.1780197565402135	0.5994125589495805	2.268100971217565	2.420227044670764	1.746436353088841	3.864762296455792	3.9330921073794674	4.797869670198555	3.598166695093359	2.998808376370387	6.337105258200786	5.5041293958934485	7.261886101508029	5.764812931764826	3.926353683095333	6.516504748104292	6.011159404836709	7.55441377639813	5.50858639279992	3.599125853034663	5.601163373157006	5.295816408138138	7.142322045413415	5.693640694548279	3.312068454009657	2.7152876785388447	5.1744785178194865	3.2337133802786515	3.199889651802647	2.9096102641077977
360	0.37403687740304453	0.38634815714567367	2.252482646977213	0.06317851676487084	3.0826356333151157	1.3976055348396104	3.2424542822036044	2.719707720565649	1.8404306126858179	4.599537360976396	4.706837642230147	5.790393337889207	4.368630398210991	2.6009447508947936	6.922378999398894	6.267106994064771	8.263460138438527	6.478560431336079	4.018894185409908	6.961501580782052	6.65249584425753	8.429804780657706	6.205947383470893	3.8441204927664527	6.070591911247936	5.995954498411475	7.926867941870127	6.155794128134872	3.7284095193189706	3.32352351303225	5.861804947358569	3.7156839276915536	3.6675257590204167	3.40072893237773
364	0.40021794933363253	0.4069720794416257	1.7987260773067977	-0.30348512453704213	3.511403074935829	1.8301992370173747	3.8068065547197922	2.7211954524954867	1.8206943227576198	4.956295477751449	5.148976312988854	6.419733984951398	4.732510077925828	2.2023804132169897	7.139329892253245	6.757436258421291	8.885596252895615	6.77770946698827	4.08384465140193	7.255895119467491	7.095316392150745	9.0537328491508	6.759717924217533	3.9645090003055183	6.383020384885399	6.513535959964814	8.518369653175801	6.58922146087236	4.033129681894963	3.7906491660734516	6.422173483846605	4.084712495027668	4.036856641114069	3.8226227663802996
368	0.31188201825554235	0.3189506522708989	1.2803579536536984	-0.7472857814041478	3.338967553291719	1.7574179128145333	3.7659082317639685	2.468360417809737	1.6902308421376067	4.838356959525045	5.115268694360578	6.475603087288369	4.601371753519372	1.9355891894108976	6.961196405001573	6.82590053742324	8.93607804903281	6.597375376257046	4.103198517930214	7.349208813232141	7.22920082174436	9.23813531450554	6.959403020454099	3.903984298386185	6.460044844529798	6.720102770051194	8.734295822979762	6.80765817830792	4.138259877247211	3.985283364724504	6.682952387149384	4.213179577680616	4.1752443208183845	4.027236928308767
372	0.15607207974130133	0.1682434226795124	0.9302477217075942	-1.004475352612259	2.6989316872166143	1.2670131889779181	3.2102296271335966	2.1471731608539333	1.510574813843636	4.350593555910338	4.673121917370202	6.025130733536787	4.136839856193667	1.8629273129158843	6.533135874466111	6.515670283079543	8.505638101083921	6.108801349475441	4.112592686760256	7.297382813149365	7.095529538359924	9.02031991588555	6.782496912044542	3.7327036763363273	6.349888785542779	6.638050062586238	8.582346894530387	6.747962457786031	4.074782838070316	3.909799089097212	6.6266341042105195	4.1172690287589475	4.079229344559335	3.9823980230875016
376	0.021907787714721037	0.040869407252600035	0.8987889863210164	-0.8882412888035489	1.907449479055613	0.616366325252754	2.4475362239078455	1.9696799466948218	1.3778166736148532	3.7330813313646707	4.053597440021998	5.3500070436824725	3.637064209338414	1.9725463340548335	6.082103237055054	6.026632293744177	7.8926300803232685	5.609370694303276	4.1855325593178	7.22257612312217	6.849407178751831	8.619351365262155	6.387151225176484	3.610037794535433	6.1967401348063955	6.414312346476317	8.238045671644782	6.487761957954692	3.9687380690509446	3.6879193689695384	6.383340819454903	3.9385099311572924	3.8693025014461604	3.7788398170432087
380	-0.010428819779053444	0.01364374622983174	1.1834993332546273	-0.4012348343732557	1.3049209084943318	0.09624465530653181	1.8317370368486972	2.04513143976757	1.3763244117320241	3.235347024378531	3.5271153360961107	4.781469809857881	3.36218022451302	2.207006448895618	5.796040997176706	5.60477303043549	7.426828365648475	5.355112062285306	4.38519476737083	7.241339188412932	6.667627317760586	8.30122659494718	6.006167873477241	3.6897981073681154	6.159213527387713	6.2337932429281775	7.9366335668454715	6.182459338791426	3.9639737505967867	3.4906914146029893	6.145079120379942	3.8545265100436468	3.714047660987311	3.5690412431252674
384	0.08179291317077775	0.10729137780996019	1.638948078785943	0.25585916573776096	1.1011979552122961	-0.10636507692900572	1.5903363187692106	2.3160278738675575	1.5379236897740374	3.0041882915942306	3.2753901398932768	4.5347304229686305	3.40197633838044	2.5086111959063557	5.744704708854169	5.422906385081671	7.300639134094514	5.433267579666107	4.716681468499239	7.406893711462965	6.659839136475317	8.237547853652874	5.8124613615151315	4.025925149289862	6.328519328351859	6.226374133602426	7.846937636590975	5.969822391696447	4.139782895126666	3.447698107597889	6.058318599663933	3.975275506473404	3.7332010174910772	3.480255356584904
388	0.24539858040841275	0.26868137649411483	2.057778114845503	0.7872863392026312	1.2983630862834108	0.019543793003091586	1.7355500415852594	2.595615141991013	1.8252687408140027	3.0391104144613834	3.3228921806363827	4.627696979282985	3.653772344901088	2.8533284592114434	5.878300651967799	5.513037667660508	7.4958314706378335	5.740787491609421	5.113247381652059	7.695108394268008	6.8281974620085055	8.43320176856417	5.834496006540066	4.535819995872374	6.690257055557455	6.414968474404348	7.995323160966093	5.900144085292777	4.470950115359885	3.591157665722627	6.155914767935593	4.286499966289444	3.9373562236559327	3.553005447953962
392	0.37544339800458065	0.39444845815252033	2.2718710841993794	0.9558675265020717	1.7167681412267954	0.3260762683265168	2.090343470064187	2.6780745915508897	2.146721596066255	3.224119416679827	3.55025672016244	4.909976946832016	3.9048175713180413	3.252184382810752	6.086986526379883	5.773351654735212	7.829233149788751	6.061297878220864	5.466565118339363	8.031177500475179	7.085816842309007	8.749897934756776	5.960446819515528	5.041063295988359	7.142117005435906	6.7219972440759514	8.27124116716644	5.924800381006893	4.846829878967765	3.854835738939961	6.3579726058653865	4.666523444791647	4.232635964197654	3.733023395650095
396	0.3684197356935936	0.3829646398888964	2.2163548413585876	0.7004691344695836	2.0988223499713685	0.5920060858084899	2.3997418819874987	2.4532670912792405	2.393695109999592	3.4056901845777285	3.770151844042683	5.16833637840018	3.9592463870222963	3.7225296403360133	6.2745661577117104	6.034891113303404	8.075756052608723	6.186874374028081	5.68771170133815	8.334242799697806	7.3141107374540555	8.999759651350058	6.021246894893028	5.3626036508589205	7.551106433877184	7.021896344576104	8.502225854388435	5.944674953710621	5.1348428596553966	4.121176709260556	6.532700998978927	4.961655127396121	4.4826145058944	3.91505121196298
400	0.17630097225500185	0.1873143459597626	1.9274488638851852	0.1542727198282036	2.2319569531356023	0.6269839986230112	2.45764183377613	1.9616732547823585	2.479867452082442	3.467963448351778	3.8178093336989707	5.237257467398534	3.734454860795407	4.239920128607975	6.398861868915228	6.144683345539633	8.087719896877834	6.016341671058977	5.756187424431867	8.549942948689347	7.4209642222916985	9.045889831592476	5.895895943061071	5.411974893257463	7.813166121783661	7.2041706856991565	8.547568299647493	5.879399761614683	5.248560892205201	4.283933151873318	6.573930246921709	5.07180164964	4.586410034044207	4.005881776232556
404	-0.1671920265506514	-0.15871195455057716	1.491094347050168	-0.4422495353977095	2.031718725796917	0.3448811462754838	2.1850013677744173	1.3627389635012483	2.3679068028747596	3.3690416727836605	3.61228202861485	5.056350695241754	3.2784409440237576	4.706606853046159	6.461359961408802	6.023910507252025	7.846235732295872	5.583087907046636	5.724116310926414	8.655302025876955	7.370928745733456	8.854880310590353	5.573738084072195	5.226922975694889	7.88420627510772	7.214647751712744	8.358899095411921	5.711856827619964	5.182901846197878	4.292802322993503	6.449872477459534	4.996438490650586	4.527117240919981	3.969088067524182
408	-0.5611430988449381	-0.5546048865620986	0.9851728056829964	-0.8748630263174894	1.5556669195952677	-0.21779929046478097	1.6350083309855261	0.8453854897135987	2.076280350211387	3.1327683846533865	3.1709177413991094	4.661778438242348	2.71747016220643	4.964710223061015	6.468142016292802	5.68331335540199	7.432835560152351	5.010738360151836	5.67486904618869	8.643731095425212	7.18255279634944	8.485122659241187	5.144969450358589	4.935728537495759	7.775342444816169	7.062352639487389	7.984298209059114	5.485364900091215	5.002259241826076	4.162930478076037	6.202995284631911	4.819231497994964	4.367502678334688	3.830833663805248
412	-0.8864845611125192	-0.8813816286722472	0.45440783981990884	-1.0579313013069465	0.9548166966173347	-0.9337264275818374	0.9416603422232137	0.5347934351770286	1.666658039653482	2.8137035298833863	2.5833120280846975	4.135724057246289	2.178109878762886	4.855369078775307	6.398130400716391	5.199625002130998	6.954700452411773	4.4355344660352385	5.658639893550221	8.507565476872513	6.903704625819333	8.031036356676708	4.7342705607094695	4.673400867107047	7.5240306664284535	6.797033292775664	7.523765068132005	5.261324869223756	4.793140399275437	3.950954904117815	5.909641727785888	4.646673190782926	4.20162009132064	3.6501614955297117
416	-1.0618454191101747	-1.057084438516116	-0.06658577157136997	-1.0505866977869767	0.3977707018346232	-1.6404242474147235	0.2544251673950528	0.4483336496954742	1.2250974147383473	2.4646649298429932	1.969231481348664	3.559209576203679	1.736521478083356	4.302645195588281	6.205923541613044	4.676389205569961	6.481353266564623	3.948163022563585	5.649671063464223	8.23574350185079	6.586720926821056	7.568145732845394	4.426756847649197	4.504175651622434	7.166118603733461	6.478978617522767	7.072315675045731	5.071549402783948	4.614198196205494	3.7198192979356297	5.633573041043929	4.543852794619183	4.098716725491578	3.4807958515023625
420	-1.0768486234179984	-1.0704508992825397	-0.5127738701271843	-0.990658578755694	0.003464261526808705	-2.1951653901944344	-0.3086792520835901	0.5153859840732261	0.8415917136878683	2.1219963973829525	1.4407741987091967	2.9944875164722387	1.4161030018339242	3.376906386432627	5.857027039045436	4.208718766076887	6.0290775146852695	3.5816018490963626	5.555987344065742	7.828624228739263	6.275271399866912	7.131405812378232	4.232893456262434	4.393748749130239	6.725924951738154	6.15787123079076	6.684287531188982	4.899886595752755	4.471501815950534	3.5125560671814533	5.40194700784577	4.505537498542824	4.072697152345602	3.3483047400814994
424	-0.9903731917172299	-0.980060574918163	-0.7789543847444499	-0.9952245329525401	-0.19200387548607728	-2.5128247674441795	-0.6785751564059641	0.6351939423736455	0.5876125678485437	1.8081049873478154	1.077655431887641	2.4942529138533738	1.2182353704212607	2.301473850161627	5.368769632136078	3.860834350375011	5.5909652568802635	3.335324994249402	5.2769102917002755	7.317476730945313	6.002175792798844	6.730108244116509	4.108990658876285	4.244814385187415	6.2260093531773215	5.866617187947004	6.372658713463806	4.7051100612103385	4.330250252281281	3.346068373815173	5.21314428920624	4.477090347430564	4.091870297591384	3.2531096853139094
428	-0.8985784627162012	-0.8830188490508041	-0.7572810034705871	-1.0947152348536024	-0.22924615384873748	-2.5821857387198657	-0.8335559943134727	0.7312290053979343	0.4974623905973607	1.5384631118078926	0.9131602025818822	2.113666052250176	1.1512498826524555	1.3846446240752144	4.82288693164052	3.655829420396383	5.178814874925238	3.2098786749860455	4.776170241694992	6.770566923213579	5.789290413545068	6.376942618482287	4.0093669790130635	3.968856086247302	5.702599511053981	5.624647603139218	6.132538303150862	4.466373909164163	4.1493816270970605	3.2203390516991375	5.062344061468077	4.404396046008875	4.114706029040077	3.1895086684761953
432	-0.8901842214043869	-0.8700203873602944	-0.41347604885612826	-1.2408809630536002	-0.195201917989943	-2.464178794361432	-0.7966135124121145	0.7686442713404572	0.5523484335305336	1.3200560774853551	0.9255894995208688	1.9006009053882116	1.2283596961479575	0.8908925630011092	4.334385384106778	3.572173824828174	4.837642180626704	3.219245664098138	4.1203179255408005	6.275635226617703	5.641823754371487	6.101262554023283	3.928499450301829	3.5463881403077053	5.209463583191363	5.440450654599143	5.963984474383305	4.215883721197958	3.9137935539613946	3.129665366854214	4.959275709982695	4.276492108038345	4.122086991393268	3.1599845806448528
436	-1.0128810380158413	-0.9907029842159395	0.14678248726025395	-1.3725161517776499	-0.1867361213022564	-2.2756953181985136	-0.6379448755370186	0.7318008523584657	0.6747168881547495	1.1413210601601282	1.0366599533610787	1.8633000803633686	1.4331592285212083	0.9129256583052833	3.9924166101746335	3.5465757757289844	4.618582713864102	3.368035546382392	3.4557065876496913	5.905053123824084	5.539525018057501	5.933320507328156	3.9000584980726103	3.0407931727884336	4.803086268696127	5.308885084100016	5.875490650601603	4.031396378829271	3.644264450409102	3.0661599558664783	4.922481524437163	4.13186406046038	4.12330387981793	3.1713583389321767
440	-1.2633271185450248	-1.2423146931754077	0.6799847466466984	-1.4866446219103404	-0.27982318330688105	-2.1589636748164747	-0.47282826781104514	0.5924892410578194	0.7439488153748226	0.965853390639305	1.1256610126685382	1.93975209700079	1.6853394465811087	1.310250398188823	3.8108882807837055	3.4885330112118322	4.530533779149881	3.6175722984531777	2.936912290787524	5.683834538414589	5.434585557568053	5.871359333473362	3.9560811419741357	2.5603597099511184	4.517772663154267	5.2067632543712765	5.867152676074315	3.9901471037258958	3.380833855676251	3.0143978519627415	4.954497801669563	4.0249171155399655	4.132822979983105	3.21587824009541
444	-1.5988869626685207	-1.5807937343740528	0.8929453469619909	-1.6591726499629083	-0.5100787865158247	-2.2370946350836904	-0.43610152492090687	0.302515267562028	0.6365374310634907	0.7430374603585078	1.066433903862689	2.0014326521886896	1.8434182358929965	1.7575141147109579	3.720732441091283	3.309808722722638	4.510737884577058	3.8681735894769647	2.6456232004127287	5.579748139599014	5.265831934031713	5.860208019719778	4.077746381001067	2.1957361642713624	4.347400654307072	5.095022188674392	5.9098558276693804	4.110657204739996	3.154878131530548	2.9457485601438766	5.019043909752448	3.979736079658553	4.139627923050641	3.2550017751528824
448	-1.9584238479759872	-1.9421701382239331	0.5821347221935812	-1.9948384711445473	-0.8647724368196502	-2.566133254248065	-0.630944429235113	-0.17637664035135317	0.2806785695618931	0.4363573778579593	0.7790453414321474	1.9035059165579402	1.7578231051886932	1.8950213146048744	3.6113698391335105	2.962444774777626	4.442550171126168	3.980442275488069	2.5521993572648123	5.522186265354695	4.987488257213711	5.803700909266741	4.177767266216067	1.9735964486838349	4.247303951984108	4.932043063109312	5.940857872268842	4.321826923902889	2.9705190583570937	2.8232099938639013	5.043006407403131	3.965939034939359	4.097743024016986	3.2251400866143842
452	-2.279256576505562	-2.261126035703559	-0.24421593485208773	-2.5362293656211725	-1.2841395107272808	-3.101850024974978	-1.0709527703902815	-0.8205920437122008	-0.2955018274475942	0.056325808025248586	0.2755224995809381	1.5625019034036947	1.352758046549519	1.5117956361748432	3.4006657514544276	2.470101827107098	4.217926014741385	3.8346979521255693	2.546357863672993	5.442011342614002	4.600123393842348	5.611539826530466	4.137788285298939	1.8563021374565372	4.1604967012267124	4.695547568863876	5.886538967529275	4.486845005151298	2.8097388673415162	2.620444052755963	4.950275885481491	3.9175114532745177	3.9511091609381044	3.070003740189049
456	-2.5060512956290055	-2.4816183981229436	-1.3336913551990373	-3.1956422248266763	-1.6747748809492122	-3.7014033700951625	-1.6496281582191226	-1.5130007228798694	-0.9500136947488154	-0.32487225450509377	-0.32705643690505104	1.017426249796358	0.6883569342400016	0.6696794612189204	3.091500989738045	1.933158512003094	3.8084909819768917	3.3953678522215878	2.5180406506860153	5.310184942189996	4.164013852096739	5.254168974008668	3.877746572240881	1.7857593252872286	4.054033746020652	4.401216495846004	5.7007346009329565	4.469854820410258	2.657193654027315	2.3456561506177045	4.708803164991298	3.784425487500298	3.680008640534921	2.7817768980365027
460	-2.594921105509001	-2.561683409898948	-2.2818322124090935	-3.7635404968608888	-1.9384839485817507	-4.170391549071604	-2.167215580236925	-2.0645742364256345	-1.4662806950742422	-0.5955303892358712	-0.8440279343276219	0.4307449747177561	-0.04018457596289192	-0.3011708251978687	2.7769682337267443	1.4961686096563753	3.297518006582404	2.7449064185458516	2.4360697207934847	5.1518368590936925	3.7816119098554237	4.790298449819722	3.415108672102777	1.7351872877180723	3.9412443538341044	4.10425757325591	5.395577893939731	4.210270394185763	2.524276011769516	2.0535421319613008	4.361190784887489	3.5814194588838104	3.3372688209199093	2.4242801605052575
464	-2.5184428628279445	-2.4775667127999212	-2.7086262634555656	-3.9984168905397333	-2.0103352019098653	-4.3427095303565135	-2.414278024300042	-2.287260526604373	-1.6358296829884573	-0.6583105309078109	-1.10135781486918	0.018657714081388062	-0.5787852987935294	-0.9517869925310509	2.5894970828481347	1.2877438035877486	2.847297661268296	2.0613176770619086	2.3726670682130826	5.028437601745334	3.5541205316456046	4.346552837841927	2.873617641823182	1.7324788526663166	3.875290860882335	3.879318465928929	5.044341074605572	3.761643400231767	2.452889913088054	1.8327392293434204	4.016087521903811	3.39750312901063	3.0440459174549037	2.1175575202884467
468	-2.2765572013597897	-2.232549423303174	-2.4335195956778533	-3.7560920620499822	-1.8924436521434258	-4.160386075006289	-2.278331989258141	-2.0881419129103214	-1.3528366054711347	-0.4896573411976635	-1.0208981011364693	-0.05949848130224583	-0.735916910697683	-0.9393767094736998	2.6210670405015826	1.3574975694715128	2.61298393543471	1.5414437016670057	2.453754657272272	4.996875750323555	3.5298912436055816	4.053334702748491	2.426332467628982	1.8361893845928883	3.9127740761197303	3.7831802272647943	4.7471952318499335	3.2660639203581074	2.488639586841179	1.7650939181586176	3.795756807280649	3.3488469039290076	2.933619730218444	1.9809914777331574
472	-1.905544872241269	-1.8638282967240345	-1.560080285901874	-3.0823907774349966	-1.6619805055618981	-3.7093703653143053	-1.8130916311264242	-1.528912063553198	-0.6737397892154134	-0.1665529008474997	-0.6643906814967081	0.21106670743581965	-0.47947347043098637	-0.21207030063969146	2.8624546455592514	1.646382923737875	2.6556215219206885	1.3134952750422026	2.764971964530958	5.070777403426765	3.675780048626652	3.9753079314000797	2.203762525716552	2.0765929169678	4.068179120283034	3.8214235209304466	4.579643237949231	2.877405159361227	2.638742678655808	1.876755590468862	3.768431177161651	3.5002591521581787	3.072099439494061	2.0649635739643246
476	-1.4759420119214928	-1.4396775924573877	-0.4256689835768547	-2.2098760549064393	-1.4415521585308408	-3.185901395383496	-1.2238184182739862	-0.8096938112796942	0.19247977386992365	0.16119089681936571	-0.20675376005424512	0.6895339471574096	0.045711770538313545	0.9425773596807678	3.1996831813136666	2.0117762037983167	2.908718101787052	1.3813793624333728	3.2709219373136156	5.208090292179206	3.891534795472671	4.079466332626363	2.2223584595837864	2.4056730209648336	4.288845528264724	3.9403743644411593	4.554947841588241	2.679171555430566	2.843993179770291	2.1106107181667038	3.9065961739136483	3.80435179703556	3.4036834154024973	2.3123958052426943
480	-1.0729646655649505	-1.0409809324685164	0.5593696818534134	-1.4534630738755245	-1.33785104413812	-2.803654902055363	-0.7693952302580863	-0.1815397287792127	0.9660856699394081	0.34721013815955726	0.15280222854182376	1.1535983056506767	0.5900967106225757	2.0245544859315823	3.474928370285487	2.2981331290396905	3.218533746222738	1.6309189755271007	3.80391644471122	5.333965764883861	4.0620980160198235	4.25955199119879	2.3775203167970207	2.694019310825208	4.469512928168689	4.051034917140284	4.621583926930255	2.6432957582494154	2.98782443245891	2.3393828809802226	4.097115983155533	4.101051320212247	3.757482042362635	2.57517098730325
484	-0.7606601099836621	-0.7277725916607808	1.1010402413226186	-1.0556778881122575	-1.375551339491239	-2.682295792483225	-0.624090848777563	0.17382356480581238	1.4195996487061997	0.3369765869215853	0.30078118963595574	1.4245406353270256	0.9307780838354666	2.5685257846833087	3.581176271933741	2.422051423633443	3.4414710911646362	1.899535531970186	4.140380848921543	5.389828668337792	4.125576485708188	4.40817402680378	2.50971173606471	2.7857594419717606	4.506598938054305	4.079745282363207	4.7029471278661905	2.65716265961211	2.9499280378249746	2.4246051250277527	4.206255425323829	4.192267407323257	3.9270546337161214	2.6882841519194
488	-0.5499036894265986	-0.5096167909153372	1.1445184917163866	-1.0653780671878035	-1.465199228402168	-2.7753343512082864	-0.7722261528545461	0.2320318961245716	1.480746623115417	0.21562695448794292	0.28037261892103343	1.4738320075017712	0.9920905207381626	2.3805112778642985	3.5353968054202944	2.425844186380215	3.541016569734109	2.0733990616902194	4.124134530145422	5.380010591275178	4.119024266333862	4.493969429114023	2.5074520047776905	2.586089604524218	4.365017879909565	4.019553174360881	4.75645683995033	2.603747599703635	2.680134289650548	2.2951590956914862	4.164860238050412	3.9563889403589787	3.784629335384915	2.5639259750483157
492	-0.39079299470464196	-0.33896103415740453	0.8765219427866896	-1.3179402318104603	-1.4314426147560109	-2.882298462266353	-1.0011805270666836	0.13450206782237933	1.2649953333387867	0.18010947062795468	0.2790330641377334	1.4457685910916065	0.8852215982975621	1.6385153490659663	3.482727280406788	2.465857022735491	3.620692243971424	2.1519057696371506	3.7647681141215834	5.384870038742156	4.1724710359132775	4.593550193633114	2.383224481287624	2.1321136897615838	4.11760233793169	3.9516465564140426	4.8142099258946045	2.446269506000277	2.2502884807992807	2.0029103705382303	4.023445596073466	3.438406220338024	3.3674631033754143	2.253362411531876
496	-0.19855433652338722	-0.13593268360150512	0.6102206691594142	-1.5287169179466962	-1.0987367602264446	-2.748408310626854	-1.006207582794348	0.10822664173935012	1.0165318224991167	0.4407405544120631	0.5317536579058031	1.5780011375640868	0.8419672229490052	0.8050801137625037	3.6235709098882283	2.735396855123816	3.8679006002045826	2.2435021343808677	3.250244847674658	5.528070435872065	4.448751438352943	4.854497420452312	2.272743219359531	1.6000250537529885	3.929430951688027	4.02033518729836	4.977468001196529	2.2633814754561654	1.8490804387137838	1.7211737589296006	3.9419104953424324	2.8594858574197746	2.884760849345097	1.939443225732344
500	0.09666869019897396	0.16449704724741987	0.6160675271692494	-1.4496097528098137	-0.3960092653766681	-2.2051200811025287	-0.5571996555565545	0.33808916721815374	0.9824286078444658	1.0989634962945978	1.1858984202007796	2.060221428437967	1.0785981389470285	0.38700029156251475	4.097070206788461	3.356727114785577	4.434330452213816	2.494150632283197	2.8591475414568834	5.9080424159613125	5.0537648073393475	5.402755723664041	2.3528933465680604	1.2330603568416558	3.9839677710083428	4.364778030819594	5.3592333658332505	2.207498544841641	1.7086336569562564	1.6735260444350313	4.109004963990994	2.5260634358525276	2.6276397638736597	1.851600165460657
504	0.5003891574623773	0.5657059536002637	0.989789364223129	-1.0053025458703633	0.5762635454887389	-1.278124448410314	0.36070763973718895	0.8619192816907453	1.28385519657242	2.0670890755916487	2.1996509973303264	2.9084434435846207	1.6616647201546755	0.6702178103691725	4.882185446810629	4.2969851385347	5.319868551174336	2.9795215054626607	2.81180238013843	6.526097281191645	5.961467251031506	6.243839248151837	2.721239083095352	1.2211791246099954	4.3815264591220355	5.036684500375635	6.002121910200103	2.405953162794571	1.9900563905062914	2.020147795345174	4.629725921386017	2.676104777255326	2.8208608556099444	2.1426489299083245
508	0.9334774589812392	0.9903274749548027	1.6212929446294682	-0.33567014251837435	1.5599942167950358	-0.2015269095577981	1.5116234979611665	1.5430248936796152	1.848973627190616	3.0809938829835675	3.3335475837466872	3.927636136629082	2.451066010962532	1.5715310533900535	5.776309475620078	5.356517301386982	6.331451876867404	3.6291448978349705	3.1462819496827445	7.254752617639321	6.996872884251098	7.218533974542288	3.3133065616878055	1.5967259366730002	5.065468298520736	5.948248371365173	6.8206744021825285	2.8648838924555844	2.6863613060838007	2.759414427466132	5.4434437614336275	3.3430502330299463	3.4935758025656773	2.7930645872169886
512	1.2594360081346219	1.3066457477004874	2.2673590126012746	0.2772962443980083	2.240400070256009	0.6775232536376238	2.5053389009164486	2.1345543807496843	2.44291138032211	3.808393707196864	4.246313084371863	4.788129794429689	3.1577670494462278	2.6823029450405804	6.471546633593777	6.240819915273717	7.147761326863305	4.230940331267365	3.689300527794787	7.870291213192169	7.890820960149614	8.044796923353392	3.9104277988887155	2.203007930915601	5.819467529862921	6.881188852102986	7.605271797052197	3.4345641049455025	3.595710030060499	3.6978042032341323	6.320045932071983	4.311616886697221	4.438436973809893	3.5945193676794718
516	1.3498830761206815	1.3915951216849243	2.6804032258070953	0.5535019622179593	2.389955276177247	1.060746071044713	2.9815642758432457	2.399503940246156	2.7822582651464938	4.0019273656895615	4.650465476692541	5.180205808912205	3.4847500236267788	3.476772299571603	6.694953901553897	6.6850261519451735	7.463789921036113	4.520892131835356	4.139894951858561	8.141172388503133	8.385785081672166	8.433475473092287	4.239383686806351	2.755791180328673	6.346234305571537	7.5613794135875745	8.096359232488345	3.864330043572972	4.387739170440578	4.513445842791656	6.945994359599281	5.197010980836328	5.288647161482655	4.229629505922775
520	1.1591296166718676	1.2026625841294014	2.7286469867479135	0.3587263217452125	1.9861898372094737	0.849071560146492	2.7908956934083777	2.230819219679002	2.6814002923023805	3.6237842945159855	4.453512180528423	4.969863879053863	3.281858435927971	3.5812976269901973	6.347633345790173	6.575729830352224	7.145744782526355	4.3222632299015435	4.227315892037014	7.938087443337162	8.349024751564782	8.227127054423814	4.119802941411241	2.9756555482122895	6.401051505140168	7.774222354334378	8.102947214649447	3.928745021437684	4.743403422777476	4.894853579560628	7.067442399301199	5.618429169774791	5.684295639945408	4.417606342606382
524	0.7646583895451007	0.8169236758587611	2.4482626853165335	-0.2268827849858766	1.2355091540614254	0.1995420450894665	2.0739345498175297	1.7062768893077875	2.152698272992083	2.8721222804988327	3.8090066813621863	4.271327484790886	2.631787770302396	2.9613883420562943	5.567610726604755	6.007909759611759	6.311902507104749	3.6581017878680626	3.85560177783268	7.309843044898913	7.837040404560299	7.489138584302192	3.5751900582647727	2.725380652222469	5.915158256855212	7.466270427926823	7.6053547667175145	3.5553183465839866	4.5029163246907995	4.688836085879112	6.618812067487104	5.381832586052071	5.446064935285652	4.053882111804726
528	0.34678065689271254	0.41111585394059363	2.006465906799395	-0.9501427984090729	0.485217063394009	-0.5434567914593244	1.197098609762956	1.049710747929569	1.4079189264990573	2.093459600885177	3.0499999446157746	3.399065009118381	1.8159741117404846	1.9258154582038844	4.680524337395458	5.248035894495344	5.293986783966732	2.7691426207246512	3.1636838833088525	6.483755095324428	7.079273682840664	6.494737608724434	2.8402197289283775	2.0853006787103414	5.0469570032488695	6.782711011928035	6.7869162388156115	2.881263487217086	3.75095342642758	3.98436068482571	5.770816311571447	4.581135261413482	4.670059192310797	3.2736582673390555
