time	FP1	FPZ	FP2	F7	F3	FZ	F4	F8	FT7	FC3	FCZ	FC4	FT8	T7	C3	CZ	C4	T8	TP7	CP3	CPZ	CP4	TP8	P7	P3	PZ	P4	P8	PO3	POZ	PO4	O1	OZ	O2
-200	0.4561025786805287	0.6079267248063801	0.4855322527547855	1.031994459407709	1.391334410969335	1.9199752759142472	1.5832952220996708	0.9802609061287474	0.059337470530662524	1.408235069534148	1.8949564647515225	1.7997859670975178	1.16998564901598	0.21027426368553156	1.1993755071876273	1.8472951603979788	1.7625409320200436	0.8461965301130098	0.6328559501882336	1.322574254511468	1.8479282809331845	1.770726557075671	1.3277037110185979	0.19722603211676007	0.9954567526479987	2.1487162058939826	1.4708709679660954	1.0520969602724826	0.7376457434150283	0.8019305447358791	1.1337038249956441	-0.08129213729838104	0.21978150252642675	0.6854533535817441
-196	0.48978194470725184	0.6437921507793662	0.59241604655422	1.0107822392693093	0.9950425003678556	1.4983338079770194	1.1966776817626148	0.9197230911875964	-0.009051265172159845	1.049809453221068	1.490899678280823	1.4540973865036226	1.0187180016546689	-0.6389727576335751	0.6768882853584347	1.4729545079236035	1.411291595710513	0.6439163668587645	0.24799884793133534	0.8809970595051274	1.3477653230971587	1.34796213763371	0.9465608572903393	-0.23200783074930428	0.5575754032362699	1.5528144797220984	0.9573509072928518	0.5328106270689366	0.2477131181661647	0.17920854642444925	0.5755599722635866	-0.5121270405237149	-0.26553168825820106	0.12510482935313938
-192	0.5118241297197312	0.6555704457897595	0.8506522753219444	0.8960177875784708	0.47840595124575436	0.9867928599239012	0.6458439810659339	0.7679854612034182	0.08532364644919795	0.6832876784239428	0.9979999040202094	0.9596185659976062	0.6775967461644463	-1.2748630014657285	0.2791296236620257	0.9701232885662991	0.8835486151322303	0.36844491865594764	-0.032921306705803045	0.42798882614797823	0.7473534922804417	0.7239217143854997	0.4912555801386357	-0.4997982966202107	0.1732473071015788	0.9029415823073889	0.31132346313076237	0.10628367188560926	-0.12396837739639867	-0.30343747062366455	0.006800200772997998	-0.764600334621236	-0.5417425022752675	-0.29595902487418946
-188	0.494947760047603	0.6221266969232386	1.160210606506785	0.7048936468447348	0.05312044532596487	0.614511428712027	0.1635888214749479	0.5866153225393245	0.28151646185370766	0.4545832860913622	0.6028337463417607	0.5348435030785135	0.2988580457771332	-1.4660392962635114	0.15087223014886939	0.5121954070510997	0.38489580057242095	0.13735449279438755	-0.1264473643686707	0.1310999837188014	0.25078856881719813	0.13872876728318165	0.1388515677522701	-0.5043476211212065	-0.014141070620775634	0.39495712418974926	-0.23961804746688387	-0.07213287782338659	-0.24056950150787004	-0.5096923100000769	-0.40447521107596623	-0.7326183300594962	-0.5156495558117575	-0.4567232716473301
-184	0.4491019833670115	0.554595290214314	1.3892285788747372	0.5075603710711334	-0.11153835775109612	0.5445429072936794	-0.04014666740891048	0.4514075804280697	0.4879892754155133	0.44949775820732085	0.45679074410504555	0.36862900760087164	0.05584096894470847	-1.1408529252812443	0.32993456638005375	0.259299605430155	0.11182001204869052	0.06347827597327005	-0.01374768369154156	0.09842924748842088	0.01596935089370989	-0.18727312934800447	0.016210619319280632	-0.24097099839406338	0.05665877819657474	0.15898829658421937	-0.5184361325526163	0.027442552080010025	-0.07495432328135103	-0.4222516108819305	-0.5675632939314204	-0.42277160180163814	-0.218110620424818	-0.35491409808197066
-180	0.40866258637247727	0.48671880241533344	1.4187792503775825	0.3765076687366806	0.027856970135570966	0.7892371396165596	0.12054004489744405	0.3964762677673042	0.6194599851227204	0.6422889812465707	0.5960682615489663	0.5226139413036651	0.04108801101205216	-0.43856122979064277	0.7169300895709986	0.2737326317074969	0.15493731161577126	0.18503692699445082	0.24087810455541547	0.3196613780534062	0.07260377686766507	-0.161380827019463	0.12964883413960238	0.18398660374919307	0.32844287074134865	0.19827339003094774	-0.4838201093379351	0.28068530488673565	0.26857837966820297	-0.15279374978112586	-0.5122224079551148	0.034969556988402935	0.20021158406253803	-0.11552554339805382
-176	0.4031850983453825	0.4506524193829945	1.1930392950454214	0.33684047971558434	0.3687213351953956	1.2045719593153155	0.5681124911269941	0.39354929228603136	0.6303641780196895	0.9012311674252326	0.9189643240615215	0.9036636329723748	0.21812002305750758	0.3416643432097224	1.1142113180639621	0.48964041347859	0.4625552582983315	0.4367811966835647	0.5123158680378866	0.6684131605438643	0.31362283150645726	0.14976872465944507	0.36548516062013114	0.5935918673787355	0.6532850845055514	0.4008517553222514	-0.23342604876234807	0.4748422193459537	0.6064218267388906	0.12033893882647963	-0.35913509039805014	0.4447341252065763	0.5400571809484984	0.07564055155491754
-172	0.4345053721424966	0.456244914571893	0.7562329750041474	0.3539317837362299	0.71928006228998	1.5692112406212524	1.1051532002203155	0.3849729587848879	0.5343131409506411	1.0553801033077115	1.2379658190942855	1.3214195933357944	0.4572794723886474	0.8752518870190222	1.3219794001581113	0.7555916290279835	0.8823339320794193	0.6834090930850437	0.6731069070987862	0.9685171818122364	0.5653675184280835	0.5778492674543398	0.5646752700854099	0.8220586755978412	0.8724835492994186	0.6168619974774547	0.07318596523403881	0.43786400446014295	0.7770799378802858	0.25501227314460806	-0.23454968572049445	0.6457889063743005	0.6587613208351091	0.08116803297769142
-168	0.4711031305816666	0.48208671686527604	0.24827852782507653	0.3608108749816793	0.8958988763124441	1.6968120293692208	1.5077118835530126	0.3377858987863022	0.3915902664311447	0.9825102066029573	1.3722614015265229	1.5888725479065122	0.6218429788148241	0.9596874689667926	1.236566898084939	0.9172664261547364	1.2449066607515662	0.7937701920495728	0.6553543789529942	1.0815259190910038	0.6865345222305952	0.9520487761302434	0.6194854363059753	0.7910259942110422	0.8971852041480941	0.7463698964348415	0.31318911830984414	0.1488568928059733	0.7274589520207646	0.22233767751348807	-0.18962673795030802	0.5948933347941202	0.5441175685496361	-0.10595423701476742
-164	0.4657515275640196	0.486041544640783	-0.14617152475168754	0.30660685819462685	0.808854995115888	1.521482821437861	1.6207663971988517	0.2778214507241206	0.2734464102040081	0.6710976345284807	1.233123895392826	1.6106157262192307	0.6502817256721918	0.6035043581984354	0.8995565153298513	0.8944246150322918	1.442237015897581	0.7192151528319835	0.4841462659533226	0.9704571341808432	0.6399210675295572	1.1813987463687563	0.5366469012062846	0.5435037599192888	0.7477728705600225	0.7875030616904873	0.46175378444438275	-0.2358755612378531	0.5364701138303271	0.11544399679362638	-0.17210660831390856	0.38514435194050683	0.31740945497483275	-0.3538663974410764
-160	0.38529214165685427	0.42962795387516306	-0.2820850305587846	0.185408934482716	0.49276277298494325	1.1126337023300301	1.4105372393281401	0.2735268466719294	0.22288630846493798	0.2217517787579864	0.8571746327693137	1.41174494863753	0.5818110093686233	0.00967087780477745	0.46824887276683613	0.7088364940866722	1.4580571614646336	0.523874221909614	0.26071175867060825	0.7044619900083612	0.4957610654235098	1.2731565204901176	0.42836758386224716	0.21557441299370605	0.5291749225607513	0.8164092281710036	0.5797429666187177	-0.46391576411421726	0.3596974602200861	0.08294580110827379	-0.07009380293076865	0.1879211212420441	0.1597589995403805	-0.46720111252129726
-156	0.2327529484117602	0.30134439392301643	-0.13332384791091773	0.029787657707228812	0.07121530902286968	0.6173273309380414	0.9542170738924082	0.3753005554737371	0.22918304743124088	-0.21199518388630292	0.3722441783089836	1.0963156195617811	0.5087416755229544	-0.539311824867464	0.12366331337462784	0.4504311371398245	1.338872310119123	0.34084907088054295	0.1021529880567171	0.4049198319225457	0.3681870987656226	1.2829439607653945	0.42986369024465454	-0.03966780369399401	0.35765176921191477	0.9135007239166243	0.7388069611016107	-0.3380816868352533	0.32633355177504025	0.22508351447974578	0.19762258181744957	0.1483052220176475	0.20036557266192645	-0.30749648731797585
-152	0.05111428337305074	0.12841553953650733	0.18152390374606478	-0.12018236487563058	-0.31639054337729233	0.1745420838956044	0.3892998089498212	0.5585592971050931	0.23538424015221002	-0.5066218959415142	-0.07524692248181468	0.773387608959707	0.49936836831853126	-0.8251203873782886	-0.029122974650049056	0.21300677901371562	1.139245030387843	0.28950700090747755	0.07217279058354355	0.17102196769450803	0.3335714033764869	1.2445086209347611	0.6030210837398167	-0.13330885734279455	0.28821962999054657	1.09123718463045	0.9440232491500787	0.156233816944491	0.45413359884998966	0.5203573094581663	0.6080619677450341	0.29773598834206944	0.43608668336439527	0.11688277095848519
-148	-0.09593973284579196	-0.03231048948355791	0.4487699854964508	-0.24862039026432267	-0.5801397547379856	-0.1469000872240989	-0.14571088515686514	0.7132418733708987	0.17354255870872826	-0.6251729711007281	-0.3877778639539689	0.49874317520106065	0.5434434996235731	-0.7897703031627294	-0.00837119387211857	0.04272086162509994	0.8819600321436873	0.39968535203158667	0.14382854067728837	0.031082576062285414	0.38389772079817697	1.1317298383749566	0.8850064851351108	-0.08147118965083426	0.28665590213881226	1.272057649261813	1.1084761591581538	0.8221690633996865	0.6344072206692413	0.8280454257086112	1.0250653002607748	0.5348479138222157	0.7286818605145338	0.6438451989130823
-144	-0.15117479822614655	-0.11665830731740838	0.46978327513341506	-0.36400207785257427	-0.7002940756283202	-0.35109040052463847	-0.5448310957504408	0.7038734537473349	0.013693257200418446	-0.6148627980920909	-0.5403364287085661	0.269834368739739	0.5612875208988642	-0.5389321432812033	0.07569317500554075	-0.0677254868824039	0.563085256585396	0.5881128296308805	0.22123868707589409	-0.051126617809197805	0.4456091511919922	0.883686421070603	1.1165264816704825	0.017069848211225782	0.2636089318295686	1.3348522152577518	1.102372762757853	1.3445805277255607	0.6996394378164049	0.9694510077795748	1.2670965162711036	0.6884626728795662	0.8849590398379894	1.0422767374426618
-140	-0.08788168408140377	-0.08104376474422907	0.1748765106554336	-0.47159704446935086	-0.6990900618068971	-0.46702510000571995	-0.7377246003598671	0.46542671205313624	-0.2047175014810857	-0.5517504201310119	-0.5555492029468909	0.06781258416936203	0.4703637051627723	-0.25834730202298295	0.10884495052036657	-0.14228795432882965	0.19229698132602024	0.7080551368002843	0.20513820596400942	-0.12548828093317255	0.44668805486434754	0.47392460584195334	1.1366499633701639	0.05191007615930869	0.1465776857013228	1.1996767490615614	0.8456416704761965	1.4580242597008006	0.5328550921338268	0.8381788709459356	1.2119809358514804	0.6249587520079463	0.7725585679576192	1.1394245595774533
-136	0.08208048322935117	0.07868677357834306	-0.3215051285255884	-0.5405924902618746	-0.5925306066811891	-0.4924154865230363	-0.6818678957889777	0.07290174048614496	-0.37914982342361336	-0.4713382709047118	-0.4561612892554842	-0.09119926370006473	0.2618009739464837	-0.09013453103196893	0.06137138962152041	-0.1734661604554803	-0.1672022338460434	0.6429173930148512	0.06498745067401145	-0.19720458934585627	0.384148388131147	-0.027603827347203857	0.8854805804784572	-0.022797789367098937	-0.05665228129031063	0.8957490898405017	0.38243982099297413	1.0934486361553233	0.15268741509511505	0.47315281510102775	0.8754127599548648	0.3366754940592626	0.4043973972124084	0.9176129675585857
-132	0.31856882491743177	0.32639059341994625	-0.7633843998708879	-0.4995563315653559	-0.36617660430010235	-0.3770841052548481	-0.3650698056540625	-0.2701030366753857	-0.3899025311162682	-0.3374342313830153	-0.2356651568423272	-0.13948410714219073	0.030693825256816073	-0.057002182906000544	0.0142821911361831	-0.10460849079900693	-0.3975765993094022	0.3866739561331934	-0.13078495827079764	-0.20698761887743092	0.34063634190387665	-0.4523422408604328	0.45121472960038583	-0.1563010807859502	-0.24910870131541218	0.5630407915205058	-0.11689374566367675	0.41855817927542605	-0.2831948988440226	0.04645279783203208	0.41221782461041884	-0.04520319018276127	-0.06078544988782559	0.5222402797865116
-128	0.5688836560191511	0.5973662122903183	-0.8802150465676487	-0.27581104566556724	0.003888432858007682	-0.06287308021407109	0.1732807304060522	-0.3339908412607123	-0.16822756784404216	-0.07363547366147752	0.12785148588326073	0.004304712161729294	-0.07065384072108367	-0.06957808119373225	0.10332465890785056	0.13725317979968638	-0.37838870191407564	0.0564975401822838	-0.25130581792325307	-0.06886515003937378	0.4323682476094707	-0.6070517286232865	0.027330800821918907	-0.2355332517637723	-0.30113026423720146	0.3781778206813927	-0.438331573094903	-0.25392487581039364	-0.564650295739312	-0.2328296446882313	0.03295742339515545	-0.325639336479094	-0.4069833149171375	0.17285959378945495
-124	0.7857579569051595	0.8228817561354665	-0.5312746749815974	0.14483909272342013	0.5036240803401048	0.44888162499583323	0.8212071040400852	0.0005131746280089166	0.25642257864107787	0.3653640439822533	0.6278494580629648	0.36758235004125833	0.07328271102284561	0.0006531358214368947	0.41809293522180635	0.5794628247889807	-0.06212862565328663	-0.1681150491761515	-0.1838578875191256	0.26000684434095184	0.7223642450214509	-0.383787273391687	-0.19324681114044037	-0.16284067887677728	-0.1361381855150106	0.44923895484035953	-0.4425274420532731	-0.6335287674167595	-0.553140996490111	-0.23964220224911809	-0.11300706089813721	-0.3622695198449399	-0.4839421796501269	0.03416223070341007
-120	0.939909157764134	0.9562355851826305	0.20683388359778213	0.6760005337813914	1.0451472971277973	1.0517632934718724	1.4005250895426273	0.6512345655211655	0.7556012253757681	0.9308662987095114	1.1899845570083951	0.873366830528115	0.45677888278076517	0.22264912668281434	0.9210760570159372	1.1550465793057725	0.47433569907593126	-0.146407067406084	0.08588924982320481	0.7243338208984362	1.1558831900977278	0.16067951877080636	-0.1263558712391715	0.07182212900863466	0.20797738380374975	0.7428041677794459	-0.14803475104150088	-0.6016388520309652	-0.26992621949710593	-0.007224434037148031	-0.019171750124568662	-0.15439124366404022	-0.29320233986261	0.1232861500846026
-116	1.0206534836749288	0.9854637359534105	1.0600095960557276	1.1402521104634253	1.4730226956370542	1.548266049290772	1.7136158899911627	1.3480011190712948	1.1488788098892768	1.4683617316366762	1.6693896013073521	1.345481153905843	0.9305272078862403	0.5476833568096763	1.437258835978509	1.7014919476465897	1.0388115618227485	0.13631755079184812	0.4453357148847754	1.1674044102758538	1.5610284765885671	0.8069499710690314	0.15419723054578616	0.36707496550388885	0.5790206179305085	1.0867558690289714	0.26948776773124516	-0.26226052575654174	0.10291800621989716	0.28646227645074823	0.17673496857367693	0.1457494344607763	0.00924324800720637	0.304824470704086
-112	1.0299526427014385	0.9302626228687504	1.6780645804953498	1.3394439186610758	1.6224896866842469	1.7286597446666205	1.6223794180916908	1.7556599334259664	1.2810476986012977	1.7746652319924845	1.898955697987275	1.5791748722260404	1.2673870293090055	0.8245792368097391	1.7292901233881737	2.018842692046467	1.4005600178643776	0.5510922060404192	0.7007043343972734	1.3918933833266274	1.723914618908032	1.2669146028957086	0.45914929989285297	0.5546187744442962	0.7793961743704096	1.254051324539208	0.5684153423263333	0.13404265012277175	0.316872953568564	0.4171962429480693	0.2761399738969298	0.3128193608969136	0.19971591183783732	0.3786875894045472
-108	0.973874566480412	0.8251057842403555	1.7979880525970522	1.1542186707919326	1.4037905896030474	1.4772590361491247	1.1234145136126257	1.6457885462216755	1.0919294329731237	1.6989664988538324	1.7690341427961913	1.4444503747710822	1.280560132608266	0.8811237789795999	1.621349092204705	1.9624769638104806	1.3997760975782707	0.8894730187847225	0.6774544102730821	1.2590898243586404	1.5012141428238734	1.324728843205369	0.592927096777234	0.49352556342453047	0.6710090620265681	1.0839967700292845	0.5737214670001315	0.3430758109967624	0.1980046773918175	0.24413867233149272	0.14066410029182994	0.17909938051781876	0.11652164876844463	0.20926983601663499
-104	0.8546679594396135	0.6963524204792754	1.3663699592425083	0.6157239063929869	0.8623889662903895	0.8443037250183014	0.3725861301551967	1.020039436626003	0.6432892067880213	1.2298532693329682	1.2919063535497735	0.9612873768378142	0.9263635254359677	0.6224204286119501	1.0994774075405538	1.5174965820146367	1.0276762221139242	0.9720361804262462	0.3207423976906458	0.7682676891957171	0.9030575729458289	0.9450537538509987	0.4629287410015511	0.15722456534744617	0.2547213428741939	0.5700094685468263	0.27157849004843054	0.263944237757906	-0.2482364618471325	-0.2073185736667107	-0.2238406384300273	-0.2614130967215872	-0.2455002212286594	-0.18528827978083404
-100	0.6663632376059246	0.5445510135253484	0.5574756250611678	-0.0957003456918172	0.17186362998009513	0.03530105567006492	-0.36784663703552517	0.11140868784671464	0.08793673642129544	0.5134955631643027	0.6079824551491044	0.2974213950277392	0.3292655936511062	0.0900183913819173	0.3273874214966531	0.8097954371987797	0.4287107874059974	0.7393295746256818	-0.26466354660923935	0.06712169928293421	0.0949801427708145	0.28512605952754716	0.12538383869462855	-0.3409595480893552	-0.32343101419806364	-0.13755945826609145	-0.19090409528694202	-0.018754420754646825	-0.8316326120360716	-0.7582655529905012	-0.6714190227722981	-0.837846694261441	-0.7301079612418292	-0.638820050534046
-96	0.39958214658941865	0.3464185288742939	-0.31491568605069375	-0.726339874817932	-0.44025447853514704	-0.6805170161231988	-0.8419056513511076	-0.7325683813673005	-0.3985600461433908	-0.20808876998339254	-0.07255072873394891	-0.3123218111259072	-0.2841432087400048	-0.5475335107330893	-0.4292262185703912	0.0498931108645563	-0.1753828074080387	0.275812833804906	-0.8577484466831177	-0.611484943276553	-0.6802161318771323	-0.3928112079716412	-0.2561353736609528	-0.7984335998403806	-0.8406359532113079	-0.8104737380546111	-0.5960193261357293	-0.3049489550043851	-1.2737606731680355	-1.173269388097655	-1.001923796985156	-1.2849780288678638	-1.1040357323428878	-0.9323594546620099
-92	0.054125800592143405	0.07583478074000836	-0.9472457742617241	-1.0639058324655684	-0.7958272675448674	-1.095730540370143	-0.9200698710100241	-1.2238767116164293	-0.6922843438789811	-0.706389067773729	-0.5647352323579026	-0.6845065338018774	-0.7047485691397177	-1.0676306459174678	-0.9268136001075303	-0.5621547088735119	-0.6001419409858554	-0.245637058591557	-1.2283960549811788	-1.0553165647565412	-1.2188242643101548	-0.860800800534359	-0.5130723105828213	-1.0254739497043233	-1.1048796149014872	-1.2591328589120596	-0.7835774997954912	-0.415175734902252	-1.355431791698103	-1.2880592313671038	-1.0795085402890292	-1.3815485204148183	-1.1854490011803078	-0.9254735088824286
-88	-0.34457787784363225	-0.266543208879808	-1.1823751896570016	-1.0324467394511228	-0.8452896454450419	-1.1571003169409682	-0.6618359668234401	-1.2710683313703288	-0.7629978637504955	-0.867346880630289	-0.7896730879873463	-0.7762155513239355	-0.8460127093889867	-1.2862639394710016	-1.0509750816513526	-0.9194101071986711	-0.7861343006313211	-0.6607385261066063	-1.249910113039959	-1.1654497355600246	-1.4457871877407296	-1.0361057493753565	-0.5701025113970858	-0.9415490007470544	-1.0439989540444539	-1.4203139507673845	-0.7394322138237259	-0.3048067681246324	-1.0331416103981599	-1.0946065159818066	-0.9124159789890957	-1.0680565807079574	-0.9428503489531499	-0.6433109028786648
-84	-0.7342614512978709	-0.6317061765934192	-1.0627857419837772	-0.7170899492278825	-0.6781813485189273	-0.9747856830781484	-0.2822130017307943	-1.0017148231011013	-0.6658655388233067	-0.7306808810859637	-0.7962830046576695	-0.6924692970912522	-0.7705999593352448	-1.1263220281774284	-0.8509538152191019	-1.0345797512636696	-0.8094781616754414	-0.8924550987599511	-0.9555361246779573	-0.9881072615471697	-1.4284936153585492	-1.0008606885436264	-0.4802587318215972	-0.6123891457355127	-0.7304739933644707	-1.3680144513877093	-0.5909928664545112	-0.08576305933995332	-0.46022394183311766	-0.7359241228596826	-0.645458935061657	-0.4792231011212395	-0.5087975250749679	-0.26623201303022137
-80	-1.0231095526613425	-0.9276931262436154	-0.7812458853070543	-0.3095466188721717	-0.45923614386007144	-0.7451989035865407	-0.03734573712456789	-0.6679908020320522	-0.49633315080261964	-0.4485139537454645	-0.7139489036654394	-0.6100469812249771	-0.6311655028620267	-0.6356927140398666	-0.48955955977815635	-1.0023701165641075	-0.8134649375404672	-0.9688832735395226	-0.5125560151510804	-0.671956775876104	-1.3127249446150704	-0.9255067682741294	-0.379666476483222	-0.20678968675379278	-0.3315562597486858	-1.2471897570592785	-0.5159218298284041	0.05223746957107213	0.09811745559238802	-0.4170931269128682	-0.47067493081468126	0.12634606627513068	-0.10334538642301887	-0.027796363387858306
-76	-1.1198520632126845	-1.055215713697836	-0.5604965076600471	-0.007406477797703353	-0.33089744961164674	-0.6353522523097691	-0.08958347864183112	-0.4955441343193975	-0.3346961728228811	-0.19435550223394704	-0.6674184186297193	-0.664784608593034	-0.5680840597115081	0.04547341901503913	-0.14819656275049634	-0.9281519031932933	-0.906452236271151	-0.9774741505739546	-0.12963102725202066	-0.38218042157956655	-1.2252105443538452	-0.9478852724939048	-0.3934511830409788	0.09915004645586985	-0.01824633958799328	-1.1765389412739096	-0.6222332104231834	-0.03141234807189842	0.4061737050291975	-0.2872611277003335	-0.5102340566150726	0.4994876074101034	0.08785558469763864	-0.07970246652507372
-72	-0.9769922470221623	-0.9581206416735377	-0.5323799239068769	0.07684727738767101	-0.3414090267144716	-0.6971012932343427	-0.4259639073584587	-0.5640642032687153	-0.21348655169946262	-0.07810457776138872	-0.7067584973611142	-0.8710140563908362	-0.6272495373148151	0.741971490894036	0.05459843934698686	-0.8691103436461615	-1.0909595461957873	-0.9904601548937376	0.04878437506756616	-0.2234013820014641	-1.2041339843866117	-1.0852220031041941	-0.5538189397180746	0.21102708524830524	0.11307471962036705	-1.181702610847054	-0.8754695631811924	-0.3335685721558672	0.3752417256894923	-0.36141639856642366	-0.7418794017180905	0.523443757166133	0.011600783065474594	-0.4027430106961996
-68	-0.6260576828408956	-0.6620872600051787	-0.6760265214064478	-0.04464624065809588	-0.4351962793806662	-0.8548947551124112	-0.8728243686573838	-0.7824481109891386	-0.12104244499640679	-0.1092149314507145	-0.7904362062524789	-1.1186089487443873	-0.7449353318480094	1.2917268243601632	0.09194631106289038	-0.8179296234460957	-1.2649223772537657	-1.0112862561442575	0.0031825064135458546	-0.2079191500659512	-1.1942059963593092	-1.2303872077395182	-0.7818104008962967	0.15327410361215796	0.0702237559572121	-1.194391009176225	-1.1166967125355312	-0.7043168526986996	0.09716841553950915	-0.5226490484393491	-1.0091767285616928	0.2636213892002952	-0.2300639891776358	-0.8136378506145241
-64	-0.1827242816841657	-0.27686390210822154	-0.841561553737688	-0.2598007314798389	-0.5044273721357145	-0.9671747064013498	-1.1951818436011084	-0.9623711680910289	-0.031107047494194226	-0.2195291811645684	-0.8261190035943342	-1.2462278573043217	-0.8057647923153098	1.5791404207414472	0.002520844799621168	-0.7318689804672719	-1.2915351358230496	-0.9818248723990601	-0.1707068677406985	-0.27890935469781436	-1.1023204298798723	-1.2306349246425792	-0.9415688490937144	0.037037484254309624	-0.06268137677579624	-1.1123858662176798	-1.1593948573404484	-0.9354082322345737	-0.21902438942924007	-0.5983931407125607	-1.1095106573702636	-0.07732490430621153	-0.4401794362875643	-1.0627509328713163
-60	0.19005708348449982	0.046239513787112725	-0.8451092221857623	-0.4267956901741992	-0.4670699525008002	-0.9219847894278884	-1.2273410527713178	-0.9419176554740594	0.06482282264555747	-0.3235772541936508	-0.7425701003400039	-1.1474441260931554	-0.733800945813499	1.5524864157580829	-0.16197679895990624	-0.5835985526609242	-1.0958774062144987	-0.8408637621630644	-0.32999944603572795	-0.366257458000536	-0.87560897844497	-0.9992070768877976	-0.9322796440428571	-0.019058756482166147	-0.18845780146224675	-0.8809423424413617	-0.9085653997370376	-0.8864904023676924	-0.3696601977552048	-0.46590641023307744	-0.9109536386378684	-0.27302774718016276	-0.4378120590123524	-0.9697611903502028
-56	0.3508891156397402	0.1839164341813084	-0.5797793254519389	-0.44509395844617683	-0.32114237465840123	-0.7066472154895994	-0.9591199135406743	-0.6804636103616148	0.1450093831931135	-0.37396728898044496	-0.5442724214163716	-0.8417198040691672	-0.5493881688552378	1.2288993566003914	-0.3728719940308177	-0.3941735615315103	-0.723652480205729	-0.5852795228486357	-0.36712545063788615	-0.4330692578349042	-0.5473585711011152	-0.5851159080991404	-0.7574360947559011	0.03907299031883065	-0.2520011657074472	-0.5401449189853863	-0.42687263977040996	-0.5709323272595537	-0.2643302672388192	-0.12304029582668603	-0.428867368807427	-0.1895551229697912	-0.1548219021226163	-0.5192894922497111
-52	0.2467175566881561	0.10006421034106257	-0.0858018694141847	-0.2964789263869302	-0.1435365226221098	-0.4122928370556793	-0.5301812277759536	-0.27502015163603943	0.1713252510275207	-0.38120630287246177	-0.31477257529894936	-0.46696573377967354	-0.35819989352388537	0.6955442411028063	-0.6235280021183701	-0.2269372189275803	-0.32396945275528266	-0.2949064664547583	-0.25862124496967903	-0.48667639371068283	-0.22248677853201726	-0.15578439792401924	-0.5260834084579914	0.17703673198825165	-0.2585958831933911	-0.20970652944547935	0.09281514561584586	-0.14821878038178027	0.036670051422519404	0.31232494036975	0.17946605339039	0.15535421630260016	0.33102741753925136	0.1331345882630725
-48	-0.056875526761462916	-0.1356647160204327	0.4602605390849173	-0.04031692807628152	-0.03586970260623794	-0.1746023143889979	-0.1417138721941249	0.1055314910727653	0.12138413607229963	-0.3903354396501789	-0.167445227081018	-0.19985189983454904	-0.2788115136736626	0.10251837942942892	-0.8991266466328165	-0.14787952564573648	-0.06623148901430012	-0.09656050031839918	-0.0589377692343885	-0.5526379928941214	-0.01399554494960136	0.09781908219197633	-0.3850094666297207	0.3080395452351533	-0.2509209805352324	-0.021505124812667212	0.4328751553096832	0.16887904660979236	0.3704471876805097	0.6699950082075646	0.6968507153083395	0.61608570658586	0.840236304069098	0.7444299440662349
-44	-0.4046671082293361	-0.3857453157699374	0.8288360217149159	0.2225323760851553	-0.0594203694154649	-0.094574339449047	0.05531178028327713	0.318410991818465	0.011551447183531474	-0.4407356966335262	-0.17945273175231632	-0.1572470511996309	-0.36058822183168293	-0.36780160572651105	-1.1510519952323008	-0.18446302367367992	-0.045281380300638274	-0.08757966734708938	0.1451673653036918	-0.639041243370249	0.023915601833878364	0.07222912442329465	-0.4271127272789591	0.35648900180457216	-0.26916053823225444	-0.04588636371829075	0.46955707550706355	0.23442926943719097	0.5677451477021709	0.8174976089818543	0.9545919871070988	1.0010725234506233	1.1815459698409798	1.1046951981310178
-40	-0.6304830296810715	-0.5215653763954238	0.8495101311216421	0.39434909720993067	-0.20010860213778733	-0.18809814703658007	0.03009478553981978	0.3165758542174312	-0.10716588768128303	-0.5382561074018677	-0.3499468854175097	-0.3375280192913326	-0.5470886812702537	-0.5554869756979025	-1.3035837378968167	-0.31146171610396983	-0.23261472524087506	-0.26930040053086673	0.28642567919894857	-0.7200590353905828	-0.07644019256604409	-0.18880996060385183	-0.6319526417989432	0.3056173614892088	-0.323272048610849	-0.25588247115380935	0.2363089764112431	0.04644738871053237	0.539962528772834	0.7219737153898685	0.9084081030798726	1.165125843921133	1.239109989852505	1.129837867745273
-36	-0.6430371387459026	-0.4939021753715929	0.4952860462081716	0.41557535424213965	-0.3822683682327106	-0.3903446783700958	-0.13605685497741996	0.15572549363396868	-0.17867521896550678	-0.6554828865668055	-0.6062498077345031	-0.6345663650703898	-0.7093245369168608	-0.38927072188324424	-1.2934795585400032	-0.4718436288841641	-0.5016232120246914	-0.5370082245620007	0.3446246674896628	-0.7508065085528516	-0.2231574052898532	-0.5212481604767301	-0.8760631062323672	0.20210914262765528	-0.39211243292038117	-0.5474883900171083	-0.10201404963009644	-0.26210927897080605	0.3127526632995783	0.45540773753581393	0.645473717013524	1.065885660341429	1.0155141327967911	0.882589516795571
-32	-0.4737166154345347	-0.35948106555777537	-0.10551094237153086	0.276511698263133	-0.5200438486320839	-0.6069571360522669	-0.32323476590563616	-0.05894003048559396	-0.18051600410661883	-0.7552645783429266	-0.851563987966127	-0.9114663577909318	-0.731458662093674	0.06921510380912775	-1.1159509392219844	-0.6169695242563581	-0.70953601419599	-0.7347047310399464	0.33769017372703464	-0.7016558629440655	-0.32638481176941764	-0.7373173814277897	-1.005397317255317	0.11616893083329619	-0.44481503851165455	-0.8007262328912329	-0.3460357776488351	-0.5076756464538379	-0.004646096832495855	0.14719536863357066	0.3257459095836833	0.7615530471647878	0.6143851264700669	0.5189995752582556
-28	-0.2588263743541556	-0.24736554858219573	-0.7320669274920713	0.012233700572359564	-0.5692131504946376	-0.7734253983043992	-0.45719674114190806	-0.245516493296642	-0.1462910916688051	-0.8168282488227167	-1.0208791468594787	-1.0829818221406116	-0.5905622228970963	0.6289846881244907	-0.8434665181799	-0.7371943574412839	-0.7829207162163694	-0.7446498852049007	0.2909236244962776	-0.5856432899947815	-0.3532104781293017	-0.7327865939712723	-0.9254020429135233	0.08740504063949957	-0.4656723129913131	-0.9421871876770532	-0.3718671789317311	-0.5621071443671013	-0.2878445975665667	-0.08424924292751175	0.09501671767087246	0.3626830568693475	0.17930927827386536	0.1971729988842051
-24	-0.16354791778757405	-0.2825794808882705	-1.1742790907776008	-0.31365108410800946	-0.5453092442096218	-0.8836293198210524	-0.5491458163701929	-0.3879625489453392	-0.1515122648228516	-0.8439567663819398	-1.1096612187025863	-1.1547868222644972	-0.37470590973663676	1.034608003865222	-0.5977808221983291	-0.8604488947124936	-0.7535414676714652	-0.5547322020830173	0.21380214339159034	-0.45643272880710606	-0.34043162975191243	-0.5408205376322095	-0.6539998634038933	0.09653044467634707	-0.46197885158248636	-0.9716816520000172	-0.19093237769081653	-0.4167083491294921	-0.45844852808599795	-0.1806455697028722	0.019601466084701615	-0.025369327451312297	-0.17293995575157048	0.0032522766768776634
-20	-0.2897907488182144	-0.5112174736467389	-1.323032375810055	-0.6265447123921257	-0.4988629805367567	-0.9727908944364867	-0.6664780957561168	-0.5247162567242301	-0.2673787765904822	-0.8513200857603219	-1.1588482827492381	-1.1972584694198398	-0.22777335288237843	1.0749989720859983	-0.4876507508363661	-1.020171162890624	-0.7237254362907499	-0.2641717486864393	0.09859384571455256	-0.3750839521951702	-0.3592967381942728	-0.3029134563904447	-0.3077601782657964	0.08233059921935842	-0.44978687053607397	-0.942307827477774	0.07025267911101633	-0.17124378637947962	-0.505372940218044	-0.15281759163897582	0.07254251074357125	-0.3369043162899776	-0.39163425465887786	-0.07029208523169397
-16	-0.6185548885940912	-0.8694655873281258	-1.2045525282011678	-0.8561214783034363	-0.4684384155367433	-1.0726145478824238	-0.8600044824821703	-0.6991429311266795	-0.5089644776845622	-0.843075928943673	-1.2110147445621107	-1.2769842115586396	-0.25351324613461407	0.6856789571616493	-0.548073826836614	-1.217060205247836	-0.7877655605454155	-0.023389859065964403	-0.05898792281755007	-0.36738976743447527	-0.45915293577617505	-0.18012833549797846	-0.033920712683389954	-0.006644458027544701	-0.4305963505363839	-0.9136314965069313	0.2509189539773151	0.035410016685729524	-0.4632462251411457	-0.054716802995341055	0.1683024461788522	-0.5462763891733055	-0.4912606763357511	-0.09302356070635742
-12	-1.0176656220491715	-1.2138644426216272	-0.9460498070673254	-0.9496753787859245	-0.4456259597017764	-1.1729106873463024	-1.1002790900107586	-0.9064547992708699	-0.8075788596744689	-0.8017580488943347	-1.269685503615031	-1.3948591912338733	-0.43728208431467	-0.0031034930065149667	-0.7182976585372723	-1.4029329979761842	-0.961220500426545	0.0592346413428137	-0.23576709568579693	-0.4010678221590167	-0.6286880954128372	-0.2594136887199671	0.07195325177622887	-0.16477149683359524	-0.37975823783362206	-0.9113393998978807	0.24709328946671033	0.10860440852640219	-0.37199872638241827	0.05537838102306488	0.2192896300978209	-0.645813761511109	-0.5191767202620807	-0.1380349245162643
-8	-1.3105655875495994	-1.395547148042134	-0.6945810300456678	-0.880278406304885	-0.3784530153256259	-1.2188447683079056	-1.2715843883834912	-1.0747036906765266	-1.0288770172845374	-0.6992716175544247	-1.2904072967374571	-1.474899884314871	-0.6397764666616972	-0.7079226356752831	-0.8744114615298111	-1.5007470808285925	-1.1645442217988833	-0.016866827341052784	-0.37630161548021235	-0.39987024563921314	-0.800031481153485	-0.5100971447463692	0.01385656927007782	-0.3183171145031808	-0.2575958364658745	-0.9186097360306479	0.06107403695064793	0.04468834016365251	-0.24817979273125537	0.14239059352687375	0.18005746557551944	-0.6254026277964679	-0.5160251842821836	-0.235033705237171
-4	-1.3657765354006226	-1.3354088034292593	-0.5394229279250448	-0.6523867829064095	-0.21266639178942395	-1.1478422851192498	-1.233276602492355	-1.0960026951775004	-1.0313208077141585	-0.5241935239908696	-1.2118763893048081	-1.4132660591683575	-0.6723186356736218	-1.1090089054718113	-0.9004981495056356	-1.4513140880182183	-1.2722411123579682	-0.14782823584903673	-0.41363471642011973	-0.29080110714925117	-0.893507061132936	-0.8126023391234557	-0.11832407087015998	-0.3620421579280182	-0.04017711048115265	-0.9016591883782841	-0.2145448619671001	-0.08293497541469379	-0.08703304805239555	0.19839276323297025	0.05822363108597638	-0.47293719529909717	-0.49348786348680523	-0.3605352631049337
0	-1.160130855492277	-1.0608638498224918	-0.4827795314520736	-0.30508252901298955	0.056198786802262625	-0.9416058635780266	-0.9124248600811449	-0.8917366243736425	-0.7415266614312004	-0.30698093694429274	-1.0069303487150694	-1.156362411440512	-0.41333719983647454	-0.9969040726287806	-0.7589027266415415	-1.2584193913158994	-1.1959416836107866	-0.1959480638325187	-0.30861875336929584	-0.05837750792665614	-0.8734124876858977	-1.0359567377637942	-0.21015280432094716	-0.2260275775447985	0.24855562981793772	-0.8484342672861626	-0.46071389201193436	-0.18172085239306662	0.10942021729738324	0.22721062543247472	-0.10577341142413663	-0.19617454658093217	-0.4397761512620322	-0.4651259768186813
4	-0.7848113755438714	-0.6876406056208995	-0.46601077796581564	0.09258798486459978	0.3583708992493142	-0.6546653492611303	-0.3667589714804099	-0.4687419223871733	-0.205862402396202	-0.12138105898252086	-0.7160814386408292	-0.7524850945547781	0.10693282607021909	-0.37627708816894917	-0.5163403736429601	-0.9986863111077099	-0.9439488029489422	-0.07817884514859136	-0.08104386160177658	0.23135593475104171	-0.7743650059222662	-1.1097757788295552	-0.1881497050541806	0.07222956400754876	0.5294221030220108	-0.7874861339714139	-0.5968022331428774	-0.19657258639773725	0.3067087821369354	0.22979085089364215	-0.2667314105452111	0.15606148501571926	-0.34125909123091763	-0.5107555972555405
8	-0.39769163627352827	-0.3626456847571677	-0.4315796483587609	0.45052116995553043	0.5712733850360974	-0.3999166478550536	0.22302690092044697	0.06265474095022949	0.4099851836343815	-0.058121424021605826	-0.44230544455436765	-0.3431181898990907	0.7021750193987483	0.5256810175021287	-0.3129601172651953	-0.7897852043238857	-0.6225103720206892	0.1769004161659945	0.18840847861881962	0.4522779274488825	-0.6839832050220708	-1.0520696613452443	-0.05535107091995581	0.4231891621395579	0.6929373127608469	-0.775851426549922	-0.6130387171526349	-0.13389413024952765	0.43502947578268336	0.19861055860442964	-0.39538374443365204	0.4911674248692354	-0.20665900357045267	-0.49629419916735723
12	-0.15082611105509086	-0.20055127093225536	-0.37573778534438307	0.6744980198996868	0.5794236049328174	-0.2960732571756131	0.6324740036254772	0.5239183293466364	0.87790673749526	-0.1820299173766079	-0.3052673332136491	-0.09488062536603264	1.1145279379362096	1.347942587310273	-0.28952303455688166	-0.7322068195930059	-0.37702733183084286	0.4414564061940082	0.3891188790510623	0.4781293558923725	-0.6915574056331358	-0.9407705044836084	0.12175939946427744	0.6738708002242989	0.6481030567018624	-0.8628622271687113	-0.5566863403570448	-0.04369818035656303	0.41672822727847453	0.12415387450105195	-0.48190489289684774	0.6991413814059192	-0.07549229990257425	-0.4561929691241024
16	-0.13156323101682615	-0.24649964210740744	-0.3561186483451953	0.6872921568684224	0.33456867848802846	-0.41010281340054877	0.6972370130101536	0.7390496712145233	0.998372135025892	-0.5000994788895003	-0.38399824403133687	-0.11480986297946204	1.1415433854845791	1.744730348950387	-0.5165733085941542	-0.8608302452288037	-0.3136205069253169	0.5599801526236616	0.42804863940885934	0.24601563749189206	-0.8380129912199444	-0.8573930837918641	0.2574002736268602	0.7018222791118581	0.366728453902362	-1.057375547600464	-0.4918841707208499	0.019910976240432438	0.2072160387767947	0.0046105580287995425	-0.5292156325330302	0.6968122703125565	-0.005069893772020782	-0.43685343751285005
20	-0.34257426771456617	-0.47771713017014666	-0.4499566841686103	0.45273122077125494	-0.11899381100890713	-0.7286959868153098	0.38334560297501646	0.6068798288281884	0.6836771947765665	-0.9572013592394878	-0.6811959726301211	-0.39963740009498594	0.7352368217025128	1.5350615939484387	-0.96169483418847	-1.134403821942119	-0.4498374152747159	0.4369772661620583	0.2688463919527589	-0.21093374437482265	-1.0980896922043968	-0.8432046153714182	0.2904807321843923	0.4732212710353795	-0.10070130203571642	-1.3218896355633063	-0.4644565868572213	0.028118697855409203	-0.1770009393991544	-0.15124008021317198	-0.5472192154419822	0.4655956912206478	-0.04333498690512177	-0.46902030587989396
24	-0.7186378222441466	-0.8310418704031942	-0.690695164843992	-0.002250403160135539	-0.6659656150216319	-1.1700569361709512	-0.20755732007075575	0.14363932573292662	-0.0022702997027387465	-1.4595104419098779	-1.1246328325487587	-0.8440150001197384	0.02336716459752347	0.7799931744909726	-1.5070118866065376	-1.4640665017357164	-0.7189075928657189	0.0891483051314247	-0.05521299303539193	-0.7757813314878431	-1.4008371794618832	-0.8915497638127434	0.20476603456297152	0.05400381223633796	-0.6443456991139977	-1.5953611095203792	-0.4902811932106301	-0.019758339921418927	-0.6595020873585073	-0.3280984155000613	-0.5513173327831674	0.06297472103431771	-0.20037171194032283	-0.5517660365479037
28	-1.1606349915765142	-1.2319472997079304	-1.0244218085174044	-0.5804241284974911	-1.1772973507721167	-1.6259072977977498	-0.894527075416402	-0.5211799131586345	-0.8630349018241896	-1.9134629916518195	-1.603103156810708	-1.300289269979109	-0.7547055463809896	-0.24721512136032364	-2.0052668997681202	-1.7617129042969144	-1.0204892132743424	-0.3658929159940101	-0.4578531372908398	-1.2990419831856883	-1.6719365077721744	-0.9744065975383339	0.02166917914641668	-0.42772135030522396	-1.1397113771273881	-1.8281582547761288	-0.5667318091389029	-0.11234787078148867	-1.1331623764038716	-0.5094398843300905	-0.5612646327153282	-0.39801177281980865	-0.4331971694022692	-0.6536089165397986
32	-1.5682489832384279	-1.6107972819667582	-1.3221532073018376	-1.134454366680761	-1.5685741861795013	-2.0090482184231244	-1.5019277296293227	-1.1951618164405142	-1.6439125496367513	-2.2581202926844144	-2.015352005638654	-1.65384590208207	-1.3620758022251516	-1.1819879978855181	-2.3426525533657663	-1.9794977853388573	-1.2830885616332546	-0.7753860930893354	-0.8341073372762531	-1.6613067346590582	-1.8698207092760437	-1.0783988210154027	-0.22316077295227452	-0.842381356019859	-1.4944921694216553	-2.006020540894758	-0.6908768994054533	-0.24504718122602664	-1.5020948610528508	-0.6800337416645801	-0.5962916001523758	-0.7934894541733896	-0.6569251997574389	-0.7296516876872255
36	-1.8591507626324506	-1.9046537828041266	-1.449365969813298	-1.5145406684783984	-1.8245531274506361	-2.2768440189097245	-1.9202043961681854	-1.695621486197483	-2.128754371990524	-2.4745097097863993	-2.3022537173318995	-1.865799899158937	-1.6633670288051627	-1.7228871540439878	-2.4765174326359443	-2.1163780635806093	-1.4938002787068494	-1.0284075711034717	-1.095205542660287	-1.814254517743056	-1.9915701100611853	-1.2170566289691584	-0.4956068980101875	-1.108655688347764	-1.673405643052889	-2.145003790208165	-0.8625316598096215	-0.41843762888167213	-1.71171903178062	-0.8220763781772948	-0.6614253504266191	-1.0335683796536743	-0.7775714377798628	-0.7411634307268562
40	-1.977514738812187	-2.056738133006088	-1.3483942713072405	-1.626358028120403	-1.9786504457108698	-2.4225361286035327	-2.117008919139319	-1.9126265000691536	-2.216753000384682	-2.571110480492823	-2.4483773646527918	-1.9626494596520252	-1.661648269272759	-1.7470731691120134	-2.4326975284191863	-2.19229792995082	-1.6793215232411998	-1.0986272068896241	-1.1868634193972567	-1.7819992258857111	-2.048805470062249	-1.4089902603815454	-0.7607386689052777	-1.2050857513519821	-1.691406841776056	-2.2611072006358577	-1.067780611203344	-0.6153356417379002	-1.7515028670912471	-0.9087432599965984	-0.7307785730985039	-1.0843141051572676	-0.7305085640583532	-0.6660420281760411
44	-1.903237695657128	-2.028483862523834	-1.0818359824523425	-1.476610656824895	-2.0694632477963477	-2.453605168823553	-2.1135067886397385	-1.8419860554919494	-1.9506986091954428	-2.563474648679216	-2.4641678271068215	-1.9930994460329712	-1.4664078913858718	-1.3417512144545058	-2.2755412997968025	-2.216321701176176	-1.861277456352667	-1.038150903941726	-1.0902976962218722	-1.6311794478241117	-2.039374107933961	-1.6432031351564256	-0.9715036129265227	-1.1489336461623318	-1.5884436328837914	-2.3413753450407437	-1.26100945154343	-0.7797279338223918	-1.6384423929809453	-0.9068872905722681	-0.7442327719018156	-0.9638915037614763	-0.5100191222665552	-0.5008371459713781
48	-1.6646292167597396	-1.8240455342970103	-0.8150789121076204	-1.182698962086604	-2.1108305400960803	-2.383014434519966	-1.9582803199917305	-1.582689281282414	-1.4931449852438432	-2.468105548349321	-2.373166793553618	-1.9918732592837476	-1.225311037784683	-0.7466601114495202	-2.0757465310141265	-2.1791293566045504	-2.027651066429135	-0.9374511218244476	-0.8235533812710999	-1.4358850681291944	-1.944854373789971	-1.8667876673296608	-1.072091219102617	-0.9702774261772992	-1.40923106314583	-2.345305198470153	-1.3711501325321362	-0.8274912813275334	-1.4029772246224959	-0.7965985516463138	-0.6313183887754896	-0.7262870054981497	-0.1791848088747274	-0.2617981725281864
52	-1.346988555368407	-1.5125635824161905	-0.7391185741837096	-0.9331645345969585	-2.0977954811537707	-2.242866510450588	-1.7207953886455216	-1.3007416692318121	-1.0632290813304972	-2.3151397646626464	-2.2161195222216086	-1.9757628390973716	-1.063644644912822	-0.23497448802273613	-1.8943948697898667	-2.076838249685076	-2.1433947032218716	-0.8797520972928471	-0.44630843288273153	-1.2582610813797757	-1.7589476064141867	-2.010462994267941	-1.0234193776041027	-0.7034550887467127	-1.2000349729757571	-2.2389833870625644	-1.3369289602857728	-0.6905494910925287	-1.0881054373925683	-0.5954688176379737	-0.35296878129534764	-0.44346552975270215	0.15003733299044722	0.01606443706569291
56	-1.083327886707304	-1.2270053594127903	-0.9756550168200026	-0.91140228279796	-2.042672628967503	-2.1079859680360014	-1.5013740024807574	-1.1717438668231253	-0.8609643556792097	-2.1691505854200277	-2.066973442581076	-1.9710832784478705	-1.0561506721534222	-0.0034215543332736754	-1.7885798170708789	-1.9499301861169387	-2.194941753567802	-0.9166653729183389	-0.06620024127935552	-1.1528420419196759	-1.5288596114659283	-2.0421097227036658	-0.8385487177658331	-0.4039095629984759	-1.0223087046561623	-2.0421941228804545	-1.1561195821183101	-0.3736979653937073	-0.7625843267260879	-0.3714707782426532	0.06000582486142214	-0.19577580640955272	0.35921320228483106	0.28243693638065004
60	-1.0152218316195505	-1.123531577134669	-1.5143581590565571	-1.2134176462055188	-2.007490868268365	-2.0984849876827916	-1.4303481542714085	-1.3183625903222722	-1.0020838950606186	-2.133111948349762	-2.0360262342546696	-2.0401687570561005	-1.229595896477478	-0.11210460932561328	-1.820863361529776	-1.9000259589861597	-2.2296979371043184	-1.0686411830624385	0.17193977491360346	-1.1768687933772637	-1.3705782855716049	-2.008162970241155	-0.6011859759411051	-0.16535784262393155	-0.9606686210219632	-1.849002714257193	-0.9108881331334255	0.01898084948635111	-0.5264767991125158	-0.22464117351082322	0.5030247556384013	-0.06248627959806807	0.3770907511727237	0.48634686943287403
64	-1.237143394207751	-1.3168829646241036	-2.2177090588844655	-1.800509567483264	-2.1004733986274786	-2.343738073153675	-1.6345069367149414	-1.765982742619264	-1.4869503937372661	-2.3201782644820788	-2.2416558209089668	-2.2732267322367283	-1.577898617575332	-0.4885544764581689	-2.0522232003850407	-2.0592551179393084	-2.351280683303089	-1.3337237801257131	0.1244105246502262	-1.3864349091811679	-1.4321248495183876	-2.025358194959704	-0.4422683406630886	-0.11094523938301429	-1.1057311268545986	-1.7959443285421535	-0.7406747918502212	0.3197001210724124	-0.488615243393364	-0.23619608521432353	0.842591104764294	-0.10177957985930323	0.22455491068888983	0.6050195678694451
68	-1.7499130920098116	-1.823001141713893	-2.8854372428523005	-2.5132274564232655	-2.4259629188323077	-2.914897434504605	-2.172586673973364	-2.4301083026566808	-2.208599084999995	-2.799789421642149	-2.7535614897825447	-2.737222426179388	-2.06574296429744	-0.9897105072782902	-2.516154998148662	-2.5195717747971402	-2.6616449288879025	-1.6887065129559693	-0.29156249687968966	-1.812434907151947	-1.81546949881909	-2.2170753423028136	-0.4769664394734183	-0.34779482992100524	-1.5122941694224858	-1.9875777909642094	-0.7690286616936431	0.3846325268571128	-0.7173025589952595	-0.41117930308479683	0.9897375081823053	-0.32155147113678423	0.025802925163926446	0.6721819622234969
72	-2.44890522338559	-2.5406367714633165	-3.34217571368401	-3.141020528492415	-3.007352582968078	-3.758825054215323	-2.97406005108497	-3.1418104092429844	-2.9908564015216896	-3.5394186884210046	-3.532662621162061	-3.408203354813693	-2.619518273415649	-1.475022073836352	-3.1795222678971604	-3.256768218400986	-3.1788256088107847	-2.0801849312714755	-1.0385065052515583	-2.421293014135236	-2.495355122941777	-2.62387370400768	-0.7313872557294134	-0.8952587224291727	-2.1468861048854198	-2.416296237567041	-1.0187278960256767	0.19056017648745632	-1.1816532582013046	-0.6463373287094942	0.9649721955731704	-0.6485992653683647	-0.021775091011979702	0.7891979793650411
76	-3.159556142459289	-3.2872762597057963	-3.5065925032774423	-3.515927782718595	-3.7378404046101013	-4.684452521894818	-3.8317937754208655	-3.70892309206104	-3.6451625731943103	-4.384814728156702	-4.41228817779437	-4.13916252998541	-3.125525228238568	-1.855803842627473	-3.920554866429065	-4.103263367783566	-3.7886695766161695	-2.417884343718427	-1.9410701941120252	-3.0918872278352145	-3.2920966065259014	-3.147796384493374	-1.1067669363688901	-1.6361157852826569	-2.8628635334213786	-2.9321806356786206	-1.371921655052161	-0.12521530656195165	-1.725626821929527	-0.7543613295582808	0.907898423763685	-0.9243804789092972	0.2814323298978196	1.0982952090190634
80	-3.709000339680474	-3.8769481084214856	-3.4116823587111593	-3.587275972846075	-4.403666485158666	-5.427983270292241	-4.47527312102524	-3.9916708368610867	-4.029298772175632	-5.104012953269612	-5.149466978423407	-4.70223520999079	-3.454930535176675	-2.1055524296052557	-4.550858009292659	-4.801867949759994	-4.276329983404965	-2.593413584837148	-2.7289085319285276	-3.636896839496307	-3.9308736225065286	-3.5767583756741432	-1.4147901499314162	-2.331805938555505	-3.4316434773588824	-3.295175305630067	-1.6118333298996284	-0.31833118119931225	-2.104912037303406	-0.5459326491877536	1.0127798293292682	-0.9456859207118904	1.0480856868985158	1.7164887146527938
84	-4.003044595148411	-4.204971302860031	-3.1813971915984816	-3.4403383644981846	-4.780113208146218	-5.776247486789668	-4.702771174955258	-3.96486472082464	-4.0964651004362285	-5.483325467570729	-5.534227357243239	-4.900022017505343	-3.5235769659725977	-2.2408811989474215	-4.882521140169157	-5.126295553616186	-4.436404693846763	-2.537684672624334	-3.142527095489954	-3.871425857306278	-4.170319546660897	-3.6910440828593543	-1.4776407442933026	-2.711317055532512	-3.628730764764117	-3.2939767754359495	-1.5373138150502352	-0.1701038624521895	-2.084619993668725	0.06417781098374907	1.4138598406381107	-0.5465698824434385	2.2322723809149574	2.6544616155362877
88	-4.067525853377945	-4.2937359701469076	-2.97907351695366	-3.250350467104933	-4.7544708131914275	-5.684912190389408	-4.500331867299864	-3.7345015908367927	-3.9129629036339018	-5.434724794017897	-5.504179463794933	-4.687108504859304	-3.351898423315224	-2.2962176741800246	-4.818074691052083	-5.008538710346599	-4.202499379038146	-2.280209535563825	-3.0561082285969348	-3.7041511442123705	-3.9367687602785097	-3.3975155267767123	-1.2384439675534664	-2.6001567774928525	-3.3414997970139635	-2.872203104396944	-1.0916564437007417	0.37126803304396155	-1.5585911234605656	0.9817519759186839	2.080143208020238	0.30868357342032543	3.60934709591352	3.7626294994724416
92	-4.029108514149988	-4.2729830633999875	-2.9514095708717716	-3.1943483272011592	-4.403138149588711	-5.318030343934104	-4.0702891247027555	-3.494635573147108	-3.6330778507059	-5.0528182855827035	-5.194396005867344	-4.223481644457584	-3.0801582258659264	-2.302876943496097	-4.411865700073268	-4.595077503046982	-3.7128457929330945	-1.9688142488362896	-2.5472805435717865	-3.1997103610316153	-3.383121005099798	-2.8082430291800096	-0.8136525133571019	-2.020456785822909	-2.6408376627050845	-2.1850321237710437	-0.4251586188072539	1.1308367223798972	-0.6248753055054714	1.9398765514987668	2.789120190254291	1.474180337044959	4.83037279816825	4.748493659428442
96	-4.043280114456006	-4.3029918562014196	-3.185379735533739	-3.362805358025846	-3.967802037711755	-4.9746937626171075	-3.738804569341554	-3.438339939973201	-3.438080302141215	-4.581783283109844	-4.881364333226277	-3.813687791732448	-2.9159803316881505	-2.2863025607559613	-3.8614129922650293	-4.18732975856253	-3.2593026078904366	-1.8205699874689323	-1.8726221275734143	-2.5680823261272994	-2.8269996571691527	-2.206925863416085	-0.44582506901714586	-1.1970924108799148	-1.7688519910022176	-1.5423526724975354	0.156449570856872	1.7739547446285557	0.4324601579714823	2.597953789827516	3.2089319148108233	2.6519827775756273	5.540382371265785	5.2752823696462805
100	-4.208154667720158	-4.483002651340198	-3.6803154852454503	-3.7167594338991656	-3.733369341007498	-4.932552325192987	-3.7813296222584802	-3.6615385916771346	-3.4590032013346055	-4.300314892402026	-4.839364039600628	-3.750420799323212	-3.0266170425294248	-2.2685029449409155	-3.424237719473527	-4.086886872463585	-3.134195081427128	-2.012727970763687	-1.351120349333805	-2.0773241467480585	-2.5912530356787844	-1.9086853217572657	-0.3744065752113305	-0.45995470765334695	-1.041958448640365	-1.2596046892789103	0.34127482685709865	1.9747801969260856	1.2547293869764609	2.6907453469052514	3.056371442707598	3.4994673640589813	5.514145360376217	5.104656206594404
104	-4.503548610760981	-4.788446891139094	-4.335803020974536	-4.1063918963706385	-3.866766681445238	-5.285309778220817	-4.254736412750255	-4.103523244034131	-3.71112870233074	-4.376031387724776	-5.177720056812768	-4.1391525164051135	-3.427975645947244	-2.261761659633839	-3.2930362141437683	-4.42040966825238	-3.4522156628233	-2.565397732933394	-1.2070977657359405	-1.9256815861720569	-2.8252091336446203	-2.082091326225158	-0.6913417560288829	-0.08699308313817455	-0.7098911982733098	-1.4898276291425996	-0.01598293330210379	1.598139758843503	1.5646955927444697	2.1565439646632822	2.252794975315047	3.770520677583622	4.751631724758655	4.21632670291681
108	-4.788229930232659	-5.071195112776297	-4.9612340801864905	-4.341461647516646	-4.3060636411668085	-5.867274269549349	-4.93708370869595	-4.55942915718972	-4.072642316072547	-4.765011775384052	-5.751728520176767	-4.807594764015555	-3.942649592935781	-2.253185266528051	-3.490739098318689	-5.042989241265479	-4.05402945448624	-3.2877116120301366	-1.4550945722081974	-2.138269657458444	-3.4061741742920826	-2.635641568205264	-1.2692233292006094	-0.17060702996095178	-0.8403156378510938	-2.1298215335478883	-0.796336946861055	0.7860660533132255	1.2887083259470689	1.1753749817736743	0.9899988149443409	3.4203958424995844	3.4846100719211996	2.8373651432880016
112	-4.860659110195057	-5.126367079189736	-5.313688741619626	-4.27487515323896	-4.771490084999044	-6.317695124887976	-5.420247064257087	-4.762505042449708	-4.325706947849392	-5.217198358715048	-6.207836135449767	-5.362694726755907	-4.261032093734116	-2.1912889425266093	-3.847570886434499	-5.5836534359148375	-4.557777393277875	-3.834627618644912	-1.8925485563179656	-2.548085206274223	-3.983118524031727	-3.2404780306064214	-1.8119319631606021	-0.5813951477630754	-1.2920967307847053	-2.858441107208789	-1.656238194098735	-0.10676451745495952	0.5796679839757796	0.09148159600049174	-0.33873879823992054	2.617211573668665	2.0840966648889188	1.355679031764007
116	-4.5520229224672075	-4.789883124655975	-5.169490801157274	-3.859830846578106	-4.898232924492281	-6.255426867904075	-5.310173498098227	-4.498874176110917	-4.246778477437095	-5.390164361696319	-6.148797973367379	-5.37456129624499	-4.083941449344801	-1.993768925401398	-4.077678670124773	-5.618078694464397	-4.541324127175616	-3.8593938253237163	-2.209563964987183	-2.87464451064078	-4.145982255004813	-3.486380091447981	-2.007071966825941	-1.0516360971602428	-1.7907080605118557	-3.291904917988788	-2.1916739885308862	-0.7001368385757998	-0.2698146694046904	-0.7435832004846934	-1.3149418797672492	1.6524054962400645	0.9068607665054101	0.15150149128333565
120	-3.806853284761178	-4.018490781175087	-4.4150881655802685	-3.15787314571366	-4.418893326093123	-5.471729741586822	-4.427953708913265	-3.7024106885893233	-3.7090954686932953	-5.013364779212588	-5.3355350359675455	-4.593317020263341	-3.274468652087376	-1.5832291801534264	-3.916929950361557	-4.880897509649575	-3.7598726654492505	-3.1878180423360547	-2.1547555869059565	-2.8594014572429858	-3.63166045225672	-3.08900069410532	-1.6976290898377389	-1.3281463351095824	-2.0641479440072774	-3.172773830032729	-2.1393170302737925	-0.7948823551136289	-0.973536429331455	-1.1255722017480472	-1.6870301919305386	0.7991766313402747	0.15409414431290738	-0.5679006562199973
124	-2.71297001153725	-2.913378469740984	-3.1159050385961087	-2.295969242021228	-3.2965469277121753	-4.035456170383962	-2.89820050461512	-2.481735938482144	-2.746720307091077	-4.018024434435541	-3.815069427394853	-3.0788106840602465	-1.9322210501524335	-0.9331192350670435	-3.2513518251346314	-3.4029548082266023	-2.2764718475086867	-1.9166134547481133	-1.6679911571351627	-2.385414355931143	-2.454176419737638	-2.0329620786837923	-0.9738594269006774	-1.306252357045963	-1.9662591169305095	-2.4890975889304765	-1.5027027092187357	-0.47826909898169556	-1.3763880694924835	-1.069148776216064	-1.4745074473346607	0.19580262849963392	-0.18871323716678676	-0.8431497194937186
128	-1.4678630791797442	-1.678447838360288	-1.5211880168655463	-1.40070581082513	-1.7349315837926313	-2.254324907333279	-1.0776925059765978	-1.0697640153578825	-1.5460869034832856	-2.563885682308549	-1.9026718091610593	-1.1709642380714316	-0.3496027580017678	-0.10329414878038319	-2.1665334646838375	-1.497464057002653	-0.43107005844954027	-0.38027295374228043	-0.9036161876752534	-1.5165630540705215	-0.8880228973856432	-0.5713917002556779	-0.12857902017555228	-1.0658873292714786	-1.5214209518167403	-1.4591591321344588	-0.5322515355023549	-0.0654612181918125	-1.4910153112913953	-0.7606080155242599	-0.9273109412622805	-0.18248783005893873	-0.30097225232430086	-0.9054360962895857
132	-0.2959765188373869	-0.5325114713575642	0.0168227385304818	-0.5427067862160092	-0.061995290063260725	-0.5131084906021086	0.6346091016005858	0.2812677316716879	-0.3618103852673943	-0.9479919648077832	-0.02258715586622025	0.6859703046645759	1.1314514846845583	0.7739452700148176	-0.8875280000213227	0.4015548815125691	1.3389455046227223	1.00758969529391	-0.12895525959358584	-0.43499714026297437	0.6881914717465228	0.9211848950970223	0.5066394793116786	-0.7895960191818462	-0.8691958167065535	-0.3894536783399204	0.43293556461701055	0.09412529295760413	-1.4306048118711634	-0.41811311139401186	-0.3600251963585561	-0.4488617468468508	-0.3896280815300929	-1.013649699512924
136	0.6429811103799552	0.3804677119185923	1.1832275360751376	0.2807521514956825	1.437628146356605	0.9164928770767945	1.9946569153970197	1.4025495016926675	0.6012048706134513	0.5468004928134922	1.5022931061008733	2.1648318712890857	2.2812542857748106	1.5512500962192732	0.34962361962738653	1.9562092970095937	2.722917788306568	1.9543005178701258	0.4381578553581437	0.6770226938320638	1.9944238612365364	2.1541624014826493	0.7471291403980735	-0.6228208526145402	-0.15400844773509792	0.5057368265734791	1.1660156220560935	-0.16983719127213767	-1.2922934261119676	-0.14591968022698618	0.04017019634237616	-0.6838387829681447	-0.5465040789157726	-1.2824673620269738
140	1.307965990578929	1.0360058519909652	1.8347545815874775	1.1181251974486117	2.6426467828787397	1.9843192050425658	3.0035579128726777	2.2564372959387855	1.2757152286745754	1.7758225157725216	2.5931086474752467	3.197506419691965	3.0699167174078967	2.1357452815492897	1.4180763924081656	3.074887744769614	3.6773230936667014	2.415117496114939	0.7540555577313551	1.7359142259639175	2.9811222477987074	3.0640993040925064	0.6554149968765778	-0.5651106224097502	0.5684114084197881	1.2160875766568469	1.677189465102967	-0.7420569043497836	-1.0707195970205088	0.13110645082274322	0.31999260106358685	-0.8482930638830462	-0.6824570280964501	-1.6023987491205307
144	1.7688933566255873	1.5102581939713884	2.056729073100105	2.0079612681237444	3.6022703556664943	2.831743710044138	3.8441729448537223	2.9100863860090613	1.7432765916679855	2.7620294024351155	3.4112038526241104	3.9595179457832073	3.632776251204098	2.533845895091912	2.342016691016908	3.9139604469663443	4.402793396324201	2.5780472690342693	0.9626868342889623	2.775723450328398	3.8164489172900518	3.8127341174184495	0.4954102324852476	-0.4645164299204247	1.3487462963383954	1.9135812472667553	2.1878149454192912	-1.287846561995082	-0.658201990849949	0.6143586620078535	0.7189140301673385	-0.7890232185470009	-0.5773805365290097	-1.7007759766553554
148	2.1458549445334087	1.9130500506738581	2.1050851291913966	2.926787130595802	4.437643039943489	3.650680055937948	4.712000834966134	3.45428299031747	2.162899965547503	3.6214775947690017	4.213872422069735	4.7125873446692434	4.138635148089769	2.8378822731847673	3.2351562895157313	4.7343578219092	5.175517069147431	2.7220449378906806	1.2865827051104555	3.8761222264655633	4.738855826811174	4.6430506589012035	0.5659030065553936	-0.1249436434929125	2.2744221629893255	2.8107116151417944	2.967548601287567	-1.4541460238936366	0.06567508710730723	1.4889639578419847	1.502181764624714	-0.34018295917453734	-0.022468790355220914	-1.3140362467968183
152	2.5292994912185027	2.3120851458349096	2.257199520134249	3.7742977047042126	5.213175283621445	4.524645317098098	5.651308999098515	3.9223534961852664	2.656928770986602	4.44126271080227	5.160944448792377	5.606425271184492	4.65048645752745	3.1584517876036786	4.18174265759397	5.704734787843023	6.140141471619215	3.031123868918803	1.8637614203127653	5.054012762660987	5.869874462566466	5.686514363236926	1.0120397780616055	0.5459356294199849	3.3656561289689657	3.9902267355311145	4.135662545253036	-1.0851858826895513	1.1185167999637973	2.7803795267479168	2.7705008913663636	0.5461427555600564	1.0306944821084398	-0.3684495678182284
156	2.9247052595683436	2.6903798512244115	2.6521894864831865	4.404405105914858	5.866393074483215	5.353983388734688	6.502211077486083	4.261640537946446	3.222500554531815	5.1921996939222055	6.191923125846389	6.563358767151036	5.072022902080848	3.543991556756627	5.140762316122386	6.7732629604992525	7.193424683529022	3.4804518134935876	2.6376924448175174	6.196125968548181	7.104911309423884	6.844660741691061	1.7285995439755495	1.4460611306874256	4.511326778465952	5.315531717231428	5.551307664206952	-0.3217890850525814	2.3563480317705197	4.301017750371443	4.364376057096244	1.7290366844392284	2.4069611965444673	0.9429116821324689
160	3.2507748521746627	2.9586124345468234	3.2064504542457994	4.690220820983038	6.243526919814002	5.911074146605514	6.992307645309987	4.371063698223158	3.7215771581149073	5.734670624559435	7.048228722897072	7.315208416589468	5.211794363214775	3.942116727412835	5.940040573381745	7.684741000800531	8.030551890125196	3.8588986299361725	3.3710517798189907	7.085148793452051	8.149747827934608	7.82137058190699	2.4125466285829775	2.306940072910888	5.494180665449816	6.480061514706312	6.863216382818528	0.47480812548922824	3.518146029172955	5.723959908338918	5.922991737670395	2.920816175715858	3.7731041813002437	2.238062614512399
164	3.39017604925618	3.0134999675961116	3.6550733950839605	4.588942993022187	6.215982898277099	5.98903654493773	6.9134363953565305	4.178431500375767	3.9585769076538693	5.91507433351558	7.427919369063689	7.569566707573252	4.924025999988683	4.229299534610131	6.3737096625578324	8.133688906161186	8.328332879973958	3.9122593304087494	3.7804901504435833	7.5160989571589285	8.68548677158932	8.292551973387049	2.738095753432432	2.837689869391918	6.102698787540165	7.172876339922455	7.697052936194251	0.9333978867806649	4.359191406688192	6.748472196706863	7.0704731762710855	3.830635776385093	4.804213034898116	3.143685332944305
168	3.2605922139815413	2.8043651510007135	3.699762573437928	4.169760216675737	5.791584477107391	5.545531258887063	6.26978634204995	3.7069222833502713	3.8000290297887838	5.684321865989043	7.176021080972864	7.200405579507491	4.23497103575548	4.295317162159517	6.340777381146838	7.956863860068321	7.952396372744395	3.520175924950301	3.7125480081285485	7.431249599768171	8.561009385428987	8.110279062775467	2.5499484474651974	2.899494640659216	6.261871798918077	7.260609131601585	7.86996219555384	0.8917814470664004	4.793431269941206	7.260955792214724	7.620367507768478	4.326443661256955	5.356644616907901	3.4992170245515566
172	2.8652696537155964	2.3676972329442583	3.177893869006008	3.5865461735772874	5.138355242153853	4.746823298867474	5.300782667128285	3.0815322321338194	3.263577691421513	5.153943525653315	6.391025527077102	6.342915042121665	3.3656549368760733	4.1282806292255305	5.931035026834658	7.243599873374266	7.059179288207559	2.790619604694475	3.2531299508930815	6.982510549082281	7.893064478973295	7.413775902149935	1.9590046356332125	2.600541346659972	6.096374973164041	6.872810346417353	7.502358894479995	0.4925132679425434	4.952360617531892	7.394198875832175	7.6766981884734244	4.5134291534911615	5.543988213847014	3.446475735545922
176	2.294761413502549	1.8109893753105037	2.1615137999321066	3.00927972033809	4.501847732621965	3.8846964738041447	4.362892139863662	2.4710414347249654	2.5245492394604763	4.550083625749692	5.383544431445698	5.335706220506908	2.629695647276062	3.839015474163619	5.399060235697297	6.298204406095633	6.03075550464075	2.0169999548532433	2.699495070317609	6.475804312568623	7.014235478811754	6.577422602259571	1.2902718749848694	2.252985948596425	5.881946548870216	6.338421805591262	6.960735303470755	0.10370862457794361	5.119880663343075	7.449902515675667	7.573707561444633	4.6791491390346724	5.670649991023561	3.3515212451240375
180	1.6786323743400466	1.2549729315543983	0.9292705035589689	2.550146334885352	4.063287247889379	3.214008800021394	3.738093605140468	1.9983646819205565	1.831034536507148	4.0876932040960705	4.508131969514057	4.541119564035264	2.262584442148241	3.6060027985129057	5.0306672922914615	5.473289952764524	5.275713430436207	1.5202736816170002	2.4058685241992035	6.2180480800040625	6.294947608313328	6.0174903717701875	0.908826587289784	2.209139579917454	5.902771458027843	6.005226120092168	6.658363802311562	0.10834905477824852	5.572080121277309	7.724575976896246	7.685305099157261	5.128483759329655	6.055234893769619	3.597584238506084
184	1.116966721575682	0.7695723156572669	-0.16907770889032717	2.2222096863908027	3.8291253946902977	2.8113262582371665	3.4845437915563764	1.6753008323333825	1.3764327729759522	3.8412372968966566	3.968641986363809	4.151106823931084	2.287080758996184	3.5687649159927863	4.975030409649949	4.973470198472247	5.012027727824362	1.4724138937968556	2.592183821809247	6.349140628043447	5.942696556346231	5.9671120492960625	1.0267584297959897	2.667877428948461	6.2924837907231135	6.046105369561712	6.828163129733202	0.6875730735585395	6.411509497667475	8.33711049836	8.214197138074622	6.000058635821767	6.841638070952842	4.365953911248755
188	0.6318569167396756	0.3412988773312048	-0.8804595448199	1.951888317902156	3.627984037776256	2.5425472195328336	3.418448677968978	1.4047681057748957	1.2014697759811679	3.6972627546423595	3.7136113549886565	4.093407620585549	2.4976782735706777	3.734033575167198	5.146171079994228	4.747866141729832	5.15795515665515	1.8039433910601048	3.224302998985272	6.758020383938615	5.896805271519469	6.3499603111163285	1.6000376899376492	3.5608818441132755	6.951288205716286	6.36550424876019	7.398899059688716	1.7230015949616677	7.494210701141193	9.15754697394973	9.08174131007862	7.173034649858579	7.90714738756811	5.530409322127147
192	0.16793632464924374	-0.1075225469735573	-1.1560856074708739	1.63587057177467	3.221998206586916	2.158502334867078	3.2358400739988684	1.0507413122351337	1.184045192590102	3.42491578191078	3.4831726463114254	4.091177930039421	2.5804936820682536	3.9593939681223875	5.262459264820257	4.535433757775205	5.39241264889157	2.2488453331436227	4.0336327450955975	7.138013821699928	5.8802747577977765	6.826641542365217	2.3662261903149155	4.585156905995613	7.592863063715606	6.66194580303494	8.044801691724961	2.867265932473374	8.496759393220596	9.879142736288031	9.979516957836369	8.322244623153392	8.922584511164047	6.724463445851952
196	-0.3614370217734639	-0.662113426444169	-1.1467695207252908	1.2077019184138584	2.4632451472080277	1.4577637874037899	2.6988181999732483	0.533085464085302	1.1190838785527586	2.823564283871552	2.976649276847476	3.8374812506109737	2.2997488917461824	4.033207883188711	5.0076641910006625	4.0347027676759035	5.347677694170531	2.5021326478727857	4.667079913753866	7.155071240480104	5.5769343235355615	6.988530141352239	2.998675815640741	5.365910993379868	7.899865130506418	6.611068232057437	8.379054048363965	3.7388420010583783	9.09036347955148	10.193956349384804	10.550886127536378	9.094393707202437	9.533079123270156	7.5431580353071634
200	-1.0108343337287113	-1.3556563819990495	-1.099307653512662	0.6749352199680105	1.3959240878147419	0.41606736078119594	1.7755633547776926	-0.1090769243466661	0.8400990941771714	1.8566491556975433	2.0392875619899655	3.1785793224191945	1.639855261477134	3.807664623183812	4.2218236816626975	3.0949981134474776	4.820419299353048	2.3957323967528708	4.875303732960817	6.633801920354531	4.828117835252801	6.58787868743825	3.2844583905265092	5.651591286695459	7.6991491123364195	6.06161640544174	8.177099207260083	4.126092900349218	9.12220952591883	9.971067403414342	10.594978305769782	9.303683257455281	9.556274389935226	7.76298902458979
204	-1.7578095153297189	-2.1390569156046495	-1.220281717080523	0.10734046968538938	0.24352881250885186	-0.7923067192100975	0.6558740718494788	-0.729762373512294	0.3137568525498964	0.6924521309536003	0.7613291125149321	2.201402658626563	0.8204950073507515	3.3026218330923456	3.0132779998995285	1.8196265651538093	3.8837118050749413	1.9897296378444576	4.633877265674852	5.660487160696436	3.7379493619004758	5.67716692444827	3.226153603991586	5.437748418430429	7.062280160239525	5.1351156105092	7.5052566338830795	4.086361874753729	8.704362847286292	9.339901900552315	10.179827664422918	9.037999130318452	9.089142776429561	7.459349136592979
208	-2.501038068178894	-2.8950753138881473	-1.581570621312094	-0.40825909273068894	-0.7089338284713446	-1.8877181959175635	-0.3576554050952369	-1.1532963485210068	-0.3430590918939451	-0.3729396751047893	-0.5629952535720123	1.1820632189470348	0.17886285438678598	2.7125284603298687	1.7257416204750746	0.525458811386967	2.8445508408254017	1.5352628192286923	4.140501011885107	4.5490922813002905	2.6322092943491833	4.586124408587165	3.021908037185479	4.9594783657744195	6.278448089006841	4.177430619183226	6.688700182239852	3.8951966664198463	8.164738634476349	8.637141205915484	9.608335470736401	8.620382287195588	8.468770005779056	6.963320714536004
212	-3.1030118387080066	-3.488512030376924	-2.1092424339446945	-0.8156832435994723	-1.2633233038477687	-2.632992499379555	-1.0130523417644932	-1.2691234318162181	-0.9282662845063285	-1.0649155351455142	-1.5875804384203336	0.43161085139022204	-0.011624332488036864	2.312240117910934	0.7759623507935689	-0.41505089297408515	2.0778851456632683	1.3356814350737736	3.697518100939933	3.6898460295023936	1.8966416072643577	3.7537295723556294	2.9425127431964797	4.55930994790047	5.7137117241606905	3.5902945904684587	6.141422256222915	3.8833429715340024	7.885394553302962	8.24630735222695	9.261169410211545	8.445239045755457	8.108342150243736	6.686535818384233
216	-3.4507203014989503	-3.8223068617637876	-2.6500294141619802	-1.109321353018935	-1.396815534879752	-2.945365183069649	-1.2283378808480248	-1.0901114913120642	-1.2604413000708654	-1.2636419502779335	-2.0852215237422795	0.13481135632333796	0.3177348367298401	2.3078079165366265	0.4498773503866145	-0.755798278330898	1.8367743445752371	1.5843702514701254	3.5527877717917917	3.3646242533612196	1.7886508658072717	3.5123901278508174	3.183686486789235	4.511241424614849	5.63381765850547	3.63793562924283	6.158486350723289	4.262026776043616	8.117491701612238	8.41832158824285	9.408515906421561	8.781374909164608	8.299012163190074	6.9155769173543
220	-3.5024237544323764	-3.8713812730320982	-3.0632247847465695	-1.314200278778826	-1.2437247006486543	-2.912097208300127	-1.102864739494587	-0.7388409953536915	-1.264201995518829	-1.046670434216542	-2.0431399293813626	0.27283030679484277	1.0087370847029395	2.7178313663528573	0.7692563514361103	-0.484108148783085	2.1415669863990936	2.2700390758421887	3.787878980609865	3.626664152525682	2.3232665003293844	3.9393095870695802	3.773911228188465	4.896120535886775	6.083779796499063	4.330063808952894	6.782537920040045	5.028974997221272	8.869315125007034	9.16406819890885	10.090245221411786	9.646824812375066	9.080364204369205	7.684566478401069
224	-3.3049154198175117	-3.687740793454242	-3.2844788945242605	-1.4515074454853814	-0.9968318317994952	-2.7171578338685958	-0.8342703559793021	-0.37889176511470984	-0.9967904065714809	-0.6270525439643299	-1.6443066555470112	0.6579689962941102	1.7714871123410847	3.3585755740246843	1.494028683705052	0.19194723617252246	2.793288939099357	3.1909148612521863	4.300264347663384	4.295914639117237	3.2809181130543688	4.840601432023041	4.574271190538478	5.578965649824378	6.876817209047617	5.429668889642234	7.8027963441304	5.991870388161776	9.913784955744024	10.261273358187013	11.114505739760837	10.810852023486472	10.235341999915082	8.779969193225774
228	-2.973924867750961	-3.377805939729306	-3.335254422350166	-1.5175597629379391	-0.7984960059033029	-2.5329799588148014	-0.6008034929365472	-0.13313412632707666	-0.6096811279162695	-0.232972308405141	-1.1586393088651832	1.0489513847570477	2.3340504110535005	3.932497253026111	2.249824279826942	0.9567065810844565	3.489923468361642	4.058468808417902	4.872080313779502	5.059414850812631	4.32007883888533	5.862345203857449	5.360404477890841	6.288248046257489	7.689280490535164	6.569284422501065	8.872766472349396	6.881781560689137	10.90132329095825	11.361044855044147	12.160793273740309	11.911477058854635	11.400365800684616	9.859563802621643
232	-2.6521286897456693	-3.0678899210720716	-3.285279027273705	-1.4936444721657998	-0.6894397718189023	-2.445982688450342	-0.4820665704953928	-0.03665518006368549	-0.2738751166104727	-0.0020715626835675193	-0.8138567188695868	1.2724984852134587	2.5628893310689995	4.174198616933086	2.7082512310315856	1.5310785731760241	3.972207536205271	4.628395068880832	5.276988016156866	5.61734388840546	5.127067552973368	6.658393366215296	5.933481201450064	6.748245222220131	8.20857713534223	7.4080395511512345	9.672852491752712	7.484890442070486	11.514158219830913	12.133480041387392	12.92328163698855	12.6202420869724	12.225626914628865	10.611796352297144
236	-2.4657998022766514	-2.873678200142121	-3.2018551745637978	-1.383819338165738	-0.641579447556956	-2.4548644957551877	-0.4598033714606443	-0.04850028070483242	-0.11274969549322746	0.04957342135311063	-0.7177203279494355	1.2822766271641741	2.4930479463576365	3.97268604229232	2.719659798431371	1.7699403718130684	4.119717587560139	4.794635760599786	5.36531780795656	5.795297131211787	5.523418889405538	7.024471265223899	6.199236377323286	6.789939863228144	8.255161264558112	7.748450259672883	10.029520009467936	7.721882800633515	11.582053155267404	12.379723517633362	13.218612637524648	12.766589132501348	12.502344099904342	10.870111438009708
240	-2.4903211530753366	-2.8742535041720405	-3.1219172398901334	-1.245603796675099	-0.6308685525225054	-2.520927899671646	-0.4771295773857567	-0.10320172432831169	-0.171079098746381	-0.014713503383204912	-0.8547458031054935	1.1399550409146149	2.2674744071932684	3.406640759450206	2.3444788396770733	1.6800800519486963	3.964789380553834	4.608176219749751	5.098006235602893	5.58266304513975	5.494559274152474	6.94648550187099	6.1869706951337955	6.400593264632292	7.832903365386174	7.573456745100051	9.946660970370493	7.649790267703959	11.11863801056339	12.074028938327043	13.022111859822523	12.374076812020178	12.210075347590491	10.6418714254634
244	-2.7306687762935904	-3.090379468744783	-3.0533451956907025	-1.1802600592378423	-0.6853966099600611	-2.621629469928263	-0.5016279803962613	-0.15840925236284958	-0.42061638725896855	-0.12471465734942477	-1.1372648448841145	0.9484991407288966	2.0408823438615498	2.687028639685021	1.7850892498723554	1.3720346654583697	3.638742199293894	4.231737126156711	4.53314160156151	5.0986366143244455	5.1485862601944286	6.5615148378649195	6.015701278757127	5.704703316590661	7.099367123799454	7.00864265579731	9.5563134905821	7.405918579476902	10.280240986618129	11.336566896426747	12.43724438388218	11.60961911131353	11.481992692568372	10.060340855947738
248	-3.1194176595131435	-3.4713747413729505	-2.9915797634888572	-1.277672525994768	-0.866279361445057	-2.7635857989155608	-0.5460861907523074	-0.2060719276232197	-0.7862043956934	-0.24879485305913976	-1.4651460610591627	0.7890540937529166	1.9099845838007994	2.0437293001074135	1.2727766004852785	0.9890598033729202	3.2952914154777964	3.8644971749965005	3.794737091020406	4.522032249477742	4.645348537160783	6.071000083854327	5.833935722880591	4.901520716689792	6.285670741423908	6.2476320108986085	9.033978439410635	7.136393052203287	9.284668898982781	10.367814991523979	11.632904023364116	10.690030070971694	10.525267574439438	9.304972625127808
252	-3.533771505970663	-3.8999268910172784	-2.935514919498938	-1.5475887021092547	-1.1976329057973736	-2.9518892690517124	-0.6387423856820997	-0.24903477665491613	-1.1738746136591762	-0.3878484060508825	-1.7596485570349756	0.6967201215319664	1.897254462220391	1.6273580748479197	0.9717873906395819	0.6524502618529351	3.0526950282271343	3.669378986631094	3.0403542441854157	4.023951043459885	4.135856617975935	5.655445561435484	5.761071190593854	4.193319786928755	5.608294472839929	5.481502995956678	8.527650811599635	6.945075494397743	8.334009149490877	9.378815627260709	10.783575984431803	9.798853849466814	9.541731810321064	8.535199143794932
256	-3.832406272749031	-4.224143494431498	-2.8890702651514775	-1.8858843994210337	-1.60584711623066	-3.1506647984113028	-0.7763898949094634	-0.27024549177603924	-1.492714520500362	-0.536067305641952	-1.967519278327169	0.6736283285299649	1.97956728435449	1.471003409486452	0.9377450919317376	0.4371330429007855	2.969183914317496	3.7271757031752353	2.4299919543903727	3.7247440720931175	3.728948583724958	5.421230779311975	5.8490843625213	3.7272379304242236	5.205285536021735	4.8533992644797435	8.124328592769292	6.875457746313013	7.567164878813446	8.538331963916416	10.029361699531812	9.044872261099439	8.677540757205085	7.859063605493465
260	-3.9060904881086507	-4.314846504761578	-2.854033224529488	-2.11026334229783	-1.924742455391347	-3.276453963590542	-0.9033248997769716	-0.22614182474738326	-1.672373529026564	-0.6503485424788163	-2.05335783440012	0.7145851236421655	2.1262607520779966	1.5119397602055462	1.1302577228620108	0.3702045371722417	3.0458376330723285	4.020690907817482	2.0935933537077154	3.676494589106415	3.4816613109423162	5.387270436990491	6.072236522602426	3.5630507379218863	5.111228453129324	4.440450180286744	7.851817588055705	6.9184493843880635	7.047197800963639	7.944311598747473	9.456781363453024	8.46563718565757	8.009361246868151	7.333423119149681
264	-3.7280623818686753	-4.130428780617812	-2.828433983337406	-2.0597810693234786	-1.98100220656919	-3.2441401399721754	-0.942242679601199	-0.08079906532630211	-1.683632131140473	-0.6635233147081265	-2.0045988509111643	0.814171789021074	2.308950179946218	1.6457272726470011	1.451693888813768	0.43308395037980424	3.23613380568758	4.442790497053296	2.0918827004069804	3.858113279138595	3.3962175760353603	5.496325002144842	6.337608798238578	3.665587892814372	5.264382825911592	4.24926613688516	7.692169646869422	7.025201779748422	6.768889410095255	7.61195323929607	9.087328887884336	8.052355745966143	7.550012569439027	6.970965367837016
268	-3.3776888762072628	-3.7524230385454516	-2.812553398660704	-1.7025855736661673	-1.709533448671514	-3.035774700129595	-0.854538855779356	0.14790239892811127	-1.5539115628110645	-0.5359560833750819	-1.8482859088009338	0.9531713104024643	2.487823241628396	1.77813326863534	1.7838773682378417	0.5641725645126434	3.457401028487088	4.829479205336034	2.3843097626569545	4.179201115547165	3.4204044255684107	5.641367421212239	6.515529139281071	3.9209315677830947	5.536474690764177	4.221068848443167	7.5949387358600235	7.1229762851168	6.674882395104329	7.479666214178402	8.876080490590539	7.774543742578195	7.263037186405025	6.745628816739677
272	-3.0175819320786035	-3.3629863177269272	-2.819200747047852	-1.1838920086534162	-1.2188721864444332	-2.7392256190759414	-0.6813149435007924	0.36879834439625103	-1.3650180066931261	-0.30620407980857406	-1.6596178966582562	1.0850326987528653	2.6016194754719475	1.8491065455481295	2.011950964616357	0.6708944422949544	3.6117701439268113	5.015616404267938	2.8285596299282756	4.497626770108207	3.4592442425174688	5.703601822757993	6.489483816928617	4.17651795286473	5.775459751806305	4.2506317985028055	7.492329101719673	7.139567833994588	6.675991041494353	7.4352736285360885	8.729270913019302	7.594050865073691	7.082195740938754	6.60069273235829
276	-2.826328270452098	-3.1652977386667165	-2.8753824161412362	-0.7737162689701687	-0.7522386889538988	-2.5191733773524674	-0.5297103510834168	0.4503886986328516	-1.2256827323485637	-0.0955073682042635	-1.5420664509940467	1.144833085030717	2.58129357639912	1.8300975514936446	2.0433428235916655	0.660325108291488	3.620656481184649	4.899718272236334	3.2256205000500606	4.657858836811815	3.4060344610050817	5.597023949797095	6.210284694250959	4.295829285266135	5.852250561243775	4.222197521993785	7.321312885873372	7.033699971560463	6.675788862539784	7.359252434270015	8.542937257178716	7.47076795599164	6.934885961189827	6.466585619812356
280	-2.912264578142234	-3.2800857937968266	-3.003247253464893	-0.727389751028355	-0.5555953369418306	-2.5243842538041545	-0.5028197752655362	0.30040231271239753	-1.2219488589906813	-0.04869247215613513	-1.5746551712334234	1.0895504923968544	2.3943331181156564	1.7182992653379199	1.83434581293464	0.4869773673637163	3.46897696572898	4.498871791925132	3.40198110675201	4.549391735034886	3.192222348736678	5.312106119095546	5.734630570238246	4.2129764450517335	5.70374535074225	4.058835973028791	7.0558681309893565	6.825582487039521	6.600522024656085	7.175661545756487	8.25531575979698	7.369472961893137	6.770190698696706	6.292312129346593
284	-3.2542374051902123	-3.6752774622631748	-3.191994658994211	-1.1383857698309303	-0.7323648315059065	-2.7878394056505913	-0.6200869663795298	-0.059396963416578755	-1.3712078298281332	-0.24520930585940637	-1.7562503770356206	0.9433351135278842	2.087281221841938	1.5376304349224827	1.4158059322851138	0.19053372692640402	3.232471934740404	3.9600698847924343	3.290371409691878	4.159348000515502	2.830545895105756	4.935085284170967	5.222012029814954	3.96123527480414	5.354054437471081	3.761149396937116	6.731820089510136	6.605837805282312	6.422172530172292	6.885179025432756	7.884041766288556	7.267381172905289	6.578326208672085	6.073331817552053
288	-3.7051958944233556	-4.173415650321292	-3.386010161434056	-1.8728016567630243	-1.179392930867839	-3.191187373687411	-0.7895528654191378	-0.47876417515995	-1.610826369033335	-0.6405903084794057	-1.9903719374949356	0.8060204366361061	1.7839902594347614	1.3362714018462707	0.8949387050921815	-0.1099582460726705	3.057274572282955	3.5049300105295647	2.9578571244901366	3.584839334973809	2.417865270232147	4.619161594172699	4.876382815447106	3.650620689711902	4.897469508203926	3.4060292157963548	6.438901884988453	6.501783354556255	6.157896026322924	6.555731279987676	7.517629127595739	7.152641278328035	6.384564383599763	5.851590618618488
292	-4.062502850766116	-4.539734828931338	-3.5019595534600376	-2.6289014749910797	-1.6492797094666454	-3.5228419214950835	-0.857417879324028	-0.7461172323462766	-1.833316440721968	-1.0812553140044068	-2.128737682690029	0.8079462030992921	1.631253119164868	1.1711864441865931	0.42059722436572167	-0.27153435280908583	3.0908615511105095	3.3299238597720717	2.562741273131751	2.993141166759451	2.0896913952519904	4.512095439963034	4.85365246501011	3.4040548715477996	4.450284946649853	3.1018931787376864	6.2754669031012815	6.611450178620193	5.84629867985011	6.273392661468335	7.260312538889932	7.013621789390696	6.219233497176363	5.682598099666491
296	-4.174705494830976	-4.6097845914803095	-3.475803366468581	-3.097782842444353	-1.907427067709234	-3.6042427925664215	-0.7130547743914212	-0.7107990962202363	-1.956954831904562	-1.3929418290255793	-2.0594913907506016	1.0261250708422056	1.7107911066730994	1.074747798113549	0.11546361417228855	-0.21079941040699926	3.391797057171399	3.5018272311489707	2.257097476982651	2.5396947796596643	1.9424521874022982	4.6686067463305765	5.175407873438478	3.281021825136016	4.088455666710113	2.9181394503350426	6.281551822061749	6.933682901042718	5.509397492803975	6.075996860422522	7.154404145297462	6.821406347218523	6.076555236733368	5.58255337259364
300	-4.020571221691075	-4.379473198323996	-3.3114948189097873	-3.132850162225812	-1.8820413303541985	-3.404859057413079	-0.3788634231061907	-0.38423460624959693	-1.9843292186228627	-1.4861497841506646	-1.7848114922284033	1.4160801136503884	1.977324957623701	1.0196493838315777	0.012015553160967852	0.03613159051355861	3.874238958113995	3.9123709103034874	2.0979103989086076	2.290126317917938	1.9707155177905349	5.000519739877343	5.700984463603224	3.2351641573288217	3.807509889526366	2.8332462239258427	6.393891795227825	7.3412318044327005	5.127652155327849	5.913379177422447	7.131148320313453	6.52200792573322	5.892595276260322	5.492865071733656
304	-3.7178440000127604	-4.006757249252807	-3.0949442308487365	-2.829385035047041	-1.7094044642205455	-3.0684561651960083	-0.017866710155796692	0.04802919912132979	-2.009734863929203	-1.4115476572638215	-1.4343424999263017	1.8126212312710444	2.2724881114805364	0.9137851572807744	0.03138041115825033	0.32020947256305454	4.3314947972610485	4.328192223111672	2.0190229364918126	2.1904797498711814	2.0615746922895313	5.303650365790478	6.183808311108576	3.132652751642814	3.5284159094418257	2.7376079490208216	6.45959327974212	7.6258616254914235	4.646891582200832	5.6632270670005544	7.028345567124518	6.051290973644078	5.563690171499908	5.2927212581520555
308	-3.454708567480092	-3.7207484151360424	-2.9545359536916367	-2.4625530180746433	-1.6400721031742795	-2.827236406817603	0.1558556552766683	0.3215863994585344	-2.1630155985580757	-1.324621912472912	-1.1960972517332575	2.0121295401316535	2.413042777644835	0.649519918709241	0.02771310128725275	0.45961171272585294	4.537809360491375	4.512650478413781	1.8823157501380514	2.107464785023401	2.057970757056931	5.359244333087861	6.388045771683014	2.8323388028160728	3.1525092045345757	2.4977550443529544	6.31257770851906	7.600478153112883	4.020287026745503	5.202033029773844	6.675378782584765	5.374646650096093	5.005412565945312	4.863732802509073
312	-3.376099339544406	-3.683487406013809	-2.9823613091511696	-2.3171086252838964	-1.860066766811046	-2.849110834557785	0.016980741130156695	0.2487138503470945	-2.515661948528325	-1.374247070657557	-1.1963027685479242	1.8989810895658852	2.308308833970054	0.18049843563761564	-0.11598410428089494	0.3558357050971609	4.381604660415783	4.361031521277051	1.5844547708562036	1.9225796412564877	1.862530107564104	5.06395815524452	6.210677608068326	2.2877128066477863	2.640641205796401	2.0520327039408195	5.879354938921925	7.207929593007782	3.2650260842858985	4.497149456114051	6.0055861321457025	4.533785331723458	4.22441338426236	4.176511753981688
316	-3.4973513991747973	-3.89198302240025	-3.165097943897934	-2.513334267946433	-2.3464455545311167	-3.117298595187439	-0.371477245346595	-0.16059242148384822	-3.011433355357677	-1.5912667472718054	-1.4055234158315826	1.5358908137644605	2.0275914617845103	-0.4153777052405635	-0.40050095218631154	0.0713249517666572	3.947724570797724	3.962548961171673	1.1454559535670472	1.619240875924322	1.5146639308834828	4.5084605103152295	5.735459790054268	1.6042760570076366	2.06342291311006	1.4740458689666853	5.2455882893684675	6.566886885275673	2.4904987749163188	3.657550325695993	5.122718798101535	3.6647787001589442	3.3523633395432983	3.3396804248414327
320	-3.6920759584671003	-4.175496567674437	-3.370074740484299	-2.9281878397444876	-2.8508188652541566	-3.4196498307674594	-0.7667220215513041	-0.6840976459397506	-3.4658765705341708	-1.8479444933965223	-1.6316775042345972	1.156518933237297	1.7705143645408061	-0.9255663729187542	-0.6861183626018241	-0.18208147539420844	3.4938847930434127	3.550065746881062	0.7240538578826331	1.3107526269244323	1.1912058561767596	3.952687491927772	5.187147127406642	1.0147153113495282	1.590633269108732	0.9607408618512485	4.6373357655745675	5.922996506041965	1.8752794218400817	2.9080142901433215	4.276125420264612	2.9686644002349456	2.6143300467289188	2.574775450881519
324	-3.75986002926459	-4.289164532322756	-3.4069311532788187	-3.2628080762501166	-3.028568975431601	-3.461835375628602	-0.8688606597898277	-0.9985519622387253	-3.644865742064078	-1.9192013692084373	-1.6137762028958216	1.0520341369770478	1.750434394231701	-1.0844950648583487	-0.7548512797370975	-0.1471157368283518	3.323263159944528	3.3641586218774098	0.5434904680835375	1.188108560423471	1.121298310309863	3.700108995632488	4.809480178134329	0.776644525951301	1.4178674185241107	0.7421336155274157	4.315684784483582	5.524012074828845	1.5951409299631347	2.4912383493468244	3.7474543953695196	2.6365694933127846	2.2359936180881794	2.1189570373442397
328	-3.542101135847704	-4.05633019376876	-3.1392407338039154	-3.2220418371867816	-2.6462988786641968	-3.046272985396669	-0.4956536578538957	-0.8631848075054213	-3.3910472307420174	-1.6193445880059694	-1.1740131348532845	1.4051258528519344	2.0518341012649293	-0.7145353537639038	-0.43630251178258206	0.3306189469096369	3.6142740158382143	3.5009457976642575	0.7628401498608179	1.4076511824354023	1.4529824220212693	3.929940452190281	4.727951037867759	1.0364831659851212	1.6590665536954758	0.9521397924225857	4.43136309458581	5.481093392838815	1.729433055325984	2.539711707378738	3.6999578382537193	2.755044930177969	2.326843971099771	2.097798342176713
332	-3.0202288551371064	-3.47758316115708	-2.581110947767989	-2.7001860073581008	-1.7416477159396764	-2.2104468289833674	0.29391497299374536	-0.26958310536032265	-2.726645701199988	-0.9320539808583073	-0.3404868534551574	2.1667983477245505	2.555876963838169	0.1513440307133978	0.27397313644855836	1.1942690580733224	4.304491509060182	3.8399619959202624	1.3684276307842491	1.9817345092330516	2.147960419000139	4.581711757536294	4.8796343680206835	1.7314108566439277	2.263078207024314	1.533921595515343	4.923363673177612	5.699644074354899	2.1981458608442583	2.9897298737382787	4.076888074118468	3.2428035654211063	2.804849855970803	2.44198488572606
336	-2.3348655641733904	-2.737791531326266	-1.913191671309487	-1.856782193264346	-0.6280415042279462	-1.231378790607498	1.211441990654782	0.5383508191821766	-1.8643422079699903	-0.0448968781887436	0.6416667683613314	3.059856407069527	2.992411367490664	1.2431268660630665	1.1838326424273697	2.1808004324212544	5.106626020889967	4.108275879977942	2.156047100345689	2.7465581824576972	2.976667873496599	5.369292722497306	5.055794226279536	2.5967533522847703	3.013048641227012	2.2460899296319026	5.532160745004805	5.927436813647942	2.7773582865211695	3.5972497372404493	4.617659557128151	3.8663344285624186	3.417609206154081	2.907245867064817
340	-1.7168005661534713	-2.108983511368444	-1.3976548874853598	-1.0358067724779179	0.263038485578186	-0.48619204636846086	1.8881401968015077	1.1913167208157618	-1.1126345367950548	0.7370104175079715	1.4255654775867062	3.7173554803454145	3.0931851785765665	2.1581714098801204	1.9877133319260862	2.944344751553671	5.65658234121777	4.044504155438022	2.8217861581131016	3.4310312184492955	3.624458542255982	5.925284370721247	5.03327511470309	3.2806870854518024	3.6163616089115567	2.7748804022348232	5.929433807661455	5.900114521389043	3.1926045337180127	4.0532884495442625	4.989539610663122	4.33447407581798	3.8558285139008333	3.1942145743786208
344	-1.369865890859048	-1.806659336297083	-1.2347824542341586	-0.5753184542435665	0.612553892973256	-0.24738477108008727	2.0766303486846245	1.3959648573916652	-0.7246947866262847	1.1512107820055815	1.7429294542176903	3.8800458810119314	2.7580461432441226	2.5517744953579258	2.422504657351171	3.2327158369462095	5.712323174359509	3.5700540452467338	3.112574807891626	3.7920710944756233	3.8536322019556946	5.998482212180727	4.718368518360702	3.5109288603831934	3.842559804751594	2.894577972733397	5.895624145881581	5.501033769070209	3.246415845303954	4.139514912644433	4.9644121998378905	4.430032718917782	3.9038944145820906	3.1058683316970104
348	-1.3679854835304215	-1.8781362724569532	-1.437790390199274	-0.6156629308415356	0.38493069909184885	-0.529116331195085	1.7893291666631033	1.1019487353159914	-0.7690476755752785	1.1215673656757	1.5511236151633792	3.5429484754756913	2.134649748181084	2.3156168402382242	2.41087459909196	3.0224826259596633	5.293691621766549	2.8623933719845773	2.957203619166469	3.745403518757266	3.6350335983053323	5.596631035979728	4.216969479404445	3.231099835821139	3.6411220935444772	2.5917036467921486	5.448053346230339	4.842996585062648	2.917572490955371	3.8432052038435924	4.545166480986716	4.115087975602833	3.5512599855407663	2.657268994298121
352	-1.6235560137765865	-2.1865880434143325	-1.8114744379084613	-1.0200488541598538	-0.16295032162056478	-1.0790733071739782	1.2879289356139536	0.5338923917642339	-1.1002558441993548	0.7976514080889681	1.057810780715515	2.9603221341732437	1.552314158335117	1.6391909081081448	2.10542463724718	2.5325596268609063	4.6768007160364515	2.272410863861103	2.50204777085884	3.414200297318694	3.169565669640438	4.986972319409838	3.782490005480038	2.6301705770844332	3.171787015536319	2.0780644364342997	4.839249598682948	4.216649998509255	2.3747758805399117	3.3635859404518538	3.965165843489285	3.55048870143932	2.9981107636096973	2.069580788155548
356	-1.9397089432380816	-2.4945056375465833	-2.0545918889624346	-1.4541577064039832	-0.6365913136622317	-1.519656177498686	0.9313769913046576	0.0680395512055131	-1.4452991449105408	0.46661463262051056	0.6079630836396013	2.504441016549819	1.344140645448229	0.9139615870288641	1.803502555108459	2.106934065267661	4.242841709868909	2.134281629895881	2.0323431440540074	3.0650918406348002	2.7831768919294526	4.550600040390722	3.6705710795235924	2.047602886752297	2.7267477443515857	1.6810518460746608	4.420705784126877	3.930164804072649	1.8941099595885595	3.003211013840961	3.5581400304605295	3.0163068695207875	2.5499422485821563	1.6495581823663328
360	-2.1150228923804173	-2.59568714440172	-1.9298391293439332	-1.5772807558291502	-0.7290878873537185	-1.5570716818597876	0.9708709096238293	0.022187815923104266	-1.555567260629455	0.38970348140554334	0.4965624200681693	2.4587941107660187	1.6586264329995657	0.5294929133398252	1.7790352061178039	2.031321758863715	4.266259182649141	2.5692467624646915	1.8235230399822286	2.9656572267043297	2.7511758734860776	4.571013915919016	3.9814503092379656	1.8017382576275618	2.58296369854151	1.6688414769953817	4.446213234166237	4.128953923291213	1.720640058941629	3.0025532169828804	3.5702466874581615	2.7710220743789638	2.455386155604945	1.6193319518213087
364	-2.0442373700981964	-2.422300571047975	-1.4089425766658454	-1.2336324422207656	-0.386577486015868	-1.1407812804984052	1.4095872605021085	0.4762234079735243	-1.3430552448696096	0.657571612128396	0.8101397732307778	2.8620676922063466	2.3685769974989217	0.6742438060903616	2.1257476752970654	2.3830482899581127	4.759957301519861	3.3992102060326874	2.000426764206	3.239934197828864	3.1464300076199927	5.072701441355258	4.583333957544405	2.029252524020917	2.8600842880518083	2.103822702818241	4.923144804922549	4.6984729648220664	1.9441074083835317	3.4064462098901505	4.017911424029333	2.9207236693074003	2.77220653787695	1.9895466515854592
368	-1.763006325085275	-2.069074387094815	-0.7030867916475755	-0.5368132577694327	0.18180900766246685	-0.4816273438691519	2.009419912987005	1.224622008092819	-0.9214215851408277	1.1488592595658398	1.3863283360765786	3.492890825989648	3.132635108668005	1.2484023539495275	2.7035300663401363	2.995883934086511	5.466524110343861	4.226202000438264	2.481620067052993	3.8029320144005947	3.796618213604768	5.802000507964882	5.164395319297581	2.621553175983143	3.460472813452477	2.8053789067964936	5.59828184621726	5.309065328545361	2.455655330180071	4.036726464570208	4.6723708988479284	3.3686110888308898	3.3357808505714934	2.5486905510450333
372	-1.416828747986877	-1.7265943245210784	-0.157923414904512	0.19703766653858423	0.6482962949597363	0.0775906739660134	2.4380476413207175	1.8880006027237963	-0.5299102054568441	1.6118756491973119	1.9121299933794282	4.002976884272117	3.578132620360615	1.9393553684861666	3.2202322401759695	3.5573644548246706	6.002239212140725	4.639367568700541	3.0354638023032314	4.410055149388142	4.37601803628438	6.3640022117156425	5.392690644954101	3.28854846124067	4.122738827786886	3.4443161400618725	6.091223701356978	5.585994706355703	3.007844678914101	4.587372291427031	5.182122217446184	3.8709313771744696	3.8477964304097596	2.9766371174999726
376	-1.1778582304780372	-1.5695338209579623	-0.06774755550207627	0.6247408374271977	0.7695441226603593	0.25844621593073797	2.4642617640267503	2.1188845580963758	-0.38801771304393956	1.8154252721727784	2.100400204123879	4.117074002361735	3.4996364028311375	2.4065270363130193	3.3997905168527556	3.7806763553533913	6.069912895136369	4.434903133639372	3.4101474199027786	4.792274462998327	4.580494869111631	6.437952979046024	5.095369326124687	3.712767353220768	4.558888423853682	3.7169260884855366	6.101458057257653	5.311083780230939	3.344202033182678	4.78884314281656	5.263857828201735	4.167514790503427	4.035488118473482	3.018146507272491
380	-1.158887860233269	-1.6660981136218758	-0.5124986754829512	0.557170032048176	0.5247984515291678	-0.0061593395502329016	2.0832300133560726	1.7856962635732154	-0.5677930102318047	1.6768953757863878	1.8417375041238635	3.7806019687568995	2.9577717706390336	2.465626471970082	3.1383726517595982	3.552623978228363	5.617816910865204	3.718955269007147	3.4621834667532116	4.799080836577334	4.2885117422548245	5.949504360436709	4.354934204550502	3.710924854446123	4.599942195722688	3.502285948494004	5.572895989652935	4.542450893377605	3.328737727344036	4.550375926926932	4.854711997172962	4.116244305708556	3.7947788142716434	2.6192345553072345
384	-1.3664207423997285	-1.9550033758395426	-1.3134980168558554	0.044458210356046045	0.10745856883813304	-0.5572546110388986	1.498617049248277	1.033987757933255	-0.9573689078955284	1.2924193111214153	1.2470161883341306	3.169962159736483	2.225961202723494	2.1691296045851196	2.5569605762774494	2.9768714829626375	4.854772555491901	2.839329950793417	3.215489856231034	4.468811977547901	3.6197194961711454	5.104302870261067	3.4695339115283548	3.315156213019806	4.270820606892996	2.917299740101567	4.723653304571725	3.5871908574135505	3.0057051105906454	4.002227296261315	4.142026413950347	3.758976450012671	3.2394354261626424	1.9512830923406346
388	-1.7134411291731224	-2.2981975020558854	-2.1290426200519303	-0.6707938296548276	-0.21995359603662	-1.1289615602599976	0.9771178936130316	0.19626039217035318	-1.3359141316063892	0.8560745694481166	0.561664639485406	2.565184109887058	1.6222771365215145	1.7390360788307915	1.9208350133083167	2.2947344722031784	4.116782178021651	2.1880018655848352	2.823827497982215	3.9897622961401975	2.861280434060141	4.2670893561394765	2.796536915394257	2.734510176430376	3.756810178808423	2.2424068394312404	3.924895038232072	2.84006523368951	2.5602128441067626	3.4169981393373865	3.4562930973528005	3.2854261315366395	2.6323764257727116	1.3123779263740643
392	-2.078165287493005	-2.5715799266738886	-2.6376461916132885	-1.297796246113028	-0.30907711308646135	-1.5217136106218485	0.6716754419534745	-0.39607766170637515	-1.5139626226348262	0.5253701196757652	0.010893266620551269	2.169230932480982	1.3263024058234665	1.4039176667053876	1.4780988655918896	1.7379739240635756	3.668312301910887	1.9853045890275047	2.4675555166887224	3.580812683601529	2.30869721783443	3.759270658538539	2.5667760307357	2.2278530541438886	3.287832013412279	1.7644905999457243	3.499493828521195	2.5783314639798407	2.2077469770004376	3.058549873259349	3.091155282799221	2.9212915823613863	2.2421286049501314	0.9651467179726321
396	-2.3721468388747966	-2.737568609955369	-2.7072050503091294	-1.6511423546111734	-0.22963058890540694	-1.7218044952790212	0.5247882591349369	-0.5899193868048167	-1.4546074830523226	0.3207612923629919	-0.32992282426506264	1.9855840156015063	1.2895081010686458	1.2542999951165832	1.3149527278125708	1.4001815283710093	3.553734531967014	2.167876476536526	2.245296234184077	3.362608901117162	2.1093087143095173	3.687788477169942	2.767467730210692	1.9580311725771984	3.006479494133612	1.623553391172223	3.550728550529291	2.8210759091677513	2.0729136414643943	3.040778152417988	3.148647061981461	2.8019912172145927	2.2015249673573334	0.9991995667025749
400	-2.580317729157321	-2.858496897156158	-2.452436440951748	-1.726856584957428	-0.22684024217077556	-1.8929430198560933	0.31539028803351954	-0.4774719166621598	-1.300185200269594	0.12400562284870865	-0.5616719112520503	1.8311887933274373	1.2889771428943273	1.2003334730360387	1.3158645596660425	1.201788064783465	3.5869054703750867	2.442575686963582	2.1263263171870843	3.297427169103996	2.1972117368536965	3.9015700718602977	3.1581909576788	1.912369484841531	2.898878090215216	1.7499961808844187	3.917690744045549	3.3308558379954265	2.1281456893596147	3.2769629872556387	3.49648498606053	2.9054722712593586	2.447965615767723	1.2955985036564184
404	-2.7546613146851633	-3.0467686576213695	-2.1559090559887375	-1.6706038671276506	-0.5574341402285089	-2.2492060604528925	-0.1808372582399859	-0.3247856787587761	-1.287783500281069	-0.22691446485449474	-0.8747810103264855	1.472779627896274	1.0840283604909358	1.0528215143325428	1.2489547697959111	0.9627733206283131	3.480037680422734	2.4690296587595855	1.986106390706999	3.2293956198220237	2.3503792226577818	4.094009389077683	3.408680668807849	1.9302926014802395	2.8239355015982754	1.9218662928696169	4.2773146521341685	3.751124134129786	2.222529167285992	3.5427555948456853	3.855270137589987	3.0773892324952317	2.7722649504286823	1.6068198640309383
408	-2.9660425111271853	-3.380285969782859	-2.099067921107223	-1.663278933140407	-1.3013955321833472	-2.8889505790250705	-1.017159101779149	-0.4005319167991942	-1.5988125760720289	-0.8041972497663196	-1.4035254681437557	0.8017600754522518	0.5822097644411639	0.6779078824093883	0.926146564529533	0.5373740182660638	3.0348901672033617	2.066180223970408	1.7020473437252044	3.0010204239417066	2.3354325235530626	3.991120805200488	3.281050912202593	1.8182836725104103	2.621973507937038	1.908516998240845	4.3343529591801015	3.8011383914345425	2.1832897607993687	3.6161148456828096	3.9643659491584184	3.133445254997747	2.9470903799036723	1.7053245262959709
412	-3.2469401277580747	-3.837861766662259	-2.4060399471571445	-1.8049135162560197	-2.2734920921145987	-3.698710670669588	-2.00089072675976	-0.8110883811499832	-2.235492462236173	-1.5096441469224626	-2.115813965223879	-0.06503047777685005	-0.08910977817925528	0.11169281573706098	0.3357580891715184	-0.07455272953761016	2.280637496912232	1.3249458041118036	1.2451260058437859	2.570239537425564	2.052956814351084	3.515577784245357	2.7579340865122277	1.477914806449288	2.2326674404995313	1.6144396025904968	3.9900271791809105	3.421534768049077	1.9267055939667128	3.4112224492732333	3.7300953770875416	2.974595062375123	2.857494823870724	1.513359304421933
416	-3.559403887345156	-4.294310082083935	-2.9854442997897483	-2.0637199826588706	-3.0964937131904056	-4.392049778339851	-2.7715043951632685	-1.437569018549137	-2.999908439691584	-2.1044287628447873	-2.808576338352752	-0.8251353481440895	-0.6461390836614718	-0.4435873318439931	-0.33549329553777224	-0.7085266691439119	1.4756292067465013	0.5641161785188282	0.7103542667574007	2.0539300389885193	1.5989699323338387	2.834110252854325	2.0487155862581545	0.9697563623739882	1.7474123195399291	1.139654514296416	3.3947124395492922	2.793251507382532	1.5118143520332554	3.0285408420393383	3.2733933842983425	2.6456167631111094	2.559440844749581	1.1410509319106883
420	-3.8050992392791563	-4.576843250163332	-3.5919556527048653	-2.3091540278308353	-3.3986542139076263	-4.664270389224826	-2.9925446434760454	-2.002236838053969	-3.587659111501724	-2.3353288114714155	-3.2123496451336155	-1.1514632672802125	-0.807804463254374	-0.737824080511746	-0.8031981567131169	-1.1184639902486597	0.9726017688990919	0.1593205924780032	0.2736851268057308	1.6723078447081874	1.2120058505929334	2.266819232939551	1.4743155203789684	0.4791910338224313	1.3661322559197442	0.7271338682889803	2.86125516169082	2.2281250897419564	1.1095043392779333	2.697770588739321	2.8573527263979384	2.308262103928668	2.2401034775443556	0.8186953047109472
424	-3.8739490411225392	-4.553710449165828	-3.966128339290688	-2.401754850045771	-3.0251259727394886	-4.374199379367585	-2.5488138134501175	-2.2263293210086976	-3.7459590340451703	-2.085031265716637	-3.1448044697517825	-0.8824534989965369	-0.45938572171575764	-0.6288298352577553	-0.8489454963231103	-1.1141339512352388	1.0235261891272707	0.33936208400876317	0.09607608592095201	1.6252480704281982	1.1379891605255963	2.1117963737575822	1.2956863609025955	0.20739753491967752	1.283531662561396	0.6284082516063233	2.690268271329674	1.9953986355947322	0.9062073207863873	2.6477060251145015	2.738311522245974	2.146522278134629	2.1065545028906896	0.7642767410055674
428	-3.707338085351175	-4.208844651086335	-3.9710419077749863	-2.2801063003193347	-2.1411967223466837	-3.6448812392716805	-1.633292670894643	-1.9907319495484699	-3.4114229592977514	-1.4568421803885996	-2.6241664820220776	-0.1297471669020723	0.27158823540782673	-0.17883668794779564	-0.4501605320532275	-0.6742928607128879	1.6338129002329291	1.0570348474517879	0.23468692541474329	1.9729223201531274	1.4899369440608417	2.4822072920118377	1.5768440922026283	0.25456997687916894	1.572446461522203	0.9630921458724117	3.005333654445343	2.1805221979401455	0.9989955400040238	2.97689651691338	3.024346105569216	2.2600371780555513	2.2678501548729835	1.0612505647568182
432	-3.339465371283626	-3.6609458830909847	-3.651152839979113	-1.9949337193666579	-1.1636754244988305	-2.818838589227111	-0.6687102300926748	-1.4077528679591325	-2.7465531756675485	-0.7388953547895895	-1.8749251318324311	0.7613892536013586	1.06944501129985	0.3780977716436615	0.201506107536824	0.029933262540821726	2.5469086105893273	2.004939312641262	0.6123496278561265	2.5921578341841904	2.1810481493243152	3.2435164369708205	2.1538755839327144	0.5653801546127439	2.1348292773706943	1.6505998331357976	3.687627783048033	2.6507663659881224	1.3434296812471431	3.5980045704599792	3.6188883690064957	2.608974927037239	2.6777710847004594	1.614235516287301
436	-2.8913900779202786	-3.113479367978454	-3.1876585403070385	-1.6733143287373236	-0.5507364855212977	-2.2856213988771876	-0.10021654491156266	-0.7638788800026961	-2.0517797418290313	-0.26065307789797504	-1.2195301025118028	1.3806138003778106	1.5831985433660891	0.781018851215678	0.8041365722380914	0.7153899651585356	3.3670604143963283	2.7632353236051665	1.0605549785540456	3.2355406202642727	2.9663944169490506	4.080708016583189	2.7224576404500636	0.9670681332967604	2.7500951220697387	2.449495070948798	4.440673816913376	3.1386442105205092	1.7827286675266307	4.2846064459390005	4.275391091042834	3.039873830749739	3.1671731392051945	2.202957386176959
440	-2.52067303021123	-2.762343638121578	-2.7889566351094404	-1.4437317811754844	-0.567197082994845	-2.2781176509560694	-0.1734917606503467	-0.36963513400214004	-1.6064958531827573	-0.22296917382212775	-0.9186435318641503	1.4551457129932854	1.5906951387298525	0.9028195715998416	1.1079710693996023	1.123555538201808	3.7491745854133947	2.994335643837734	1.41049277426325	3.6579332259330632	3.564287176669985	4.651819694218419	2.9891166611543776	1.272909042005635	3.1908211627508356	3.0774240416076926	4.941729056279437	3.3867628488863795	2.136887306540303	4.78878592235772	4.724884974948254	3.3728146467884166	3.54005502760702	2.596857541203575
444	-2.3496317804141857	-2.7074689796755282	-2.588603490015918	-1.3697679008232848	-1.154908892576689	-2.7539241244404424	-0.8198376277251834	-0.4029194404442893	-1.5301229915133978	-0.5985142573504385	-1.0499052974896248	0.9744107102588131	1.08895373069487	0.8267415145027968	1.03941678738427	1.1370463342569195	3.5528457075063673	2.5884141856645893	1.5749195774369793	3.7359158898444527	3.7867875003574936	4.743180739825157	2.807712547842848	1.383136030519758	3.335890523117603	3.3423602496637685	4.994454371240312	3.2724199212423284	2.296203607483893	4.961113917222926	4.8040842888657265	3.4959328086327246	3.675295105237984	2.664918654389281
448	-2.4084370075453796	-2.91240500668497	-2.6002223426019397	-1.4271528684823567	-1.974837655803504	-3.424663773473306	-1.7041561560520335	-0.8260232189304221	-1.7360856489218588	-1.1550540894909953	-1.4853424988438648	0.17691251590885337	0.27504467894730256	0.787439403930028	0.720740554897224	0.8196797946262167	2.8880200313131867	1.6978061156322748	1.5777618845205625	3.5172562510379946	3.6144373325644863	4.3525366673251105	2.238203758310871	1.3279588188975926	3.2201104082823564	3.2203359522576167	4.608492839621999	2.8525187897188586	2.2694873752515403	4.813317763573859	4.521989810970768	3.416439047770805	3.581240644949936	2.4285578666406975
452	-2.624505036403547	-3.2323284067561473	-2.744433634504687	-1.5325499734332346	-2.5945181781113367	-3.91668318713281	-2.4060623585035237	-1.41934692501299	-2.001869435024501	-1.5873266418435208	-1.9746947238656933	-0.5864465221857467	-0.5617424831512862	1.0098276112809967	0.3804234852722806	0.36406844762436413	2.038236374477361	0.6513887031321656	1.517500039084025	3.176169625846299	3.181380740716565	3.6658205893469877	1.5015619955299042	1.2284523217657046	2.994071237634178	2.843599550697188	3.97127961109775	2.3123958052426943	2.161419147756442	4.493900287726258	4.035638799015093	3.241656772058523	3.3756730471260488	2.034423107732838
456	-2.8626971172535858	-3.4920096309235134	-2.9174477980388156	-1.599111791388046	-2.716084711846769	-3.972906579477432	-2.6336405210759164	-1.906604404404121	-2.1105737632870363	-1.6832065539778511	-2.2824807109426124	-1.032106516139604	-1.1730617255157818	1.5459686478683499	0.21291850453502614	-0.01664694021909608	1.3130459752310202	-0.1961989397817449	1.4926427565082336	2.905580751712576	2.689522974853284	2.9520664140555377	0.8644317366709743	1.2056270807344656	2.823994867824322	2.415174954992357	3.339598885687586	1.8572524739104366	2.098584408230026	4.197921742330954	3.5585536866942267	3.1078715245935644	3.210210553647317	1.6704268413331147
460	-2.995212070532299	-3.5722963719775227	-3.050050727772995	-1.581961508571544	-2.3205747545781237	-3.5830213933127495	-2.355000251546261	-2.098796123927734	-1.977298612370777	-1.4302083217751185	-2.3001708926301268	-1.0677431794865195	-1.4412494861454355	2.2128624860207253	0.2743683450447438	-0.18925097536943147	0.912479815563489	-0.6083239301581604	1.5373593529987288	2.813286297371012	2.306593650716328	2.439060920279341	0.5160219060267293	1.3000851836759135	2.7958664823515162	2.104459757259992	2.916647903707949	1.61168527196238	2.1537022536261454	4.067490567428328	3.25832962167158	3.1050784509464413	3.1887137809354775	1.4771926365750125
464	-2.963080875545063	-3.4601631077190063	-3.1243686597142664	-1.490681048444339	-1.6527702766651688	-2.970870248923224	-1.7833712055956872	-1.9775249908110624	-1.6874725776029447	-1.0038920615599596	-2.075616831307423	-0.8002753237546455	-1.3896685803613582	2.6784601143923235	0.4741374242255865	-0.14203219079874418	0.868509588432987	-0.5396671877587177	1.6074360568470707	2.880593292592924	2.103477234297995	2.2312760296754073	0.49639385813317005	1.4526118003409916	2.8802273200749267	1.9800922820643463	2.7771606375195934	1.577920075247397	2.3119983614723356	4.135079373410026	3.195526591816104	3.239587537215725	3.3239862834931175	1.4989223442380457
468	-2.7950658727649142	-3.2369601644806596	-3.151407710701908	-1.3677921260632584	-1.0628819438802017	-2.451242917547779	-1.2329651086195452	-1.6764665799729561	-1.4286473953416814	-0.6513072235829633	-1.7528165534587798	-0.43699389585790865	-1.1263240547353457	2.652866833664704	0.6574103815646857	0.04499590758049759	1.079434868948273	-0.11884946346078676	1.6194553334356825	2.9991545601463683	2.0555186219770625	2.3006823004810086	0.7036708575602549	1.552573319329946	2.971970312244421	2.007868523296708	2.868954889683465	1.6641886192266724	2.4940566953632684	4.3322691808040155	3.325806609339962	3.449529400699345	3.5508477598185406	1.6898748831999066
472	-2.5795643264492623	-3.018992177970429	-3.1366023938142384	-1.2555676666984656	-0.8047635534949007	-2.244574541146959	-0.9367268657876104	-1.3882058823822632	-1.3636852468393132	-0.5438415394403782	-1.4697772227372283	-0.15100125930332114	-0.7729764561210845	2.0668065495761265	0.7183684092504421	0.2701362960670864	1.3973809445386638	0.42899072061947824	1.5128246507596474	3.0542383116857623	2.0912222809445367	2.535915606771867	0.9632607078074109	1.5169049463120898	2.9718351289104117	2.100515598715873	3.0718536299396275	1.7549142793217087	2.613485568123873	4.547121513330413	3.5496284872080937	3.6549312976111747	3.7790439033464045	1.960798735436422
476	-2.4076495109805953	-2.886924021107824	-3.061350099463827	-1.1723719805681825	-0.9065342522621549	-2.3580224454473226	-0.9308526492458923	-1.2519961563925415	-1.5227243861853976	-0.6855716091966798	-1.279844757663478	0.00665882786917345	-0.4205630709043516	1.1362926931302821	0.6692423207552414	0.4718164789685374	1.7092295841932161	0.8799168445305903	1.2951704230987224	2.998070232451352	2.1493258421992065	2.8110165525036956	1.1181284160994214	1.3473454679804209	2.854090444988328	2.180825943209154	3.270352832166737	1.7765600636451102	2.629149430312719	4.690199363310973	3.772303094876485	3.8055279158832986	3.9485418696848207	2.231251472561822
480	-2.323106044626054	-2.8469633984212392	-2.9003214762894527	-1.1141601772788738	-1.183082100742253	-2.6008593970436906	-1.0665754052890286	-1.2910594907589428	-1.7855921938637003	-0.9295841431989851	-1.1425251931908407	0.10041888777890305	-0.1300128546054878	0.26518824629587234	0.6185845121024699	0.6439288838341357	1.964781040953101	1.081211564195252	1.0368891928243062	2.8648450302272885	2.20458912292821	3.0319604797107584	1.0901503535403596	1.122639295604634	2.672939770625743	2.215077394614987	3.395412436495767	1.7196832851861101	2.5547132427565122	4.727265346035994	3.936000098781427	3.8913714787463984	4.049359788207746	2.453575128082662
484	-2.3063576163236132	-2.8414184975410737	-2.6563258104015763	-1.0726801129915111	-1.3692911828755747	-2.7155001094922877	-1.127560135855577	-1.4262345993272654	-1.962321514897299	-1.0832753154107446	-0.9775500868912067	0.23015907348697365	0.043367877493083844	-0.16566346543924576	0.6811312419860585	0.8075695613499073	2.154531950279324	0.9799609159523502	0.8198088982864742	2.7265934875312965	2.256869310403027	3.149184934294556	0.8918926693332705	0.9348809099435772	2.5097997125201763	2.2064511720262923	3.425201645786401	1.616514082642022	2.4268433986427067	4.670229423175845	4.017341603626718	3.918883075356626	4.102673043383201	2.605746501065776
488	-2.2995936812515794	-2.798600428191171	-2.379588597965505	-1.0525755855688204	-1.2900986638875893	-2.543776505723578	-0.9783475970362879	-1.547629471686178	-1.9188359927368868	-1.0349576447105915	-0.7403509598159742	0.4365765441362451	0.03549142172912599	0.0018684271443028103	0.8819749929094882	0.9672658419029813	2.267121547697089	0.6142020806064238	0.67776459284371	2.6263267927618625	2.3013801516602768	3.1447884957070227	0.5938321933058631	0.8155739286812302	2.4013986526894926	2.1629669611680615	3.3592958365503316	1.4967920742391518	2.25938105012752	4.542791355107703	4.0044278997408655	3.876531591164847	4.122072209441401	2.66861652654181
492	-2.256539100671805	-2.6908831528436243	-2.155730242054863	-1.0760838958274608	-0.967852709233958	-2.1294403022408677	-0.6553017480517904	-1.5950947959681951	-1.6733187394810258	-0.8260767439012952	-0.46815469742832877	0.6553930623673558	-0.20863681978955737	0.6198661907758392	1.1186224193940726	1.0868639918543208	2.2651081028016598	0.0811645982600449	0.5683677778199226	2.5364034111834775	2.3088097514034818	3.0158972664029253	0.27348926594349343	0.7024205905346029	2.299747222816133	2.069046730539709	3.194626561682268	1.356799003036509	2.019313807157582	4.3500213513219395	3.8785605332678785	3.720924606465554	4.085959901030378	2.6115343504774327
496	-2.178308958275933	-2.5580730373647285	-2.0613057561329837	-1.168327447802515	-0.6015908106873975	-1.6927931266007419	-0.3452641359195211	-1.590300198354568	-1.395325776391997	-0.6216663702528005	-0.26271292500924476	0.7533774356894576	-0.6911367756560178	1.3153324093988314	1.2139078348029142	1.1081844540273595	2.1037046856218837	-0.49665015810505714	0.39927369255348477	2.3759970604989866	2.2380881253002984	2.7747108866255097	-0.021557992269804357	0.4780817019789949	2.098827595180096	1.88886761188451	2.927296154260899	1.1641020745450557	1.6493904548963583	4.0784749881769615	3.621286859906202	3.4030604276568774	3.9471983809949753	2.4050161777810675
500	-2.1118638462152974	-2.4811937746346358	-2.1150336212164498	-1.333160635443297	-0.435069977138706	-1.4939240179490907	-0.26648551158381106	-1.6043209989096838	-1.3053231206362608	-0.5987673386715159	-0.22162543181254277	0.6223083718800553	-1.3224461045255245	1.6886935191434411	1.0293400261639836	0.9994438265362477	1.7790098145391937	-0.9980935429169152	0.09574706828262254	2.0769948906911506	2.0742351956450173	2.463002437095115	-0.2801479988177645	0.05723756537291458	1.7135857300409825	1.6004369218473466	2.5767440730841904	0.8921273924238033	1.1239683599704802	3.724184503689379	3.2415556825812395	2.918909780762175	3.6735432055231687	2.052527184072628
504	-2.113550419239604	-2.5244712765853072	-2.2596650066545134	-1.5370477399166298	-0.5979858621758387	-1.6680768686141334	-0.5245392905343387	-1.688361282854302	-1.5353441199639608	-0.8244110921072523	-0.36523097661312826	0.2688206725486032	-1.9222663592443392	1.5209563932165338	0.5675969109509887	0.7973647097483222	1.3672844137003435	-1.3236864771801686	-0.33602943931617324	1.653524394628963	1.8619229746539547	2.1623887961152	-0.5078138696247231	-0.5342881666045433	1.1599544257441872	1.234666702014297	2.2082390729464607	0.5573423490757865	0.4990630137241179	3.3244264041890275	2.799947016322537	2.347175830637061	3.2902758038419	1.61646830627495
508	-2.2007214967477893	-2.6819987229344147	-2.387614720992116	-1.7129778818750978	-1.0171868775435444	-2.1333429759523277	-1.033355948700231	-1.8188534929130244	-2.0322606512258465	-1.1992760866403929	-0.6092316492911531	-0.16280534822367584	-2.278218978851932	0.881588397184451	-0.0021176324172497082	0.6084976180925974	1.0178371642164021	-1.4158998692050426	-0.7890560011015446	1.2257536618756675	1.7046232180473142	1.980297798879013	-0.7023107987792039	-1.1417329282544864	0.5808885082837637	0.8875490404608752	1.9278931569062194	0.2291812592919021	-0.08132684210271389	2.9657118245588063	2.4058418213184116	1.842478389856551	2.8938217090023963	1.2146629064410224
512	-2.327661985242603	-2.8678450512005496	-2.400074952741663	-1.7853436424956144	-1.4524327479885384	-2.628310435334979	-1.5497156342480498	-1.9000827026078426	-2.56979202575372	-1.5056847295893196	-0.8049924353302603	-0.4558277416641633	-2.2423353138576907	0.07707019875856816	-0.41947510732601323	0.5595851526437323	0.8912295080571738	-1.2788735595839598	-1.0972292395545915	0.9729076003306623	1.7190897421349354	2.007172341047489	-0.8447586872707232	-1.5460177620955207	0.19189022432993874	0.6879645568644358	1.8414119435549223	0.001119803518023605	-0.4384089995282708	2.7538564135641486	2.178341621621188	1.5749276836686483	2.6184930735281005	0.9785262321562288
516	-2.402036899224136	-2.9564313813907086	-2.261666053783861	-1.700346346376899	-1.632066722563998	-2.8550558018126733	-1.8001083090156493	-1.8210507585324769	-2.8629839348035206	-1.530262943218977	-0.8219573477019788	-0.43646907696198634	-1.8088650657760723	-0.5116726147130947	-0.467214821589561	0.7261432986999591	1.0758058997649302	-0.9805195902864194	-1.118585345305116	1.0405714485599433	1.9701209018557568	2.2675766887634445	-0.9069752670277346	-1.5747349222479314	0.17351090864243243	0.7364578824522986	1.9990647980763208	-0.05760281145930512	-0.44455030448255306	2.7623219420309346	2.1907837335587685	1.6469482141874976	2.5726454193012036	0.9925474499438571
520	-2.3352878034759135	-2.8521437572948787	-2.0216493555525643	-1.4498519860855694	-1.4109519684454401	-2.647435658446483	-1.6312282044234148	-1.5337269267459979	-2.724236719882828	-1.192566153376389	-0.6256278737485054	-0.0759169457426238	-1.131358263020365	-0.6235485657207657	-0.09051191783941151	1.080033299580307	1.5284451207672067	-0.6343983395771922	-0.8147248605185484	1.4537397586358733	2.422173970782792	2.692185156700811	-0.8722811319262724	-1.198388096644771	0.5691392407353028	1.0464621755882226	2.357222551116456	0.05553662390396342	-0.09579770242823141	2.9868802948880515	2.4277465282180635	2.0324726053421327	2.7778353620967473	1.2458549706475484
