time	FP1	FPZ	FP2	F7	F3	FZ	F4	F8	FT7	FC3	FCZ	FC4	FT8	T7	C3	CZ	C4	T8	TP7	CP3	CPZ	CP4	TP8	P7	P3	PZ	P4	P8	PO3	POZ	PO4	O1	OZ	O2
-200	0.25251188810491565	-0.3640335193026139	0.10618893030297798	0.3334172955678092	0.15305590590934734	-0.30237793846081223	-0.14450634979480162	0.7938047031388107	0.3887474229057599	0.10336833421119945	0.223818480403388	0.2379631990146792	-0.08290068784287331	-0.5753950462119095	0.48484548803941735	0.29278835580336776	0.4922092842549564	-0.1794295008420738	-0.23765557944377005	0.43284106145295775	0.3427284947325331	1.4688817225563837	0.16470222133537993	0.7101699095915759	0.9767110919134666	1.3989703619922313	1.4351507389074154	-0.16975285069999344	0.7723029832414676	0.38145086072935774	0.6649889333148082	0.7634647469318423	0.3817561259168042	0.18974682640806606
-196	0.30643975657342093	-0.3816472282310745	0.04746534663375878	0.44728264099680326	0.03478806084552011	-0.5233832584518386	-0.1340571638537379	-0.16678121643873542	0.17925237073940972	-0.0039081121696209085	0.004091859319160902	-0.0779611689864212	-0.5736056551756252	-0.4136899103210424	0.17545901194619162	0.029587747454447175	0.13101574745478528	-0.2883482568136471	-0.5909514412264969	0.04070810963366447	0.049074567730503074	0.7563397269226706	0.18378114653917105	0.6825363022738012	0.5597354159528317	0.8142390230602109	0.7581956963470009	-0.31750681916182755	0.5489413128344849	0.19653433511704924	0.213104485927417	0.5432726131074335	0.20072025009976696	-0.03400861835834082
-192	0.41168308154116656	-0.3494932940719142	-0.06985674780851484	0.5242874013061538	-0.1922117168818843	-0.827579376992289	-0.15020132026897148	-0.7957386354383102	-0.0574955864289152	-0.22209340277865405	-0.30319034976704967	-0.4610932755749719	-0.8320197442029105	-0.16339854854814406	-0.28143697906010035	-0.33891111526753115	-0.30857628506000057	-0.3831391026837135	-0.7896519283385044	-0.46315899374373715	-0.34995996863700485	-0.08867710061334252	0.0687881780914213	0.4421409357352029	0.002168860746659668	0.044912323242282025	-0.045903131249881796	-0.5002270328289976	0.26133981281102087	0.019517568822101775	-0.2666704945984045	0.25845643812729113	0.0430201626227936	-0.1957102860039488
-188	0.45669001225562944	-0.2833005182742979	-0.18468455923658955	0.5167586790389377	-0.4773722874986693	-1.140615579586348	-0.28031858731068093	-0.9967148874867412	-0.23741427004000615	-0.5004998432874458	-0.6622993929353987	-0.9032078958595728	-0.8134914616073253	0.00447070504341293	-0.7399682383928377	-0.7567567210164664	-0.7976146320232345	-0.4352432776429529	-0.7472671251503802	-0.9169380045628532	-0.7869777063527634	-0.895162997369905	-0.1917172069477538	0.07027108204504427	-0.5459336624667123	-0.7218259554758435	-0.8151248076839815	-0.6360212548410391	-0.03285688526083439	-0.138373598107023	-0.685997603591814	-0.03370438880159474	-0.0835543496287329	-0.27195849946023665
-184	0.38252061508876317	-0.18945445072501974	-0.2140371794065075	0.41673153533625124	-0.7118996959832352	-1.3407221998697016	-0.5125142322951983	-0.848482189420441	-0.2835161082739062	-0.7297097426110902	-0.9880126093715053	-1.3496118749876382	-0.575872479415355	-0.002500489347820477	-1.0381324265018923	-1.1236760587932397	-1.2691420284653412	-0.4565838563835525	-0.4685280907245815	-1.1603431672364308	-1.1546699971610324	-1.5159952602258246	-0.5581567869399412	-0.2897056631880124	-0.9413706040456921	-1.2949031558722244	-1.4078087771157906	-0.6673790795642669	-0.2805751853057912	-0.2767268710302289	-0.9941291783982682	-0.2799513034905023	-0.1900361920565588	-0.29160621688652205
-180	0.23253878892362292	-0.06089347213033736	-0.09976326649035143	0.26976612142164347	-0.7746214847080871	-1.3098738160440828	-0.7317029815319915	-0.5332739339716059	-0.1644186075350935	-0.7886323312875507	-1.1699454754855028	-1.698396916869797	-0.2439359271328011	-0.149283602456843	-1.0625441047544677	-1.3236898150402676	-1.621164079387789	-0.4880542742804767	-0.0539497769006952	-1.094735142804907	-1.33747601171414	-1.8582068634801705	-0.9433317160631406	-0.4952405082596782	-1.0871463986605536	-1.5423407515686105	-1.732575412190609	-0.5848149642484293	-0.44385731108182164	-0.39523303408971794	-1.1749215096373682	-0.4419157195854877	-0.2898598902059793	-0.30883693617094526
-176	0.13462382521018687	0.11272944481521614	0.15551757773235586	0.15726517101159687	-0.5902497753499726	-0.9891968940555574	-0.7777243236933257	-0.22480317893491372	0.08603645839426717	-0.6032257660894587	-1.1123080225517996	-1.8238142682758658	0.05353078605130444	-0.30353972239151855	-0.792949734116311	-1.2639722792184447	-1.7374331907275387	-0.5608927593375135	0.34077635321410055	-0.720196781724311	-1.2498775689039938	-1.881451840418858	-1.2298276393357797	-0.4674775588630676	-0.9539840197319248	-1.4227516615232538	-1.7482306913106291	-0.422990112428833	-0.5005871640918212	-0.4815854120016583	-1.2202342717834014	-0.497346429761243	-0.37948524856124	-0.3600563397853726
-172	0.2239904249019697	0.3279877892796375	0.48357719060876636	0.15733970661970031	-0.16965636568150688	-0.4111672629465826	-0.5379931317097826	0.0044246073700535725	0.3822805871848587	-0.1862289155788208	-0.7733238319899584	-1.6228779513393337	0.24365797577375403	-0.32311317243060134	-0.3062660090343393	-0.9093742943692422	-1.5265876016221163	-0.659398554090794	0.5705857858557045	-0.1326309886206367	-0.8673220254934805	-1.5812632997644078	-1.3030419316771764	-0.22445432785108532	-0.5805995449666221	-0.9786318515865041	-1.4492087327607774	-0.23398630261949985	-0.44157457240197706	-0.509351431037467	-1.1063193054877571	-0.4375450004021105	-0.4320630718289912	-0.43391501793980924
-168	0.5527561292997679	0.5576087222326152	0.7793650607459154	0.30006152315675466	0.38883155486164794	0.30815443318766783	-0.017149817155215814	0.1972031439332241	0.6253155454106709	0.36255133060472644	-0.18780042183667867	-1.0643724176236922	0.33193144118427725	-0.14890147708015275	0.25756266648114073	-0.29993566794962917	-0.964795229383279	-0.7196995001742054	0.5620593414421121	0.5161426650367393	-0.23901848434660194	-0.9794886087483424	-1.0929940911354137	0.13047324088057055	-0.05771014452311341	-0.30561041754811	-0.857667682389651	-0.05559767023593019	-0.2704881720866295	-0.4505752313682052	-0.7968813160804142	-0.2672354274201593	-0.4108254005073365	-0.47514486192903665
-164	1.0424566242601399	0.7553326468470882	0.9469035839969325	0.5424966202390619	0.9372435188472191	1.0128157113253324	0.6556366069452931	0.4435268927343435	0.7448863964347723	0.8955824352541305	0.5371018634587065	-0.21761140172376212	0.37767180705084963	0.153887986748311	0.7499086241862221	0.4552932072111672	-0.1220088970560967	-0.6668116433474378	0.34573936375111547	1.0748658153099064	0.5216848241032521	-0.1317335214865195	-0.6075517519870448	0.458190141951549	0.49748998754782203	0.48070061085452387	-0.030779659670366222	0.10758410367029367	-0.007482940777870095	-0.2954655878236622	-0.2740152471299859	-0.007665693274902911	-0.29389774725144874	-0.4192316819573651
-160	1.5107544622425353	0.8743967391825888	0.940251288424281	0.7814179043114418	1.3369482721906312	1.5640743931381889	1.2850652900675947	0.7836929539921297	0.7251971345711834	1.277310845011184	1.2515665261140851	0.7551252226837936	0.4454952169137917	0.4336962986963582	1.064176199133587	1.206323024565106	0.843647656694915	-0.4653057742291923	0.045386783664076835	1.441294547256772	1.2659910885318901	0.8559878446901873	0.05819608628957909	0.6489300115413883	0.9708315705583769	1.2648234335436883	0.9247358418005509	0.28001177240247427	0.3056781284244039	-0.06735697371642986	0.42213591826671354	0.2990160576900338	-0.09552570408306624	-0.2363339656585021
-156	1.7625740722024552	0.8900894500194333	0.781222579891006	0.8999682642149202	1.5102533063905292	1.8834791135918403	1.7036651329896135	1.144177910777	0.6013568028526002	1.435153838348936	1.8070559456024173	1.645994063036342	0.5596354589637957	0.5402942882248163	1.1618182629816078	1.8027049257540886	1.7282044843909756	-0.1506685312758638	-0.1757207657430619	1.5826352794743839	1.8482341719693995	1.8222596599347591	0.746507285140702	0.6660388691298759	1.2768497434803658	1.9361065577262417	1.8502266360299207	0.4898988592176836	0.6042189582828433	0.1765699829173552	1.174254891291883	0.5889353141220596	0.12963995304755324	0.0422521306997697
-152	1.6938796000629648	0.812853513095905	0.5480743036737711	0.8253641107701598	1.4609156810115547	1.965062613294309	1.8456060839785982	1.360530253790028	0.433198480704451	1.3786323035719004	2.09848212665985	2.268464559549777	0.6887714249387231	0.40883180395856733	1.067410704778802	2.133053058960872	2.3451054037013703	0.1810407633978965	-0.18926940810578174	1.5236394366896793	2.1622888987308087	2.5741333896496195	1.290080901703491	0.5489044175594621	1.375189539298366	2.388506644894283	2.5608744556620993	0.7388561349334263	0.8079836944207611	0.360451548381558	1.809034819803964	0.7841203788987349	0.30258384270566896	0.33067694222885696
-148	1.3470674719178903	0.6824465972836408	0.3400608292577009	0.5686159715601408	1.2573761908256744	1.8549760533229223	1.7587910846174017	1.2723069158856342	0.2729776792786779	1.180340644717375	2.088109249565067	2.5124015744673427	0.7651489953750082	0.09523394679820792	0.8421089627939232	2.1494519656272324	2.580229514283276	0.4183733154701219	0.03233766175092628	1.3155488934681092	2.1635405962679317	2.937885277006381	1.5702900846889631	0.37670394683143044	1.273264643315467	2.528296941095912	2.8956646846141982	0.9865174864657342	0.842116294165212	0.41597357287287867	2.1543600504842257	0.8124989846696761	0.350347994873513	0.5249980078793719
-144	0.8884131885986472	0.5485684857823561	0.2378794544889812	0.2251466208972424	0.991786656259865	1.6160429675309067	1.5582576950785338	0.8365258553365531	0.14595118128167042	0.9330682730958892	1.8061156227288147	2.3695261418599287	0.7290280442905152	-0.2569324963758439	0.551864503420824	1.8717787218519717	2.420872205344184	0.4903316783446273	0.39198896189904064	1.0066925261830162	1.8726185512947366	2.8194501328809625	1.5565210541527428	0.21486541574589282	1.0163755391209102	2.296282762451955	2.772864096316452	1.157921430525321	0.6643258912480008	0.30722576302208954	2.1062891430128197	0.6340666397298547	0.23545354545274763	0.5480741248598372
-140	0.5182772861746909	0.44731828457428896	0.27239555051694875	-0.06682657433565457	0.7343566995199815	1.295440789766741	1.3446266617205005	0.1893017287243296	0.05149132372849643	0.703475533139819	1.3275040354591046	1.9164316605820073	0.570775447834901	-0.497575728829115	0.24244658587755863	1.3696088756314255	1.9434533070134181	0.3985367109250202	0.7010183316651575	0.6262601002140418	1.3584303821598926	2.240383857792671	1.3066625562102716	0.07636847327739917	0.6670712215747793	1.692999239461855	2.219618553279669	1.1698371142415747	0.2864046983640406	0.042138960106078455	1.6688711601084047	0.2613698833542341	-0.030852226462551896	0.3788546016187862
-136	0.3632039418587245	0.38571384451757545	0.4119890023797039	-0.1929049934046777	0.5057049976932494	0.9115675068728603	1.141011116008079	-0.4000815739067307	-0.022357350158868937	0.5053394424077648	0.7383701782657994	1.268836495056994	0.3412479451623728	-0.5462791905916028	-0.06906977278437108	0.7318366151452406	1.2697305647263675	0.20662085659789273	0.7618042807418818	0.18707378161405647	0.7095496636596091	1.329230782013888	0.9279926395828556	-0.07900781164487336	0.2821517281561199	0.7924033979436792	1.3585395778688454	0.9653404926723077	-0.22020433787539584	-0.33163055693821075	0.9477287506971197	-0.23535975754443034	-0.3946644355823187	0.054762717198153676
-132	0.4128437627859473	0.3426484754971241	0.573386250478761	-0.11706230759867597	0.2799965732180949	0.463946549913166	0.8857476688910214	-0.6638457162309026	-0.08275146761505486	0.30507719439729564	0.10980819137982731	0.5355877862759446	0.12857875195465146	-0.4213709522575975	-0.38554817340784053	0.041062366113702294	0.518270133617336	-0.0029625347740657192	0.4643211054999889	-0.2982338659386212	0.009748594810787745	0.275126843949918	0.5215500580017551	-0.3078243128634128	-0.10156141940939552	-0.2647297673694176	0.3610727479878388	0.5417712913186213	-0.740831194437717	-0.7423099260662163	0.1048763019178872	-0.744222221879717	-0.7794054130903265	-0.3491336098439252
-128	0.5390491471986021	0.28690123485608837	0.6524727924086032	0.10347546610933214	0.013722934725506213	-0.04346944753281497	0.48484542843477274	-0.4865672874086969	-0.1257225718900319	0.05333976806644278	-0.5106123076898623	-0.20578937180537532	0.010983806075736497	-0.2145435953684018	-0.7115943413888218	-0.6382043941597154	-0.22625978233909594	-0.17511999562872632	-0.14908277950794055	-0.7998966554473436	-0.6740944368509316	-0.7366849165436749	0.13947810197424476	-0.6287069304805387	-0.46580296637233093	-1.301855441621273	-0.611161886102686	-0.042330991369898735	-1.1518292397982095	-1.1135138245125613	-0.7022303921136048	-1.144822117776106	-1.1093707056646844	-0.7503386716971907
-124	0.5814624414068569	0.19961260208754122	0.5667160735127219	0.34957677037671137	-0.31600230852452804	-0.5804055914530127	-0.10890126200837594	0.019417319397778122	-0.14175070786450308	-0.2747292809702699	-1.087635275955767	-0.9039748884266061	0.012979521383357541	-0.0300519558773665	-1.036186692482757	-1.25416540782902	-0.91379141576846	-0.30388370079564886	-0.883185086404663	-1.264498826649061	-1.288095232572457	-1.575027700262329	-0.2232691938008472	-0.9852099989812423	-0.7960851172375148	-2.1498951857646635	-1.446636315508056	-0.6841064078225105	-1.3590086664220433	-1.3793730700952986	-1.3641977275737982	-1.3454394306546056	-1.3260118927855646	-1.0800642939955118
-120	0.4461475599468889	0.08639039077404984	0.2914223365578542	0.5026848303501055	-0.6850797516692352	-1.0856355401286015	-0.8429825284655458	0.5641781673492382	-0.1260295507110113	-0.6527797563284216	-1.5799857338115175	-1.5132191142977751	0.09020747221582866	0.07275444250811566	-1.323727723594249	-1.7545150474120113	-1.50945388889682	-0.4193334568880621	-1.4624569379122654	-1.6225911337893986	-1.7797361567385928	-2.1781754438719734	-0.6018110498492866	-1.252403971371065	-1.063569185432727	-2.686190598381595	-2.089891190020773	-1.2680393425397805	-1.3274414505822483	-1.49556719879211	-1.8290345622614042	-1.3119882312075066	-1.3965437377002623	-1.2912722793402538
-116	0.16058562655436098	-0.026755390621226102	-0.12535847691834065	0.5014842735980707	-1.0234292719751106	-1.4834363423087604	-1.5692613085227374	0.827182112035864	-0.08610368498282348	-1.0057092879652838	-1.9320950459336965	-1.9791402766803972	0.14598321877815632	0.09667699759631855	-1.5196829995887673	-2.080908293238643	-1.974641556522688	-0.55804812767279	-1.6469265180968542	-1.8092281772711272	-2.0929517693129727	-2.5383815701292884	-1.0172456477231444	-1.2886139121899831	-1.2190953462339087	-2.858178131516704	-2.5218963559375114	-1.6993975596437598	-1.089730140795754	-1.4462101422989877	-2.0848438687139366	-1.076199409628744	-1.3161870207934634	-1.3582626546899181
-112	-0.15000005028523433	-0.11388529808378227	-0.5789082035707459	0.3639665236820555	-1.2446373669671509	-1.7131072239539338	-2.1067368931032417	0.6262191518231844	-0.04164047901249981	-1.2417790858388082	-2.0855636544024265	-2.2447867336818237	0.07217346858637616	0.0814384592503546	-1.5698225458565254	-2.1806397382993454	-2.263890499121262	-0.7370802741514718	-1.3423583473646552	-1.7880281164802307	-2.179041141730506	-2.672929518626868	-1.4410686456536437	-1.0114294265006465	-1.2076495855358778	-2.687075846563564	-2.734670393715128	-1.9265192698476152	-0.729741869514543	-1.2466515271183156	-2.1349210685234166	-0.7199993711413133	-1.1067361803722637	-1.2745481697328198
-108	-0.35043862373566514	-0.17414182380578705	-0.9527152156617945	0.1638393695986287	-1.29044973524443	-1.7584094956825131	-2.3322150648362103	0.0073495209031513966	-0.0171092953100966	-1.299415942726065	-2.009388203316065	-2.278883213011632	-0.2036340082510942	0.06272450073618237	-1.4464833699899484	-2.03431796513972	-2.344864124099929	-0.9455295181243947	-0.6472520811905527	-1.568331595275878	-2.0224268385370516	-2.6040785246905926	-1.7917611553730886	-0.45272284631868515	-0.9991487835453544	-2.2547554912860495	-2.7209553649869376	-1.9478851507598582	-0.3488956979049049	-0.941667435175924	-1.985460753196422	-0.3427878013539349	-0.8127138594135489	-1.0548014614176928
-104	-0.3908021738199142	-0.2438910597365597	-1.1708978384973194	-0.02113303723066082	-1.1660246819620765	-1.660873289683346	-2.2470910492430223	-0.7881616930135925	-0.03153848640108586	-1.183490154139355	-1.7305955843147482	-2.1068553871367564	-0.6828188282893233	0.04558003682311193	-1.1680328816487788	-1.6824580388506516	-2.2269596997302505	-1.1563889951120148	0.18758161318626065	-1.2065551250512754	-1.6652938085473072	-2.3584179818690534	-1.968496556080439	0.23830747544203262	-0.6193329676250248	-1.6800838666459523	-2.484938138409972	-1.802712793567179	-0.02829118810901824	-0.5953137859573043	-1.6529235798111441	-0.02439196215372059	-0.4922329472988725	-0.7378251533953493
-100	-0.34684994729208896	-0.3839097311340689	-1.2313766448402916	-0.1570720817653345	-0.9437262988105575	-1.5046510658422345	-1.9760819623646935	-1.4576899968537442	-0.09147816128284524	-0.9682955717435211	-1.3400493826411757	-1.8160824729844125	-1.2906513181525514	0.01044697963789002	-0.7990738133282967	-1.2279293506137656	-1.9725860307481535	-1.342704173512769	0.8675047733339004	-0.7887907604329638	-1.2092488973604532	-1.9774926850936756	-1.9024885844834822	0.8529328086299379	-0.15744835098569035	-1.0891613932767432	-2.0612621255331183	-1.549937601944633	0.19804033587046435	-0.2722992890158795	-1.1803176373245499	0.201349108902882	-0.20157603868613017	-0.38320812486218914
-96	-0.37890493774117195	-0.6451085193559072	-1.200565573522208	-0.26832145384754735	-0.7302110176723856	-1.3765475715214996	-1.6993557171832332	-1.7921175911479454	-0.18925313603779914	-0.7624728064359947	-0.9613730883167848	-1.5236638745939755	-1.8963661145969015	-0.05711112529521371	-0.42819186936989295	-0.8024106601483327	-1.676854844628043	-1.4808576069637085	1.180744406580064	-0.39945697683570636	-0.7824341635022963	-1.521113987896922	-1.5957763154748363	1.217205163743564	0.26100179487135305	-0.582101701220459	-1.520740266775124	-1.2437716691086187	0.3499250999198993	-0.013948255183349505	-0.6398943646487653	0.3536205878866433	0.02524343312863878	-0.05334875719191027
-92	-0.6276155694374567	-1.028905508304668	-1.169321891693437	-0.40828940169248074	-0.6110980495282927	-1.3198897805268515	-1.5535236557838454	-1.760011906948609	-0.3039570145085375	-0.651596961760485	-0.6928812843948995	-1.3195999827446854	-2.3475563466883465	-0.1379438933227609	-0.1308562901292525	-0.5074303733412064	-1.422279235109957	-1.5424845179714457	1.0829937430695367	-0.08963190741558885	-0.4825747000908201	-1.0534946891889365	-1.1273381681589938	1.270675775180829	0.5260435329507374	-0.20439283498181385	-0.9519160961913085	-0.9156023836860984	0.48505416390024914	0.1794753517149515	-0.11413543642553126	0.48917224879738375	0.19198383342432215	0.2116435760876606
-88	-1.109134790481259	-1.4648835622042344	-1.1945368021369775	-0.6097986682754698	-0.602991639045372	-1.3075305190452993	-1.558481093286588	-1.4837254248351912	-0.4039428819948212	-0.649435220509229	-0.554247437508283	-1.2196357219420781	-2.512558692310574	-0.17644013419903984	0.06388434006535779	-0.36204749254371216	-1.2367063729533612	-1.4893504343577326	0.7007856351325418	0.13932083511940196	-0.3270019880621862	-0.6207352264944702	-0.6250644310428662	1.0884848805602505	0.595476864264998	0.06346350147198365	-0.42984303723529205	-0.568800269121321	0.6641569120804892	0.34683355601481713	0.33416944657833086	0.6679918749156555	0.33809682641498806	0.4103335727822141
-84	-1.6762872892019245	-1.8226214601276323	-1.2598361937186335	-0.8487685897378636	-0.6420352442744026	-1.2515752283922004	-1.6102769334191829	-1.1363155813138182	-0.45335349326113894	-0.687490521125734	-0.4721029090882824	-1.1550890178127455	-2.3204195440835202	-0.11432044179186637	0.1820657248668663	-0.2898589663339876	-1.078903791564665	-1.2843341794966256	0.2567646794989025	0.3253044775855913	-0.24109764336273015	-0.23462267160783765	-0.21593412702401735	0.8352513888251835	0.515627859721114	0.28932383583454524	0.008703920036930792	-0.19008962762046502	0.9125758386459797	0.5414198027292684	0.6837915760896017	0.9151564217350149	0.5155254589416485	0.5765311107384602
-80	-2.075534338479262	-1.95807861787432	-1.2811456886370611	-1.0472513410830564	-0.6192958935360681	-1.0500885221672018	-1.5451123675436684	-0.831858990476357	-0.42301529539118704	-0.6527685506552321	-0.3207208208092916	-1.012485263175532	-1.785977597495845	0.06346158667277507	0.28257614302817147	-0.16096745390782813	-0.8664242007314955	-0.9168929434515168	-0.03792726238927018	0.5124965893203893	-0.09999409292724194	0.121226124159399	0.023407811239867366	0.6744876486915221	0.3940429379528148	0.5466531501319795	0.3652603020982837	0.228095799108638	1.1953901022294278	0.7926830033316146	0.950677809699226	1.195937630494952	0.7525771837307236	0.7528234701223137
-76	-2.074654812343177	-1.7760363772374357	-1.1570705146186557	-1.1165395946923	-0.4463330197986393	-0.6500240547934784	-1.2421046464077494	-0.5774606451713855	-0.30322858614657655	-0.45602807287474756	-0.00168207322288305	-0.7073035818362089	-1.013458726231546	0.3012311749005514	0.41418832435939584	0.12738569048667825	-0.5359818921862045	-0.43225547562184036	-0.07601179163338317	0.7137789708236137	0.19283080052328086	0.46070816996605035	0.08906353242560693	0.6785159689938516	0.33660292540443176	0.8616600610912716	0.651968954347589	0.6646685583499494	1.41941845058654	1.0744539472155483	1.1568452090619736	1.417628999945611	1.0237443421265977	0.954034683679856
-72	-1.5931680162260504	-1.2798644271962043	-0.8373197892029568	-1.0136160824933556	-0.11423146695860255	-0.09181666351025064	-0.7027508598704695	-0.313848196667784	-0.11500599206260027	-0.09249369776738375	0.4823910879830531	-0.2444750660445945	-0.17478771463610365	0.49040043230220215	0.5779374823283847	0.5769756421780727	-0.09585954224702974	0.06380522235019881	0.11124561698960148	0.8927771426548594	0.6347286685177034	0.7630858998106065	0.03992279608898963	0.7921935299899548	0.38528993628500313	1.1809580296263997	0.8589595534572512	1.0581657859789009	1.4691224061113792	1.3035225835314317	1.2949843373982035	1.4652787409980976	1.2487597433986983	1.145544168441092
-68	-0.7596293668641637	-0.5816025719263701	-0.3680683663135298	-0.7745505551809835	0.288632868991731	0.49260482067668726	-0.06057777985537185	-0.0015046691949674262	0.08917830116883219	0.3409391334985712	1.0057493422864716	0.2714343660177275	0.5373958931706411	0.5220903145006353	0.7182931285842808	1.0666282150041662	0.3628961732762038	0.43795752414755945	0.3880106498935515	0.9766206120629259	1.104353663517317	0.9634132956976507	-0.038194343351253796	0.8699706174820326	0.49117618675199526	1.3821617329987195	0.9421938037926065	1.3179817166431191	1.2613089052780255	1.3733907903328755	1.3146510091014796	1.2562608687154533	1.3252009119907981	1.251728293119597
-64	0.1399121429964033	0.13651956583364308	0.11773173481303884	-0.49974650018403166	0.6153396352490901	0.9346163249260873	0.4855710553784363	0.31821915426973973	0.24100899635501175	0.6872792822651833	1.37147688519397	0.6869313699545078	0.9717274283670891	0.34833383472234825	0.7526259999346714	1.4037629330479413	0.7083946448560677	0.5908408150060731	0.5917907938321048	0.8975624419439252	1.413863297707499	0.980373618511733	-0.0746930314204766	0.7668380717943888	0.5421807156225499	1.3317449059241664	0.846759972818649	1.359405990983113	0.7951334694814336	1.2101570337259582	1.147117969477768	0.7901747802811541	1.1820363968569536	1.194795247876071
-60	0.7966792563351358	0.6935386044158229	0.4629939782850931	-0.29775684996768814	0.7378494720903562	1.1120425434646404	0.7788002471334499	0.5324726091292687	0.2836312644473215	0.8109649995356095	1.4160134756576976	0.8873403646000435	1.074218628078569	0.01456714790361875	0.6251866205643473	1.4283235037027897	0.8445582368508497	0.5192248808149377	0.6098024233680812	0.6417838318833747	1.411180015815775	0.7734901289484618	-0.037925980889410744	0.42945516001039546	0.43296176085832316	0.9664328073897036	0.557704268477949	1.1492345304083982	0.17368046895522912	0.8237354138557843	0.7603936176175442	0.17026701526568902	0.8283137062140679	0.9458799934347891
-56	1.0265368197272744	0.9815047954574244	0.5696744904440344	-0.22016654853070364	0.6196867807955182	1.0167711947519302	0.7896695713133134	0.5327815400023596	0.19902230748949848	0.6742129904890906	1.1080788345970842	0.8674409963641517	0.9102541185285504	-0.36167791394471543	0.35323819428905223	1.1107989521591863	0.7744057754991895	0.33088850891495303	0.42049470437696684	0.27382084658154177	1.0745809051085993	0.3919533481238773	0.06257065369782491	-0.06664819998603398	0.1352990117233366	0.3517131796540018	0.14167270028585024	0.7385284285972785	-0.42422011387531255	0.3212632230753782	0.20820191450005177	-0.42489966642868104	0.36499333289500874	0.55610233404901
-52	0.8528657534047349	1.006666776976538	0.4582968342654276	-0.22826234938688114	0.34497848066015624	0.7710438947284112	0.637316821396606	0.30796414535970285	0.021483648514150803	0.3676536073939074	0.5866738543003461	0.7457901220565751	0.6391291006164261	-0.6504622681407607	0.03843497475218511	0.5889644011886365	0.6141597017040955	0.20117527195683346	0.087636716442576	-0.07904694954465019	0.5459185228869775	-0.017611298665643548	0.1966542745631957	-0.5532566295006832	-0.27143824031962815	-0.3191740206766307	-0.2515083545056885	0.26125901871523177	-0.8122760632987789	-0.1284310069417875	-0.36132398156493273	-0.8097701052248141	-0.050112914167481495	0.14650301598276894
-48	0.4799818682473145	0.8785359241239206	0.26320907407110244	-0.21607123260781577	0.081433489713109	0.5750948772215785	0.526480911832995	-0.01523306310056161	-0.17316980616240527	0.07189477216927126	0.10701282295388628	0.7060614806468705	0.4477418351789935	-0.7714646439148184	-0.1711782659738757	0.11369562120342466	0.541084884231121	0.2897426180676798	-0.27804890204800925	-0.2810967557485814	0.07456048559199198	-0.2601857774841158	0.3429098716661267	-0.8598658420787728	-0.632364390684012	-0.7962071875497067	-0.44015270360445	-0.10725356611352627	-0.8751404263335737	-0.36519569066351026	-0.7525052409246613	-0.8700474478689542	-0.2697167091712494	-0.14122883939848974
-44	0.1728879059956518	0.7518451790900852	0.16407144028247575	-0.07902273515777132	-0.004974171506720904	0.6082118734262657	0.6361280067595623	-0.22418501916550884	-0.3004432611032548	-0.03226273871263278	-0.08293927439968736	0.8958369470866788	0.4669718730580699	-0.7254894953530685	-0.15121224484413215	-0.07316897045974013	0.699696956298468	0.6549524648342885	-0.5649769887965012	-0.25348210270779753	-0.10385606411700389	-0.18128232612140005	0.5037623631156345	-0.9053916312246955	-0.794985947985987	-0.8844553805909089	-0.29608893319714946	-0.21890865211053967	-0.6232341512203693	-0.31097948472663206	-0.8086448887435852	-0.6170902236617235	-0.22579397204135232	-0.21096783823154808
-40	0.10980469705753618	0.7466589789612723	0.28718435691805666	0.21071864611353253	0.15987785120176257	0.9300269461039036	1.01647567492388	-0.1388353999924156	-0.30672892850681865	0.13988585734812373	0.12600508300439278	1.3362549509643542	0.7100476604654502	-0.577437220546048	0.13165697422165998	0.1325532641640458	1.1154326172323263	1.2162253825952196	-0.6971536261123233	-0.015528284905388755	0.10721187266461114	0.2480979853565077	0.6984487754353779	-0.7395659666462642	-0.6903139931416157	-0.542025445523302	0.18011976733031362	-0.019684746811758618	-0.19437539528409062	-0.008193123133656527	-0.4944356369409858	-0.1890294249053607	0.036716893222614004	-0.060279223915735994
-36	0.2887445084911135	0.8868422485849131	0.6315551384239397	0.5699917659673728	0.5136697875405413	1.4363551103567063	1.5526874026197581	0.2756466858580141	-0.1948111946432656	0.5273089395561241	0.6383517368412281	1.895187611563378	1.0653834316058197	-0.4031159569576176	0.5926528558073147	0.6342463477333987	1.665885325040565	1.7891826584466153	-0.646873353278606	0.3222512892693252	0.6060730799631903	0.9001451708001669	0.939564344894979	-0.5087592588931187	-0.37026607896781694	0.09104011929891624	0.8400841334113706	0.41845130814761355	0.2049623573612048	0.3992432345800815	0.07446729373012094	0.2082559163080819	0.3812514533907651	0.21773953680854452
-32	0.5393171892854802	1.0894286605032413	1.0626502010219	0.8378595092600354	0.8851537086073343	1.8976651382218566	2.0163161703701062	0.8739908315526931	-0.020708765782285324	0.9490289068103227	1.1938618391412452	2.3435296953160663	1.3539346422344147	-0.2369002246835998	1.0591573688468807	1.1753644913562205	2.1304640716169447	2.175103420488006	-0.4303062547309945	0.6102649554103704	1.1364601821816782	1.5361752471286103	1.2074906795533078	-0.36825039889821426	0.019265495192047625	0.7526335101198941	1.4426547252471122	0.9213492847068977	0.3916793157702143	0.7328315358733195	0.675506232463517	0.39300873776392814	0.6450825913354954	0.4794074582870643
-28	0.6265037640012684	1.206135031515959	1.3754669393144503	0.8586320259350373	1.0782483788923696	2.064012283836111	2.177464956508045	1.3962001765286443	0.133802503009578	1.1908922165367433	1.495087619821458	2.466648333997531	1.4207620584856746	-0.057505246106634725	1.3441402878203612	1.465771909827724	2.2952794970736288	2.255612367657177	-0.09802997832582039	0.7294481974304761	1.4136775696348478	1.9121168803576107	1.4414937459791084	-0.391648768389844	0.31415226976233795	1.1793717116143527	1.7608514979727954	1.284837838743706	0.28885742949035537	0.86158722421554	1.0785533162542706	0.28975945637978634	0.7163303476367827	0.6000987872231469
-24	0.3857333650386901	1.0972989769888026	1.393668409643557	0.5703951105975494	0.9687523221352817	1.785169716142599	1.9178194951274536	1.597640629549414	0.1996675128664019	1.1092909546501764	1.3561217750642809	2.1695096437992483	1.2150107591470534	0.17961138441514668	1.3275127377372198	1.3271628584732715	2.056187624508332	2.0401887842166944	0.2715932123956529	0.6419623477940263	1.2668858734569992	1.8881100368513275	1.5575828512920906	-0.5342564569336028	0.4122660447679204	1.2259683578056064	1.6847319560430916	1.3609534467668647	-0.04298262287255078	0.7563470582939595	1.1484392852398129	-0.04022136320449635	0.581094561540232	0.5307397232960889
-20	-0.1812898661089451	0.7070034724505225	1.0573353740699867	0.05093003796593459	0.5660882577908878	1.0902032824647865	1.2896184888704911	1.378064748145782	0.15162053665981273	0.7013399583275535	0.797055838479876	1.5234168729466497	0.8147147873336068	0.4876236009207395	1.007797715503651	0.7830182294149758	1.4690241776570372	1.6420839983489484	0.5786020145113078	0.3984807123613951	0.7248248439608562	1.4878629408464734	1.4845539293954773	-0.6702301485306099	0.3137303284830383	0.9234296656182407	1.2676837412299482	1.119947788271952	-0.44121700413887227	0.4911113667009657	0.8988987184717708	-0.43475702295210295	0.3189968458704832	0.3132050029476367
-16	-0.9054245925931731	0.09713389699969076	0.4509569097100608	-0.5121130930368727	0.006099665056415078	0.182733371392471	0.49082279081401425	0.8268123248206111	0.0136550701809879	0.10351163122745831	0.03314271188355254	0.7312952261581126	0.38047996067306267	0.8077653626075001	0.4989375459471824	0.04491799685939226	0.7217342835324103	1.2030025690223418	0.7192336302718172	0.10230888400473354	-0.001067950271167656	0.8767183400907287	1.2014673917953829	-0.6784033758201551	0.10330412510777728	0.44719031340227927	0.6914740783399501	0.657322762737087	-0.7230169754847383	0.19477835248407727	0.471475927831473	-0.7125622612128856	0.0532615332450823	0.05059223236781323
-12	-1.539880510257073	-0.573926685791575	-0.23824660419870944	-0.9105527974027658	-0.5173172341637177	-0.6477740390635329	-0.23067647160464014	0.16753709273954612	-0.1578419800587932	-0.47628626107128125	-0.6353481991939347	0.028559723796859733	0.0641659869123716	1.0231130097307308	-0.023452855587397493	-0.5971676692190727	0.0415906458043031	0.8133676627604394	0.620469568593377	-0.14723612330933294	-0.6264327748695201	0.2700211398936711	0.7555261831281853	-0.5225592242398994	-0.11008456321579184	0.015499831138160943	0.16763618546123502	0.14123892748459252	-0.7746230344288474	-0.019332537378734627	0.05232073353432283	-0.7617403845628439	-0.11669478535991883	-0.14959721229453693
-8	-1.8884332132344839	-1.1174488039414083	-0.8068495372428385	-1.0183645461120432	-0.8451144673944894	-1.154822585051272	-0.6897687894572316	-0.3624238362698738	-0.30404892487054913	-0.8570626952467082	-0.9728598570103177	-0.42325869095751284	-0.0744688732532035	1.019401428509938	-0.3976794769260248	-0.9204373336441367	-0.4091498245399635	0.4752531933706424	0.27688711811730293	-0.2982629530051982	-0.9365872717098989	-0.17564712420462783	0.247483848900615	-0.27903190184716314	-0.25742930108879253	-0.2236837739065357	-0.16953913824669084	-0.27089944413454137	-0.6024577006388221	-0.10629320117816866	-0.223591565521301	-0.5898236617455491	-0.16153222281681023	-0.22635975422929308
-4	-1.901328320471214	-1.3949680293149584	-1.1222368450441267	-0.854342279661383	-0.9251497960574708	-1.2432589499555553	-0.8399544933093115	-0.6292783602085577	-0.39103031059721605	-0.966223475877781	-0.9216691828345995	-0.5979880675476898	-0.09359265840265542	0.7539555411376745	-0.5406408296286654	-0.8762814380456282	-0.5974962696248898	0.12818881836951534	-0.2277917409152452	-0.3574362090146288	-0.8892437793214951	-0.43078362832979533	-0.20890162832446466	-0.09312552190156889	-0.34014248762083704	-0.25842726165374724	-0.3217110923750897	-0.501743553802189	-0.3219639948822332	-0.09879775320381436	-0.329779117466872	-0.31188270370895554	-0.124501548393149	-0.18417401565305494
0	-1.6900607304818471	-1.3748600448228794	-1.1668870419605097	-0.570940373886578	-0.8266783335794944	-1.0038793061660098	-0.7764036039777271	-0.6482323391760538	-0.4198957373031312	-0.8628248550565315	-0.6204175933432641	-0.5943903908027753	-0.12162281542111947	0.29885315819627395	-0.47415569304916405	-0.6038343295110788	-0.6141077264539826	-0.28089871931681515	-0.7267835121878752	-0.37054872419262824	-0.6245592220750256	-0.5845327362561303	-0.5298634754154582	-0.08612072446060562	-0.4127979268142307	-0.19902932593640307	-0.4051927019856385	-0.5732206091713484	-0.0937133354562791	-0.07232007366041168	-0.3387297681362599	-0.08666499682241735	-0.08283710458821969	-0.07485518585617866
4	-1.4574528895774264	-1.1398075790238127	-1.0253357861380827	-0.3757573058654977	-0.6947928053480201	-0.6590222103646323	-0.6690392477310043	-0.5453261719286953	-0.41910153521582666	-0.6963661891521837	-0.32170328416664384	-0.563861487872346	-0.26628130607132616	-0.18083432271123812	-0.3042435042329271	-0.34640097530645186	-0.604616282843913	-0.7310847025532975	-1.0201865408889372	-0.3878675391418071	-0.3810152103817943	-0.7683171014461111	-0.6848355514402069	-0.274779080650854	-0.5350104556881078	-0.19883215377198388	-0.5645546898893337	-0.5697087035100491	-0.04207944486842049	-0.090496226916714	-0.3580671241779834	-0.03614264717513653	-0.09414596086812782	0.04128278781481547
8	-1.3811711038050534	-0.8407589771978138	-0.8270257094483683	-0.4247368563418881	-0.6710936410172909	-0.44710704571373827	-0.6664953811030581	-0.46415036799546083	-0.42477145683809286	-0.6253575666851315	-0.25526553327961926	-0.6212947948982088	-0.5322079645071341	-0.506090401325394	-0.1665090318290558	-0.3183897129603339	-0.6808089596725716	-1.1126774521391847	-0.9569891070999785	-0.43698170670808284	-0.3649326553667806	-1.0593619319872334	-0.6907367688859402	-0.5564035759229443	-0.7271948438404316	-0.3591460278503388	-0.8728637673274808	-0.5720248207908836	-0.19909217903416002	-0.1655186708562907	-0.45559668425927485	-0.190657242651228	-0.1616804446668312	0.12842667070389102
12	-1.5149238071340474	-0.6195716842267475	-0.6753159744378744	-0.7417910080301119	-0.8187751153301	-0.5011572825176585	-0.8186007121399275	-0.47193735718783675	-0.45868801954810084	-0.7343253474769088	-0.5064593540756221	-0.7837815860986869	-0.7978299836042643	-0.5712318405987938	-0.1623008098080872	-0.5906132444728952	-0.8572792389206305	-1.2708171573978795	-0.5097178207879763	-0.5146596418738271	-0.6401039941839111	-1.4188090526998949	-0.5810199365251616	-0.7670611719792197	-0.956263003319158	-0.6700261218320588	-1.2742674318566365	-0.601982592016517	-0.49837651722965054	-0.25446632440216627	-0.6162365659414056	-0.48389115807432803	-0.23632304310737456	0.18550677550686778
16	-1.7582431987240097	-0.5386061654797497	-0.5987622126720781	-1.2048643797018452	-1.0874551507197108	-0.7797262052876978	-1.054070470056013	-0.5243816958539504	-0.5144061433202374	-0.9888378356763371	-0.9696131324129545	-0.9657779311592098	-0.874693212684953	-0.3941041817251669	-0.3122066549524919	-1.0504746410550818	-1.0450301143964646	-1.084719059112849	0.19426120768615046	-0.5944624528181268	-1.0916912528132026	-1.701440091605766	-0.37290534282948534	-0.7785682658565697	-1.1573564977035662	-1.0157648299320834	-1.6032059152180413	-0.6114094837964579	-0.8175498226505458	-0.29185107276664113	-0.7547460775393345	-0.7954415062848551	-0.25285816128786404	0.2306448960441501
20	-1.9089739274465396	-0.552581487691017	-0.545877455286831	-1.6021915633758146	-1.332325574372102	-1.084216472749372	-1.2192754714699652	-0.5078786598734303	-0.5579950795390738	-1.2482343880609745	-1.397346731472649	-1.0274822686003147	-0.6205176695415894	-0.09700430160111506	-0.5450258241244303	-1.4545041285985432	-1.1009438010076156	-0.5397080765449304	0.9090899206097368	-0.6398077591001253	-1.4797728024315353	-1.7319606498859477	-0.05725303277819474	-0.5778930768681392	-1.2734814850126126	-1.2365901438963427	-1.6702206092627125	-0.5228148685606956	-1.0407447788665127	-0.23491537511642938	-0.7721395473059062	-1.0124994490809527	-0.17504493847998243	0.27555200388002743
24	-1.7682156518162022	-0.5354496823143488	-0.4187035550036662	-1.729252095624903	-1.3764473165092406	-1.1525349587905684	-1.1543959350050472	-0.3193752459568844	-0.5404404388134365	-1.3272308077681438	-1.5156415662646205	-0.84347128655147	-0.03240081287190637	0.17269411639481508	-0.7239447217783249	-1.541324134749888	-0.8997526146106672	0.25573468143746186	1.3718931640320302	-0.6104593857611369	-1.5501747092209508	-1.4000619614538918	0.38583779237607296	-0.2764669053726974	-1.2816903558796435	-1.204763051805983	-1.3626332248616837	-0.2915436618119882	-1.106133577415106	-0.09033534653029081	-0.6143308862434582	-1.0759447785869063	-0.018578631756486826	0.31244853060037975
28	-1.244601127343219	-0.35097819478113207	-0.1294373568604732	-1.4799545965976413	-1.090185877908556	-0.7872906307370442	-0.7726160864396823	0.061702690862797074	-0.41839989914162456	-1.0803408595465716	-1.149350878674706	-0.3601977220024229	0.7325855475049525	0.3290897301471404	-0.7019399386803477	-1.1506086558855808	-0.3945104171806079	1.1137866945756543	1.420957919347912	-0.46429395558436226	-1.1496678561748213	-0.7225904446478024	0.9535810923342605	-0.04357514146889608	-1.190708872649877	-0.875137982543144	-0.705514608032437	0.05251634107682061	-1.0177320216232837	0.09334040409602225	-0.29726743623067303	-0.9908796523826078	0.161169841478652	0.3234775654255157
32	-0.40706473486169514	0.06794963759909643	0.3469618252100499	-0.8928517676699298	-0.4537267375457801	0.04119618226617549	-0.10168050203877549	0.5470908866421047	-0.1772289122636835	-0.47241878390247205	-0.3013685338040895	0.3823940148235799	1.420138593902898	0.39491012592746255	-0.38566455147647066	-0.29473161622975114	0.36209654716623846	1.8451489163543253	1.0785822841115582	-0.1636124100130582	-0.2941555969440961	0.1598456795948263	1.5908582170375463	-0.0011252060038499877	-1.0168287728386378	-0.2907764606286988	0.14864249489925754	0.41033652321212305	-0.8216289261100956	0.261590301330057	0.11287209363096469	-0.8023701885946324	0.3084453932604043	0.30482014936735075
36	0.5380866513971991	0.6717768294539814	0.9497309899193594	-0.1344033327285582	0.4236044276986596	1.167179700765618	0.7260341625956509	0.9830673908209109	0.1549337949417384	0.3951711644685973	0.8484271147288076	1.2696661917101726	1.8048959924905	0.4808602618951517	0.21834610347456984	0.8463958480446355	1.2420597045057022	2.334316724605684	0.5530357346877034	0.30845644992198223	0.8378550389116884	1.0503113243288096	2.191534990499621	-0.14567720853265206	-0.7599180917627267	0.45021128540812555	0.9964786742800926	0.6662887318001435	-0.5665160999300054	0.39410313864388596	0.5480412230960042	-0.5565561638131841	0.407828538580241	0.28646418379937627
40	1.3306778635760914	1.3011305299333449	1.5436234435209384	0.5687082991546647	1.3339066471754224	2.2880968989777495	1.5230592450789004	1.2316145865816341	0.5078084456020622	1.3128622737162863	2.016519779836145	2.153116220760193	1.8047507955761937	0.7074741703291254	0.9939824317632017	1.9973434159395536	2.0916707462906943	2.5692872936230366	0.14430300854966377	0.9245660281680145	1.9759559581459565	1.786034341117528	2.6328306131647534	-0.3484376362109625	-0.40167581933651303	1.238330241891522	1.680749412107834	0.7566784601180739	-0.277722954048878	0.5197732435454868	0.977275607502709	-0.27597492863596346	0.49685674780332706	0.3285119823267912
44	1.7621248916005618	1.750097508780281	1.9619849870737467	1.016946193988549	2.0417504259058665	3.085459939796022	2.116643900295636	1.2365934817564417	0.7861648778140137	2.036350483521429	2.9250521586000606	2.8951661513665554	1.5141917428887643	1.1140474052912435	1.749593134277465	2.8905296252704735	2.78227948439998	2.6128873759104176	0.0971413028767854	1.5973163802826544	2.8581726478893987	2.300195449743712	2.8253765034867273	-0.43286439667132837	0.06798519176961518	1.9795726487725063	2.15170406751974	0.7086890321958701	0.040897216544607845	0.6922399980233802	1.4061872923634147	0.03722682213325092	0.6382766945936454	0.4880867886141196
48	1.7546600059077389	1.8573054028348635	2.0685915894733533	1.1097550364132258	2.3689172208104408	3.3526353751413662	2.4070961414598977	1.0445314619395327	0.9025011635882554	2.3767132699088	3.3970603857103563	3.3992264184960255	1.1441401214323077	1.6153353411899198	2.2854690494055268	3.354746810072559	3.239166251587516	2.5432245667143514	0.47372531771265	2.189468378261186	3.3166785156435257	2.6213791304208387	2.751356356350002	-0.28342762517896053	0.6147242768979826	2.5957078868180496	2.4591758189101967	0.6237008555877823	0.38231918119225333	0.9395936107754898	1.8364062262900336	0.37601232433752535	0.8670364000364379	0.7730202655348837
52	1.3804148400740528	1.5788561065865865	1.8123235656757877	0.8744339324808347	2.2581436577051073	3.070998660917128	2.3892278610942443	0.7716046552250423	0.8127725103838598	2.269525760642679	3.3999829206456047	3.6179027466029785	0.8980260468698177	2.0347821661120586	2.4666387972543915	3.355193368070089	3.440730801478395	2.400038713117731	1.116687056583102	2.5544779236195327	3.3167672073547276	2.816910736601363	2.468767398323236	0.082266270906647	1.143438693974362	3.01111506655538	2.6847147873806825	0.6150498374669239	0.7109474521807078	1.221243378416901	2.2148377839435947	0.7034047228220047	1.145883438078297	1.1117100687569226
56	0.8157533386615512	1.0082048152264391	1.2506672112359845	0.4437603641273392	1.7884861185695287	2.401167863505505	2.134763712261607	0.5299266563387606	0.5374470935603739	1.7929462149175208	3.0266449375031095	3.546478739367535	0.854489264715028	2.18856357975578	2.2694718780439382	2.976597301597363	3.3988013181705607	2.168269390353893	1.721799130861005	2.5923769408578314	2.9408485815185523	2.919270031234288	2.0786669201821684	0.5183086978224083	1.5188096723357234	3.1483416477824027	2.8585686611482863	0.7371186595426102	0.9574662422802009	1.4238920175842174	2.415086024862577	0.9483836865322581	1.3614232505757982	1.3640669549834912
60	0.2557962530353594	0.33081695353908086	0.5299285636873886	-0.005003635758939624	1.1349450321153132	1.5952104289787674	1.743474717506719	0.36160516647595076	0.15721210797671956	1.1266789407894424	2.4305417476323927	3.2084309973773957	0.9282718277382787	1.975855107087251	1.7824335053264482	2.365568631875414	3.134530536367077	1.8073513462211783	1.9868754098319494	2.2965612353516427	2.332981818984665	2.8857405112841517	1.6761165814997188	0.8350813963787133	1.622244830804128	2.94812678546441	2.918014995837066	0.9486191248785265	1.0440319750175762	1.4101629221598957	2.2800211848868104	1.0322321627304731	1.3731836045881594	1.3794623578529468
64	-0.17129252807762163	-0.26702317528065	-0.17302520529454526	-0.32510894454889927	0.4894692289392273	0.8755720831699472	1.289699074350024	0.21567892973805583	-0.21923848931273274	0.4696642744604214	1.7517679885505386	2.6442511014934635	0.9277834272802221	1.4282408916653397	1.1616810530896813	1.663593884082605	2.6667919091605525	1.3015383449118685	1.7591842368533477	1.7648394063260693	1.6338399607415888	2.622032158907349	1.3138403859345809	0.9088844037950702	1.41335463167027	2.4078164039855454	2.7392189433557435	1.1344153852431762	0.9289223528297148	1.099762913788307	1.7142367319695757	0.9137722826775354	1.0951968403821717	1.0775085660432853
68	-0.45496833209563914	-0.6918238383946091	-0.7267879229315775	-0.4602206933799856	-0.022538376915175344	0.3378253272587216	0.7883972505691501	-0.020853402040403084	-0.5031561838797992	-0.04731814178798671	1.0668042871243881	1.9068237494963407	0.6737575513995117	0.6956202966293477	0.5618709907650974	0.9600177383026591	2.017716641100213	0.6964269262850565	1.1059720488281723	1.1626778811663883	0.934263584639197	2.057556623986077	0.9952052806523263	0.7467087488395341	0.9590253209696545	1.6138383109355208	2.2276790085815836	1.174660441293911	0.6434807165112011	0.5400623069479361	0.7788897733096765	0.6260501726556729	0.567027984618044	0.5117120133831917
72	-0.6951438767048609	-0.9886893009019317	-1.1028196783832505	-0.4644588220313947	-0.38824325701920015	-0.07216566782851087	0.199602186175893	-0.45058190708840323	-0.665218113173391	-0.40999069706400937	0.385695873717221	1.0641770335986116	0.11189309479358123	-0.019793229127621086	0.07803498188820858	0.2851124696685727	1.2306551902217517	0.09844823156773391	0.2724201076305342	0.6571177227595774	0.2673593752786568	1.2313365905191036	0.7016869169639149	0.4719904053215529	0.4133176793153599	0.7446029167449363	1.418462153668178	1.0234914992240989	0.2984973482701856	-0.07656612227897534	-0.2676217251219733	0.28176921534923954	-0.027837928314258454	-0.11970977454956089
76	-1.0430077288043418	-1.314432140846417	-1.3857624495805099	-0.4758117484954224	-0.6946803909882576	-0.49902629726302894	-0.5305270539240672	-1.0976562472286844	-0.7478796820831903	-0.7080145460372947	-0.3106225125099735	0.20386515506294958	-0.6467846615674041	-0.5429139719607254	-0.2770574085869963	-0.3625698080445602	0.3864957680480873	-0.3648197045652164	-0.4503957319809173	0.34985801489237395	-0.3660357287225314	0.33118456518480494	0.43402850518317504	0.23887063502560987	-0.048591688152655	0.028164904493509516	0.5203577266906786	0.7496557216790786	0.049803536259555935	-0.4690661120492882	-1.0232696507368049	0.037795938456000364	-0.41607817902419536	-0.5312781320509856
80	-1.6207700926868185	-1.8509827805516323	-1.728811736510414	-0.6534485800457576	-1.0676157447563115	-1.0752280923399364	-1.4174983465645934	-1.8796110105742625	-0.8435571172397298	-1.0721712085357038	-1.0231459114945636	-0.5733060226270958	-1.3777430022740969	-0.7826920727995883	-0.556077538516846	-0.9791531538083935	-0.39993545312043277	-0.5995230063560704	-0.8699215032548617	0.24158571599524117	-0.9620264148265184	-0.3512749365043972	0.2344516956847311	0.12999181416593522	-0.30808907669483665	-0.3361781529045124	-0.13731892372270765	0.5139731155770374	0.035709250628197985	-0.37924677037809573	-1.0834978791537742	0.03198751799136758	-0.34307399305510133	-0.457339524068107
84	-2.4590804514787967	-2.7018790176840266	-2.2718305530410348	-1.1059837313385188	-1.5936996896561046	-1.8319463683606199	-2.39980530132938	-2.64008354474129	-1.048528191780211	-1.5937079150970628	-1.706553812486715	-1.1713415354719072	-1.860088224483111	-0.7498903255603222	-0.83453607348504	-1.5323721131736738	-1.0066466306066548	-0.5888229593669416	-0.9688611006117221	0.24360418258198005	-1.4908164701969266	-0.5361700044446407	0.17357380644367287	0.10876060994822233	-0.35111659676595114	-0.25701555544812876	-0.23924148022330488	0.4973790931064974	0.3170374027830841	0.3122389308675563	-0.2118123913423995	0.32342705048919607	0.3133858136371063	0.23690862893849193
88	-3.4763383777587338	-3.8236944578906553	-3.060816518685145	-1.8387006474802248	-2.26880096816404	-2.6735408238621408	-3.342556944991031	-3.2218751826004106	-1.4150005543269422	-2.2705089988604112	-2.2800767364156007	-1.52824437232411	-1.9875338027364762	-0.5400778637601833	-1.1699954241776984	-1.9691429088467514	-1.3486529554649127	-0.3969182660095202	-0.8799610711769019	0.22553616705218846	-1.903134698831216	-0.09016039944773614	0.3090909711663366	0.053208537265430185	-0.2637318366067852	0.20581959136020014	0.36080101041299384	0.8171306827895435	0.8474019744459038	1.5203168353797085	1.5382425746227806	0.8635514356745091	1.4774345122229005	1.4889064989645664
92	-4.511053073937834	-5.031242357902803	-4.0138330358255185	-2.7462673117919274	-3.0017006321461657	-3.430999508778355	-4.0883936778797025	-3.5459425359844894	-1.9258536051764443	-3.0099728031457884	-2.6737387112822955	-1.6469553667448527	-1.813971991727534	-0.29672178551145434	-1.5828854997725192	-2.2513582649610084	-1.4210283720378587	-0.13667887414756427	-0.7824051956450087	0.0752813963181496	-2.1642003004746404	0.8875262714866285	0.6388778670393322	-0.1505973484290205	-0.17898072257153172	0.8566207268068146	1.5430827101849012	1.4720381461171401	1.4889298639852593	2.9748618527644646	3.811170091543492	1.5128809175441735	2.891551010460766	3.0484077853485543
96	-5.390351281861863	-6.076369747079295	-4.953279959570586	-3.652188530284115	-3.668779840743325	-3.9633901019166196	-4.533203113554762	-3.654516210866007	-2.5029189523446775	-3.6846551802113	-2.882774584167617	-1.6117575127916655	-1.5170685014569407	-0.17218545035758615	-2.0645201154083153	-2.397913211490407	-1.3182549443340796	0.07842268029917127	-0.7939010242445245	-0.2614458196714862	-2.294016117026159	2.076491112234781	1.0772668096046867	-0.5185264931938677	-0.21049849635861043	1.4336339199110009	2.9393582269843512	2.337192767918125	2.0654802270239334	4.3179774175344345	6.059108241995923	2.0949206299342227	4.209226120811935	4.56009339134942
100	-5.997979148980093	-6.758452398402857	-5.685719952533365	-4.375450123230394	-4.183094014096906	-4.243180264250379	-4.68443011054844	-3.6839558985205607	-3.0404610557085836	-4.203504551765101	-2.9906005783869594	-1.57079112133168	-1.299601551589427	-0.2885415546761657	-2.5944828921617185	-2.4987218316887705	-1.2096979587530572	0.1773987109950587	-0.9209581590288691	-0.7714550475670338	-2.381095164963044	3.0508479994994975	1.47461402043925	-0.9418899393143088	-0.4048123349459647	1.7081000761775742	4.068490971783712	3.2090694823306176	2.4283554492675514	5.236206995141664	7.732254485635405	2.4618194041086	5.122925745427672	5.685029015492873
104	-6.307603343297244	-7.007653695533693	-6.088222488290826	-4.79617022257101	-4.534171569820628	-4.370545853070657	-4.66496418728826	-3.781759252536937	-3.443549147494839	-4.554121959632319	-3.1376678864415535	-1.683103914779807	-1.2869654861382367	-0.6961216908999324	-3.148505441345832	-2.6832525662387443	-1.2746152845626675	0.14778073094727068	-1.090085622896297	-1.388734575580086	-2.552353137247944	3.448874703282785	1.6741265016249824	-1.2459951607717061	-0.733968256050961	1.570769067613169	4.53043221283544	3.873680820221727	2.504064792032947	5.568469033487354	8.46935079343628	2.5414316590040342	5.470163808363236	6.211136325413359
108	-6.36255977931572	-6.893646222829592	-6.150588973729068	-4.883687960692334	-4.770735728616671	-4.502136219101949	-4.6454167248742335	-4.015575398797194	-3.652160396891852	-4.787226664854333	-3.4429194840290216	-2.0426366277621497	-1.4743906222311958	-1.3417519297102414	-3.6868629362482066	-3.049424163748698	-1.6166747767639307	0.02459005632748631	-1.2315828769106938	-2.0202307650104916	-2.9041070864788696	3.1216964642864427	1.5789130886268479	-1.3021883931661478	-1.1270959348832381	1.0720889541261214	4.170675267180018	4.165634144756222	2.3033804835338887	5.343864904263165	8.209399202600896	2.34551548365639	5.272764669457325	6.109199508501535
112	-6.220654948741378	-6.560662253028205	-5.954166874157847	-4.680103290185828	-4.939211356090481	-4.734915721382889	-4.741507041404089	-4.322569359356337	-3.643009891849037	-4.954612242587242	-3.9175743957792415	-2.615941517900998	-1.7455216602124273	-2.060371155305265	-4.134956826260677	-3.5877976326958323	-2.199214691331672	-0.13846632803289818	-1.3447598184965925	-2.568390362930721	-3.4280142697569613	2.1929290239281083	1.194481727445344	-1.118280407943215	-1.5156860313295106	0.40153655308434694	3.13891100090985	4.0006475347601755	1.8954055261441265	4.740477073144971	7.183161717398928	1.943203682761729	4.699311244544071	5.5177678922579405
116	-5.8970589488869924	-6.128136619354603	-5.60182379261945	-4.253085125675566	-5.019285666191047	-5.015181051943598	-4.932574259702209	-4.527099597945172	-3.4146020326234656	-5.042209612513785	-4.422738540927164	-3.2310933985195196	-1.941749091014303	-2.6123666697349748	-4.378637779624934	-4.147202958126731	-2.8391506600223853	-0.2975694231626651	-1.497201677357014	-2.9451816007642044	-3.9770414728843506	0.9997529958279171	0.6237932427869509	-0.8514335730036877	-1.8648843718174986	-0.18426820589272344	1.8136280729280483	3.3787619982290895	1.3638074363607944	3.9924952883055385	5.797300800945498	1.4172022306900969	3.976236094926179	4.671036708482645
120	-5.338123784892894	-5.612115845816121	-5.139468180078289	-3.6453299430364168	-4.8983411665269205	-5.1284518112401365	-5.043132769249736	-4.423137176790416	-2.970305673729337	-4.940934645575877	-4.698948371467595	-3.6278650669055845	-1.9392750214252124	-2.7656769682675812	-4.285487164167978	-4.466492164779099	-3.2661039746792953	-0.4340287436017536	-1.757963772150008	-3.0780165117752643	-4.295638550403335	-0.05161877708515592	0.017365319610502295	-0.7306432705552054	-2.1713600103869837	-0.44999876504771547	0.6349892004193589	2.3693742692254247	0.7731729726344128	3.2967917835922944	4.472315776977531	0.830675957489842	3.2963685906154576	3.807567586822363
124	-4.451177108970598	-4.919760214782169	-4.5239877586585955	-2.856134645880384	-4.413986194910444	-4.791088092151712	-4.816556441544198	-3.8807799718151315	-2.3158714712800617	-4.4862933045606495	-4.468933094185779	-3.561360350200324	-1.698083873276227	-2.3979244171635963	-3.757513990452154	-4.273538101850734	-3.2317328371470553	-0.5532575831749973	-2.1174323505347346	-2.921296827570113	-4.115869511703155	-0.6496605856705557	-0.4955057787305813	-0.9317082143148382	-2.439605945149791	-0.25690573389040733	-0.07435695063175908	1.0869514914726301	0.1598033304948203	2.758958332725462	3.5036160857434533	0.2188300782877629	2.7643556525055364	3.096846095849428
128	-3.180001489239945	-3.92384981118393	-3.659655323325566	-1.8666446161825612	-3.447232237695501	-3.800653924883031	-4.049594868926146	-2.918741695664333	-1.4737796746237906	-3.551307907675045	-3.568457356026522	-2.913509123122002	-1.263793942121727	-1.5685218533015206	-2.7897894312041394	-3.409490576719012	-2.62041115099213	-0.6740650517611315	-2.455799335001485	-2.471773856598116	-3.279045335120254	-0.6864675862146814	-0.8592787959338621	-1.4766137562664154	-2.65452956483116	0.40115484494016906	-0.21868556682686982	-0.3321945658879739	-0.4518980074440434	2.3955681263522846	2.9984018726940453	-0.39413195748956215	2.396890157370065	2.6098225050838053
132	-1.5798077543426676	-2.5721838409332283	-2.482051843098656	-0.689753649877497	-2.0135397860234785	-2.1633949225164684	-2.717210524374444	-1.7069336132822648	-0.5025991188711348	-2.140546078045958	-2.0387935586953145	-1.7582061246350529	-0.7310010772368887	-0.5140548931494628	-1.5000690183913397	-1.9167275380379254	-1.5091553888365385	-0.8155714848908006	-2.5939388209655823	-1.780404324804838	-1.8228878928891055	-0.26786836914143114	-1.103656050756627	-2.2173373643205845	-2.771222107566325	1.4091997111027572	0.0747397689124431	-1.7478567317702525	-1.0224420998508328	2.1777701322885243	2.8984661029115686	-0.9679723357557203	2.16487407137748	2.3357727468645817
136	0.1551592793123544	-0.9653188561863089	-1.037822601559132	0.5884305223867312	-0.29595130607271053	-0.12561337618107907	-1.0160742972469758	-0.4962805199014158	0.49530935162421996	-0.42847686897816695	-0.13067682054428692	-0.34135553154592074	-0.19514253686273542	0.44293448217141657	-0.1058576700398945	-0.042396817249306364	-0.14226801657520263	-0.9814953183189291	-2.402904504431296	-0.9495666003094839	0.013454720343952155	0.37242308164982524	-1.3054480519713945	-2.913077823913496	-2.731696121948345	2.5805194312747317	0.5607728943971728	-3.0299539489541054	-1.4817074499867704	2.0815355725186757	3.060084573649151	-1.4313330614191904	2.043945545758113	2.2254674378474215
140	1.7376608804700058	0.6496596319962417	0.49446278685661244	1.80702375909432	1.4072713816398523	1.9158744763640538	0.7037673574799026	0.48779743786678803	1.389889475174338	1.2879164186385823	1.7888208582537422	1.019798514652429	0.28349563407847755	1.0373402807748273	1.1493223876545753	1.8513551903712486	1.1707481116300216	-1.1459422082578972	-1.9010714244528806	-0.10675702217089793	1.8760051679930345	1.0042989228641692	-1.523922320333069	-3.3531813536861304	-2.4970107015508787	3.7229587937773125	1.0203385327327308	-4.067701806288878	-1.7375920967101086	2.1135351604505797	3.342275372649823	-1.6910912947874117	2.0421798177657444	2.234246963582091
144	2.892909519521057	1.9733908126598791	1.8599042845497986	2.778400175709213	2.798248283950727	3.5792250542873	2.0876102394802674	1.1316697568931748	2.060470099015342	2.7032024792132776	3.382689944309871	2.068753237269576	0.6918289047894022	1.184806224692673	2.086658472514897	3.4296874913408715	2.183693641871347	-1.248932835286689	-1.2694739071266126	0.6352047308143225	3.434806576639837	1.508404012686397	-1.750072594038828	-3.4552328499342124	-2.0752248711643695	4.6955060840312175	1.3657090629429074	-4.776423442225358	-1.7087509588968781	2.3002958239652607	3.6601750758266953	-1.6656579929259654	2.1909778062816674	2.3435518682438667
148	3.475921860502095	2.790685885059298	2.835361473554291	3.364398232548802	3.702542295644655	4.658030021351177	2.935059301595425	1.4582585059541764	2.437606805369072	3.629494896308208	4.475924003744544	2.712991946046472	1.0533535453904648	1.0133539412662953	2.6572813920642027	4.515118110701253	2.8104412484737757	-1.2057213752822622	-0.7637736182002886	1.2160763709836573	4.51204060368998	1.9117245625866894	-1.897632474876602	-3.2842929280330306	-1.5256371459589275	5.439568505858695	1.6608091550857296	-5.1003560891125845	-1.3647811378353867	2.6528937749640744	3.990073670803718	-1.3252847161211407	2.5094368394437	2.554230206716472
152	3.5376174360604398	3.073442451346749	3.3315529739189595	3.5366251379367246	4.134605397275968	5.19405506730009	3.284173718743781	1.5837551315375966	2.528538459115932	4.068390359143585	5.108528124309237	3.0465073508593337	1.4034587109417758	0.7857698778340844	2.9481880590390848	5.141573416126441	3.142825357131657	-0.9334008074082516	-0.5654734954862266	1.6443123775928952	5.136721598053974	2.3416094720848304	-1.8444220973177692	-2.9879827423950336	-0.9365552640157353	5.977581962752295	2.055851931149805	-5.017940985408309	-0.7498345356129533	3.1353645245546686	4.339385498535072	-0.7152827364028554	2.969804756295909	2.8631884979438733
156	3.301188222179827	2.9900858326759785	3.4287812623239944	3.388303509740644	4.271996010484999	5.426467404970141	3.37423156840044	1.6367002684278487	2.4132213531601314	4.19214772119685	5.486154542423205	3.2803044236333108	1.764434690789066	0.7530996184408609	3.1265194337109117	5.508494363228619	3.3818051729650587	-0.3928191651916986	-0.6686688048646605	1.9823824117201243	5.501834855493968	2.930253498308608	-1.5075505933846576	-2.6935617855730674	-0.3875747611274096	6.38425968465644	2.679972641854325	-4.554164398139291	0.02488615543817653	3.6600434687713634	4.709813582926979	0.052174791561958755	3.488415232434053	3.241678468149167
160	3.053508035579818	2.813395254661386	3.3250064765905174	3.087034694507012	4.354228008720987	5.650960431136749	3.5104102999749567	1.6859644608846454	2.210203880451876	4.246115673788866	5.858673080911397	3.622132053766983	2.1263148730953163	1.0250220272887771	3.351943722845139	5.8630132527144045	3.7229072953643567	0.3698617210586816	-0.8784716703170149	2.3077344836144484	5.849904522431339	3.726138343940183	-0.9089729166923382	-2.4357590613857	0.08274772742360466	6.744781953948846	3.5545005708597333	-3.7920701408013096	0.8179498294206234	4.115581978897485	5.080513464498376	0.8354768135911548	3.9508523841290604	3.630715599430126
164	3.0041069908589626	2.775927775050172	3.2261156954376045	2.7922727991177916	4.560632694173986	6.0665755118745315	3.9042875668180366	1.7231265262968016	2.028436417226713	4.424392689024795	6.392313464238157	4.17126606841754	2.4453387198698144	1.5265996417603305	3.7025880720117272	6.37343357384393	4.258269299246462	1.2131980626947207	-0.9233186221653046	2.6721804074532223	6.3485393363884715	4.6622695805140575	-0.18928311717404547	-2.1543095057455837	0.48855888720187113	7.118800622132957	4.5751123312834245	-2.8714060710890195	1.5092242918057248	4.415261734305417	5.420996652267889	1.5153033695110187	4.260880936355347	3.9602720637470017
168	3.1862835803648313	2.9515020772802294	3.2392096437688034	2.5823640758165833	4.930881010957704	6.689564688005492	4.574911106003171	1.6958244996170753	1.9264484595298008	4.783173072182682	7.098671895224549	4.881527411533971	2.6594271592706993	2.058972830342365	4.1504745378609025	7.057047826115772	4.943634974395963	1.9370895575253957	-0.6206592305725734	3.0816476267258133	7.018047791881963	5.593790040198327	0.44523551947716095	-1.7553713277366925	0.8836569763761584	7.5218996811738235	5.567421899090584	-1.9638866136558597	2.0412006326638465	4.538272369370821	5.719495758875091	2.0356769510371677	4.385979641331251	4.181133259707325
172	3.4550516518145526	3.231488219685515	3.332057229212486	2.4340412555276103	5.368429647243137	7.375366669153648	5.3634962900168235	1.5683109720688377	1.8982411575075115	5.235539899959023	7.852420787059309	5.608394131805742	2.7185864379909654	2.431118720592362	4.596157539207585	7.794815520633703	5.643536076602271	2.3603494107734786	0.007668858840326036	3.5059263617691143	7.743787269114588	6.3802862006271654	0.8239629247843177	-1.1930816143431051	1.331269380069349	7.929235915191786	6.380843623263698	-1.2224948375354454	2.4310238299981193	4.540391433696525	6.003266796214058	2.4153487621360834	4.373942364139962	4.290920246734827
176	3.5816490559749057	3.4040977868919295	3.3765180025682513	2.2630374374473905	5.712465748669452	7.919767836602409	6.038903697979552	1.3701046670654153	1.8891398859011566	5.617834077002856	8.47467420345702	6.2012476764515085	2.62194775873056	2.5736033851496147	4.935142504629806	8.41236779950056	6.217856391466949	2.4097230373578067	0.744879303482062	3.906785955102134	8.354389169581022	6.959498387885499	0.9069547630299836	-0.5189809786091326	1.870236392067658	8.292558649107248	6.962199193542742	-0.7236578446237453	2.7455019881549436	4.524175632498453	6.328925593609622	2.7221729686673353	4.327504623931278	4.335711945077549
180	3.3894967947260346	3.2867510235773616	3.244347087298313	1.9951064536267809	5.831728920517999	8.174085596427847	6.426415904032428	1.1968575685800928	1.8299425794176198	5.78410337895123	8.829218842149283	6.582991583416165	2.436657661008065	2.5627238685755205	5.114461885890936	8.775281883972474	6.595560057200351	2.1681590025520476	1.3059557643343094	4.262763012614023	8.715505577971049	7.368335705273694	0.8178573826168103	0.13533034886524814	2.493615144155887	8.559056260433918	7.366732578751862	-0.4322807777934837	3.054633848107493	4.58417843614945	6.743994218965483	3.0263304633980685	4.35004996155136	4.38454960669741
184	2.8586077617951604	2.836500399103784	2.8970673011115116	1.6239068467148488	5.688483223858175	8.110266665009386	6.4871692493685424	1.1662203044057355	1.673336024827967	5.676669106456362	8.879456497662094	6.772472841330105	2.2865471782175018	2.5484960014849776	5.149885641447251	8.846128441410789	6.794783098231784	1.8510272456165224	1.5034776888081487	4.575055110824585	8.787313439117877	7.700199107756132	0.7899345735633156	0.6284934266434923	3.147502891223241	8.684115387925791	7.703041534049004	-0.21348003989203734	3.389372817065215	4.755260932360575	7.241066437559129	3.358180276021532	4.48997496424984	4.488786209217442
188	2.1387970393540847	2.173799509282192	2.4145288406446235	1.2173715799113565	5.339026914468251	7.805022696816429	6.30588625269489	1.3493224348333397	1.4138536417550698	5.3363094195105125	8.679610230466462	6.841664296996478	2.304094070339338	2.634050124193779	5.0982670655277715	8.67610833838546	6.8821401422312	1.7114446119967668	1.3536767925417672	4.850178706321371	8.61819074362202	8.024369219547545	1.044781086191222	0.8865414835481359	3.74758624084343	8.63372514452274	8.045277575207646	0.10268871460260573	3.7228112126772213	4.989023672859249	7.7311944766353955	3.6899080183328037	4.710694777993114	4.646329868029887
192	1.4634728394752523	1.5095896682772756	1.9475851009788163	0.8689651467318551	4.881767260623941	7.366298656938993	6.007067188355342	1.71943699879452	1.0852795811909017	4.858059394015097	8.317380884152	6.843013746150786	2.564749234399875	2.791489355668842	5.007772433035301	8.347846963786994	6.904605848046062	1.9158638667373107	1.0589648458447423	5.074073778693101	8.289591768316399	8.319917657827235	1.664929028122203	0.9413512921408336	4.207787026272111	8.383137681776507	8.36808870110161	0.6307141764929269	3.9863617319550575	5.174190031339502	8.060238817845654	3.9522435565346057	4.905693041813534	4.794310557658713
196	1.0160849068737192	1.022894141475668	1.6269313055924055	0.6282032116288137	4.391792286275072	6.857376558156759	5.661693558703645	2.151442522339126	0.7405905704873663	4.3275222669060875	7.851682643140274	6.760035020926937	3.0391814631977763	2.8693392204320065	4.880918013647325	7.913215140390926	6.843886358148094	2.454776280881143	0.8780639745477805	5.200981603842661	7.854490260320685	8.469304063394894	2.5298869545959257	0.9092349983147539	4.471226204073788	7.921066264180918	8.54723642098622	1.3616929019880812	4.112987507926252	5.192227827314469	8.06940839637475	4.077942837909751	4.952504622353305	4.836447226711264
200	0.8293971398394147	0.7637038211614328	1.4851623736078083	0.4587056029182652	3.884711017337433	6.267374976547004	5.247971044641993	2.4716451105657264	0.42726051699530654	3.7796404266298107	7.285422783577511	6.5155258014209725	3.5898885636292737	2.693163626546973	4.674949157355823	7.367146473404138	6.62438867803821	3.1370808999012874	0.9700388883895102	5.170467363654809	7.310112934729774	8.31978509709759	3.357197276222378	0.9245483851932056	4.53248690414495	7.262163143896246	8.428077676475056	2.1560087149545506	4.081376542277302	4.98014210397298	7.673124770818872	4.045860280312528	4.7779459832676565	4.692775237633082
204	0.7717228512353335	0.6362124665409957	1.4380661212853088	0.25220623548727916	3.3306243335557038	5.545628056829934	4.692849147392417	2.528077834422271	0.1694943900597387	3.2035477080525667	6.589136583858414	6.035564884206243	4.017743100512912	2.19521855753744	4.339508999358735	6.673739416439002	6.173297866493999	3.6779920961979715	1.3117240634225291	4.94766520204692	6.622157556980611	7.783628920930502	3.834932556006813	1.0725120278936688	4.44552468131153	6.4651341275064516	7.927268485082006	2.8079533506071326	3.9402520557103893	4.5720834616621655	6.918655378039887	3.9048874279615418	4.404643524493358	4.349233139501419
208	0.6279047115685321	0.4669814396035322	1.3344472613021703	-0.10327792886646464	2.701538555953929	4.667773711817299	3.955567826774626	2.251210922279496	-0.034085396591198275	2.581166737715358	5.752317890902819	5.322051988516235	4.145713318848266	1.488003488598499	3.864311685342428	5.821206554974497	5.489305482356656	3.836570730059684	1.7332545475114651	4.561713684008903	5.77854345770062	6.916784745872979	3.7776574993124292	1.3573209013048446	4.310573566997707	5.640701756541068	7.106609326539958	3.1482806126263068	3.7964465522282484	4.0957741633957365	5.991306289805046	3.761677732507071	3.951839913881206	3.8774247071599066
212	0.22511267605212854	0.11008191080910602	1.0393602821811654	-0.6454911215697545	2.014524454752682	3.681507101300791	3.087505094362392	1.674319024627121	-0.19973544726011314	1.9261221837051241	4.822458255036377	4.479902732982546	3.895106782615752	0.8276023843851142	3.304796210528262	4.863989817736696	4.669249522818212	3.530232659009993	2.0398743101116534	4.11597203169191	4.83193968506615	5.924930080713597	3.223566285577708	1.7149933533284443	4.241447438021844	4.9358553761795205	6.172204955730157	3.1284229676416526	3.7700638675872167	3.722561111588375	5.155071245529618	3.7357344533062142	3.5872537999182743	3.4106159124095305
216	-0.4740995156716051	-0.4756842541605697	0.49975848071760126	-1.3013678756282414	1.3405356373320256	2.7001371315495084	2.2262272778570997	0.9057460404416351	-0.34441608103579796	1.2950100866046814	3.9038946530006693	3.6800413038801754	3.309638491857589	0.48952293272403435	2.7681686808314807	3.9218768974468454	3.8750131032383828	2.867020838174676	2.13461541590578	3.756915082982963	3.9007475277644743	5.089663015866877	2.420177930443593	2.056324476772391	4.324343670417531	4.494153011419468	5.396357999528582	2.8419666218530444	3.9390377898900906	3.594417324527874	4.653758037261621	3.9042675396574427	3.453276863916202	3.087570659471479
220	-1.3611409629788547	-1.2211786477728384	-0.24018858312523342	-1.9170541714904699	0.7710754255854178	1.8463337374801791	1.5196872911231805	0.07648605834008294	-0.4758823799993029	0.7613505105823524	3.1140940110738256	3.0750503462401504	2.5250546868468957	0.622962473250169	2.3647091328999226	3.131968013485363	3.2561736024662076	2.0837645478090687	2.061435217421109	3.611795177877554	3.12277268574979	4.646870124528767	1.7059968666873397	2.3076090754421577	4.5829591635390035	4.403628338186106	4.9989876620919045	2.473561280681128	4.299042214029995	3.760835399669232	4.615332591801995	4.262577999797107	3.601723900284573	2.991214983063753
224	-2.2512395325089156	-2.0052773901855745	-1.0747103663967246	-2.338631385620792	0.3663748195458024	1.1855524748433766	1.033508178962603	-0.7064818126007654	-0.5912999495836188	0.3721167733810979	2.5274066861237943	2.7205538681007444	1.7026025013852408	1.1649448842200518	2.155448669713655	2.5846905643055824	2.8762109207015225	1.4310221635928269	1.9467940281353546	3.7293996716754796	2.59153818429867	4.682999599077442	1.353733416954161	2.428380483218294	4.968175875518085	4.659382808365584	5.052972303984415	2.208277935174756	4.7600808023435235	4.157093514437209	5.005514132259752	4.721000182630181	3.970394362915781	3.114211074595869
228	-2.9884662552722308	-2.7316293647463654	-1.8943891477439827	-2.4978005823014477	0.12000895261267501	0.6948084813695565	0.7060102206524931	-1.3819757665074897	-0.6828347427294382	0.11792449623375578	2.142707342460057	2.553551190604905	0.9666414832505354	1.867759342246336	2.127169603699237	2.283606761888866	2.6900257996353396	1.0687810155587285	1.8907612514442433	4.0570177929491535	2.3142478407604794	5.105289923176056	1.4554176293820644	2.4039392410619844	5.379828439481204	5.162113176664183	5.463270650421656	2.1538917963960524	5.1813092100935005	4.633775699360411	5.651925549542516	5.139676557915898	4.41249941665492	3.3684744749854096
232	-3.5191221148333325	-3.3704273615619003	-2.6247324877274356	-2.4496834216258128	-0.0347934736923101	0.2911973588267175	0.3900873055146054	-1.9234164904670212	-0.744911072757647	-0.060414776053483894	1.8973464917916918	2.444700950172328	0.3836981942502951	2.4180364547715096	2.208405727532832	2.1549014990759985	2.5891075068908664	1.0246970627662821	1.885565276153712	4.467587459728727	2.2182304803156443	5.699131474411125	1.9069488000407637	2.228450769520187	5.7126321648372445	5.757360443838086	6.027584060709548	2.3145255984044315	5.429525838495135	5.023947703075029	6.324997409110263	5.386580453624313	4.764706122766416	3.632447233565769
236	-3.8877782723498306	-3.9375255008466676	-3.226277581652406	-2.336914533437016	-0.17821769371336602	-0.09641686802601432	-0.03887989734727799	-2.313867324709194	-0.7766921500623563	-0.22985845746180797	1.7195289091565316	2.292348140650976	-0.013263042982709333	2.5824232036240513	2.3168024958291027	2.1015853828776008	2.484972947522433	1.2261602847612985	1.821838255097261	4.823761450986456	2.20294451157372	6.240190013389322	2.491251939205799	1.8994163226809362	5.905785545697235	6.300120337792456	6.542922003439206	2.6224260263990304	5.434378133404758	5.215077863877871	6.835951787855627	5.392036424374698	4.919674860931066	3.809658756174383
240	-4.171284188229506	-4.434994686373516	-3.668271532333964	-2.3025977553406745	-0.3476297548577166	-0.4621464598431716	-0.5788966402696887	-2.526508801757165	-0.7789784054162336	-0.41583427681839025	1.5834797580794295	2.0983178562592637	-0.18656757426841833	2.306182855505573	2.406361335400962	2.0665898270882703	2.3766765534477106	1.5704204996514024	1.5823098381147318	5.042760359430119	2.203388923804043	6.599010927705554	3.0037310047606685	1.432779785353526	5.9703788606586645	6.7121257612517535	6.898070794809387	2.996175043170859	5.214786516374946	5.191103445298265	7.104462605659148	5.174669729519444	4.867163645853683	3.8669409654261218
244	-4.399212349275136	-4.80209254006094	-3.9065930744721276	-2.4049355923015345	-0.5086071478400359	-0.710515676135045	-1.0715165111191438	-2.5283043320718455	-0.7488743047880461	-0.578832386462783	1.5293022355569128	1.9758596370402426	-0.07948470095593663	1.7183949903971876	2.485967868250512	2.063987249885369	2.357532256849927	1.9795979211418273	1.1532087296934084	5.127059923578855	2.2246396485428708	6.782326204342337	3.345708600180217	0.8843122698391646	5.979733928841832	7.002140027487312	7.103001576610102	3.380954018639815	4.865412699813182	5.026030527776801	7.166027527836475	4.827947127550596	4.685445296855691	3.833518495417732
248	-4.518675792729624	-4.9225139493638395	-3.892755975431746	-2.585171931415573	-0.573355911714647	-0.7104427200500241	-1.2804067102530017	-2.306866163151553	-0.6772186142989459	-0.6344100816921833	1.6328277546665686	2.077750916003573	0.3549558809378527	1.0570236417785985	2.5982026988234694	2.158994430813101	2.550515645263448	2.411218398682156	0.6712713224629177	5.1444940437130615	2.326258415070976	6.894524080035627	3.5396678358355365	0.3570508649871288	6.025645717666346	7.239359360537072	7.246496182265879	3.748470535351085	4.511935222678283	4.835088717650973	7.123669606343077	4.476019371175944	4.490368831741522	3.766476383236533
252	-4.429329384111208	-4.691332328396003	-3.611430159033871	-2.706518643221629	-0.45526972298118495	-0.3818171014682555	-1.0315903399171522	-1.89918374535761	-0.5536168203681515	-0.5048775660165664	1.9469017933328365	2.492802375221782	1.0944715710663757	0.556620059992222	2.7772805620645786	2.4134814678292744	3.016987077725247	2.832412235738251	0.36028647331826935	5.175564752863131	2.571002715295341	7.05473135120707	3.675799122112932	-0.023172413871792176	6.16493461959739	7.499120216509657	7.420042019230062	4.070601453040591	4.258623112416956	4.713833320160482	7.079801541573461	4.2220997703766	4.373631943150756	3.7091770078471424
256	-4.065441121327544	-4.102412213458323	-3.1220681588503236	-2.640593045243544	-0.1283714320994849	0.23694154560348604	-0.33668976937165024	-1.4055916035450333	-0.3775020828252802	-0.17323118404520776	2.4492399630698034	3.170794955831182	2.000902170851528	0.3590857079499784	3.0132288856723575	2.830287926203819	3.693313112470935	3.1877953925710973	0.39818912643989	5.259913431239038	2.969182006968868	7.319304924605248	3.832161416868912	-0.15640100797266387	6.385374529929504	7.810262660334693	7.655446510060283	4.296719540238252	4.150867451678271	4.6953945041364795	7.085463029138514	4.111582268824575	4.361475456670218	3.6675319579034578
260	-3.4666638286803764	-3.29303120735362	-2.5649018222901145	-2.3465628564717385	0.34660461457481284	0.9871693824639968	0.5830163940968728	-0.9657465195114925	-0.1670906539513056	0.2956760518238328	3.034229032485182	3.9275610347768546	2.835058443541018	0.48211607215275376	3.248291722679589	3.3348915492736895	4.4014873393511795	3.4007728013961738	0.80085223710997	5.37560843064176	3.4569861801604986	7.656040172320747	4.025050153106768	-0.015417833773608522	6.612096292967927	8.135526636564261	7.913866499947386	4.363647449920349	4.168460835422914	4.747316348487812	7.131342393036351	4.125369538382051	4.414332378686425	3.6177287010406736
264	-2.7860815454713133	-2.5077216561899736	-2.116579527279441	-1.8974027585762177	0.8460808971024375	1.6600742298175046	1.3977457249637681	-0.7117871028095387	0.03870712955954242	0.7809335569692197	3.557559719640462	4.531953800203424	3.337710610545869	0.8357462265848594	3.408873549437855	3.8074283503725193	4.932591902677018	3.41324113937739	1.3954105341966536	5.461322770635314	3.923429956067192	7.978015402678492	4.216855038486766	0.3347815564763063	6.74961517537219	8.394621827865675	8.126098612296072	4.238505352763158	4.248169888261218	4.804923522262045	7.177481156347596	4.20191716086945	4.462997425255452	3.5370736032828822
268	-2.228010648824277	-1.9939618060314042	-1.9159110736158536	-1.442092415029721	1.2403622834360744	2.095250601246866	1.8342878772200646	-0.716953216173113	0.18967553925309466	1.160418745925815	3.9051804443945177	4.820466029394435	3.345870486395018	1.2708228794437633	3.449414006107351	4.142009724649853	5.151368605005519	3.2368581213290617	1.9085425090287444	5.462317452944814	4.265731323916343	8.205016115453759	4.365168560451177	0.7593989949126884	6.733690721677044	8.511202790706102	8.247923830189178	3.962569465169424	4.320360649645116	4.8170843002769965	7.194202881769245	4.273053158462067	4.4558706171069415	3.4335060032941214
272	-1.949379677619183	-1.883769149792585	-1.9976345250239016	-1.128245946896631	1.451702829510462	2.251586669959211	1.81053709526709	-0.9647414063891827	0.2435377830078679	1.3642857040292646	4.0467038052432605	4.772735583653126	2.8779151367006377	1.633461113620353	3.381057969140041	4.29763506757969	5.060195433238639	2.9732975884709285	2.11774134101247	5.369787679466271	4.439339626548093	8.308487871173963	4.467575061962645	1.10864519793031	6.563596232055222	8.454654672257565	8.288525560433348	3.65513705284442	4.339532364379427	4.775886523586577	7.183786374074597	4.293859947807728	4.38797568167045	3.3503491793921336
276	-1.9850764224478805	-2.1320733970218173	-2.276314491246877	-1.0345467302905476	1.4805135689549336	2.2088696900865923	1.4622045718469237	-1.3573360408845794	0.18494054628409234	1.396480199149092	4.040297021201819	4.505596149513135	2.135351652476187	1.8068891718067568	3.2639160073844042	4.309289921371065	4.78514384015256	2.7769651342852235	1.968672628200661	5.226567255175768	4.47130059067028	8.31078145789913	4.565680015480822	1.275305625556713	6.294425948463571	8.250905016094737	8.291642168091494	3.462265244325637	4.292668808589544	4.711697089697126	7.168816071530606	4.2508482825720835	4.294239510184699	3.339972487600095
280	-2.2410466614409	-2.547809355978899	-2.5931448870991787	-1.1471390695219652	1.3877636159191462	2.101237768590148	1.0463652584360625	-1.7563979581357119	0.03496044865364619	1.3147453036492762	3.986492385336075	4.19086693659315	1.414638277296912	1.7403712228703894	3.1676585594310196	4.253958691347189	4.492488372904384	2.773528807313309	1.5886697729054984	5.097011076456235	4.430235851546663	8.24564645592735	4.703891265437049	1.2263200252088933	5.995590671660684	7.958283881121864	8.285247781816135	3.47439240532102	4.187017907061852	4.660622108136625	7.158703785942124	4.150078286183437	4.215366352882613	3.422211399974859
284	-2.5571448738386295	-2.9010405467222076	-2.7986459661396648	-1.3858044112503256	1.2503541676424146	2.0280177542028675	0.7819602469728837	-2.037552589994224	-0.15393625160929603	1.187363621574949	3.961983432303472	3.950699319401664	0.9698138212514067	1.4692535363295538	3.1264498154859894	4.196864117516729	4.289328087467607	2.98233746729332	1.1929379671495592	5.022718416884285	4.3760723957202785	8.115190485492558	4.873894202324727	0.9980216597154975	5.703588471317596	7.629196147730319	8.241052606756819	3.6655361559828377	4.029900540667764	4.62873076223936	7.123104077474875	3.9975685972374317	4.161427010520018	3.5569579511483287
288	-2.7946917940152485	-3.0412051600920806	-2.822478764083643	-1.6553797680068472	1.1209285230946102	2.0015346953402875	0.7299104910541868	-2.1338543838032096	-0.3164871029015847	1.0572823259362707	3.9775946039864696	3.7994837664997547	0.9021345354191677	1.1095820637345244	3.1183798234409346	4.155803193090369	4.173288811637531	3.297529450674172	0.9470117068222821	4.99531124761144	4.325895775363564	7.881349543700138	4.9943804614809775	0.6613758189669359	5.401821599673479	7.286331635198752	8.08041093693535	3.8984980484763305	3.8138973616629492	4.577264297372962	6.996963960148085	3.785029640178216	4.097406853821302	3.6525392440130884
292	-2.892939321843369	-2.9566874429440175	-2.6894271305847273	-1.8847960186101829	1.017148015315249	1.9637346218120662	0.7852286676608903	-2.0482177682662472	-0.3979313363518873	0.9364352798661054	3.986862649388485	3.6652908232655617	1.1329400510794208	0.8215763548135365	3.0828185003648247	4.106975068213648	4.060484399080538	3.5428230673034005	0.8795225598063965	4.963860022410085	4.258897770619387	7.502009849681072	4.948189246082462	0.2836533181658327	5.040970312742744	6.929832917837106	7.729008655107711	3.9989097017414923	3.5170538336648485	4.440222252125698	6.718622667515868	3.4902834804151763	3.9608132739201958	3.6087195782149086
296	-2.865835897839533	-2.747327559210515	-2.478044742049813	-2.0343844839231213	0.9404747462369797	1.853953714458316	0.776264903969685	-1.8371403170932339	-0.37177541758133104	0.8276544192398717	3.9345104595029614	3.468526593034194	1.466292973631035	0.7458641510251992	2.963562004236475	4.022681702947953	3.8667359254486118	3.568648806145057	0.8950483776382914	4.87029932699811	4.151989926345847	6.984713536747618	4.656938064261649	-0.09142331755920974	4.583724964013144	6.566053850762396	7.183918934804243	3.856715907850009	3.1179780881361627	4.164075840927149	6.27684496248501	3.092222921193742	3.7005329038650605	3.370844355655696
300	-2.749988310546571	-2.5334606106690565	-2.252344364201683	-2.077557081699253	0.9054855681446243	1.679822202256049	0.6059458240469161	-1.5816013773087203	-0.24491043327009596	0.7539017777482229	3.811945428760773	3.204922906413352	1.7028042035026516	0.93425279619852	2.750504725187601	3.912595500604434	3.5889902024254874	3.337326756634485	0.8729770161522682	4.690331924040619	4.019256581649228	6.418030722626597	4.147987832087152	-0.43961018212907416	4.047146310124956	6.234701140875104	6.546401007336672	3.49149536204969	2.6160080366843994	3.7457978630861044	5.735904679121749	2.59069442094936	3.3130247509280193	2.9631307050279694
304	-2.552019351238045	-2.366908305868003	-2.0156104513777477	-1.9831867167946926	0.9501269435736027	1.5347045621271356	0.3351414195182291	-1.3532427515196088	-0.04988878952782099	0.7652256469479959	3.6762783434557162	2.968892805233148	1.7401715473108958	1.3082774844517386	2.4893572267624626	3.832687845090239	3.3254570877038816	2.943316929061759	0.7764249424405029	4.448165405486991	3.9200048347684664	5.946598514801956	3.5644600301393976	-0.7381287198504239	3.509041300497212	6.005433544255462	5.987318500661062	3.0376641673642046	2.0435419031047126	3.244363776598808	5.215551363174772	2.0185747095642332	2.852013103913861	2.4796194967608027
308	-2.2389957848286466	-2.2031586114572126	-1.7202216343363623	-1.7205747322511202	1.114496228265269	1.542511340061527	0.1498218920024505	-1.1982122629431275	0.17010617213216872	0.9126088596191019	3.6145205406483827	2.895640127500613	1.5995438058522873	1.6852674441704016	2.2540299835516753	3.848613490878278	3.214867822159728	2.5491979057800807	0.6850206238617672	4.196421135797878	3.9221494098820706	5.693649754454262	3.098428003117773	-0.9575125550890745	3.067434780005716	5.936908706934575	5.65509174826499	2.6572303704884037	1.4619060717866421	2.757121079159544	4.830799090586608	1.4375679456655337	2.404731029161182	2.0363273569193145
312	-1.7797880127794163	-1.9492063473126138	-1.3226213421807216	-1.287321087448069	1.402701493536461	1.765851970028957	0.23552495181700828	-1.1343622179001709	0.3765706112414045	1.2054992883763898	3.6777682211527605	3.0623452586104847	1.3792241776930256	1.8655909252748821	2.10163950389492	3.9792790312435695	3.336950055280455	2.2838430347001593	0.7261531930709668	3.9783611197163458	4.046013821877082	5.680236325227874	2.8862700389469995	-1.0736458274437237	2.780382387770859	6.02578018574462	5.583382115572505	2.439530366460407	0.9422564482741074	2.3748497902992467	4.628170955417042	0.9191462970415613	2.0495674558391337	1.71274077459878
316	-1.2021003931212992	-1.5501439532243242	-0.8442977645538389	-0.7361426930915221	1.7535363391472703	2.1359050219968845	0.6366463287492204	-1.1556904286770109	0.5451620803420428	1.5805410106808433	3.8255009554599466	3.4097194585543718	1.1760873764862312	1.736815925027803	2.037308210951262	4.156086911198784	3.6348438171168467	2.168495649584889	0.9509432291817408	3.7972674273940226	4.223372448748631	5.7904004904465625	2.9279200956808324	-1.0907126637577509	2.6232786112357447	6.17792509426552	5.653398976357643	2.3502097070484687	0.5400269613936736	2.1401281302778483	4.553606021828445	0.5190268741854938	1.8188005639885974	1.5148388109108122
320	-0.6179512127533302	-1.0512423488778506	-0.38945984742063905	-0.17592930749344327	2.0473704286382595	2.458770984163904	1.1984972923537238	-1.2379145590999079	0.6679100973432301	1.9093579005672132	3.9231257339610264	3.744057645881636	1.0268703673185955	1.3445857729342878	2.012556547805746	4.232998837274131	3.918137302043079	2.1125390476296086	1.2487846581401516	3.6165189651733667	4.3068985830287145	5.81310986004865	3.0793123167494096	-1.0589956018413689	2.493931525609556	6.230002387530034	5.641640172066042	2.261751646053542	0.27419924666794293	2.0322463461111364	4.4747319108520465	0.2563993328296742	1.6877703624074907	1.3802229131183605
324	-0.18859678459235085	-0.5911758527135097	-0.10173697743955759	0.264772056864779	2.1530744975089555	2.503889792796328	1.6310811001604806	-1.3418995108103327	0.7494140248451246	2.0487568326722347	3.802320709165322	3.827069272869317	0.9093369222570624	0.8812870957058722	1.9565565536691782	4.051464070581583	3.9533023734417228	1.9823534438628365	1.3729230130818593	3.3892648134491545	4.1350655451324725	5.5471701481956694	3.1272485177239635	-1.066048381021255	2.268249267573392	6.020609840451277	5.334741102101142	2.045836443504193	0.12037354677326496	1.985105271095879	4.250032891033614	0.10690272572468351	1.5948497016694976	1.2214864461576813
328	-0.041134256765700504	-0.3261741093506686	-0.0824953688088434	0.49491730207419965	1.9915983626627376	2.1283600276616856	1.6631759363144953	-1.425865050530591	0.7989112714624046	1.908475990245343	3.3527839099157717	3.503493777012683	0.7881433943876927	0.5860974773868233	1.8175361110575248	3.526386252083059	3.590449085707326	1.6959444241620607	1.0752636167081329	3.094982139402718	3.618812313479954	4.909376608851353	2.905258409794444	-1.2001053064564144	1.8741396618255641	5.47380684424271	4.6452364804288875	1.662202830886349	0.020049931430859386	1.9253010701207716	3.804014434746983	0.011848960973208963	1.4780796728963204	0.9796527599396394
332	-0.1869492824125962	-0.3313624254443656	-0.31831869402626334	0.5056202398885927	1.581865068256541	1.367560502414246	1.2011002271844935	-1.4616674147895639	0.823393998451373	1.5007207355756684	2.595417492989437	2.7980008054662444	0.66694634984429	0.6114661082088515	1.5896166522900095	2.7063844135619335	2.8584637569737468	1.2841188875202405	0.2782516770490232	2.7580051352486206	2.803290836885994	3.986930360264779	2.387362235717485	-1.502172704718731	1.339628693059413	4.64973639267949	3.664708366678287	1.1862034767719698	-0.09618695055995434	1.8094758941741884	3.1685302177540144	-0.09854908262643926	1.307965036904615	0.6577072722995623
336	-0.4994887697006736	-0.5483974800569272	-0.6730191690618983	0.37391444946298497	1.0378198597454793	0.4328790892162284	0.38739091060106406	-1.451347347409919	0.8238734582127356	0.9392054653296924	1.6896382527607459	1.9156072091375558	0.6054206475231261	0.9302593446132961	1.3063566651740566	1.7680035784906267	1.9642550895689308	0.880117592973687	-0.8284656384532166	2.4318993030183695	1.8635834408439154	3.00055431562074	1.7057938532677475	-1.933666224366009	0.7841678241958563	3.729220857741605	2.6224150591444193	0.7569351773224734	-0.28187054324510186	1.6407589870989367	2.4680528578434724	-0.27825859118779966	1.098383304683819	0.31609606663052303
340	-0.7747986893165569	-0.8163627961528408	-0.9562466716465308	0.21787391547985135	0.515764056334082	-0.3878956129294254	-0.47442823528671146	-1.4356894456855354	0.7950881103468741	0.38632014296269995	0.866469738679989	1.1419115037697827	0.6818016154241547	1.3392522301239622	1.0096776459951204	0.9425915455861885	1.1928818195743225	0.6424836500159157	-1.8444930268448727	2.1595344488934027	1.0320868466068778	2.1964185182430285	1.0814475985879666	-2.386692756349058	0.3530841758873415	2.935569040516257	1.7720166400039323	0.4832771706300469	-0.5554520473761523	1.4575706683552052	1.85678791531023	-0.5461165295164214	0.8914978481672752	0.035140987396924735
344	-0.8407856800786058	-0.9641033982731178	-1.0274414990233913	0.13202246990249988	0.14320188724602445	-0.8695616700152612	-1.0770637961850942	-1.478647824368885	0.7301838379544366	-0.02009733947507792	0.32476669467946306	0.7040732485161176	0.9286162829795659	1.5658287962480784	0.7205342632221772	0.41539934172656234	0.7692030052791711	0.6635133607324741	-2.347483629021904	1.9391262482322287	0.49672886603828437	1.7295865968905377	0.710057077999301	-2.731541388290899	0.13611002232042535	2.435162061265137	1.2722784248655035	0.37548357153505785	-0.8950412250809364	1.305614825767055	1.444507595229922	-0.8805814959228025	0.729238925523198	-0.13089726832243212
348	-0.6534317715359733	-0.910993573749767	-0.8782699681996042	0.14082162046641242	-0.03401435530538597	-0.9531957483067605	-1.2645052639506806	-1.6339853960744737	0.6273899658575515	-0.22303377035573999	0.1436518278071367	0.665008364428956	1.2860001293138918	1.4210140669231486	0.4310674358451768	0.24764902827203178	0.7528610210484274	0.919933555187767	-2.115492100142905	1.7209790901602555	0.32144027867223646	1.6004940230968974	0.6683141572291423	-2.8779132293520098	0.11784914106178875	2.2686691226901297	1.1251828642093573	0.34731641324092344	-1.247952577301188	1.2113248079234493	1.2518928019387618	-1.2293767898038368	0.6296104176837629	-0.17998625292635384
352	-0.31997206726351357	-0.7121571880480148	-0.6384910328957165	0.19896475920511314	-0.05713355526804412	-0.7574182729671582	-1.09460913858617	-1.9036320399859663	0.4969135808319769	-0.25548493797648353	0.2590740614548944	0.9102975107098374	1.613439913490848	0.9119146443231556	0.12596256999161407	0.3634679308297682	1.0253622506002962	1.2930291858452174	-1.2566785780649845	1.4432810508528309	0.4317641545361973	1.678163881833295	0.888919470450091	-2.820369474919657	0.19117644380939436	2.3500883519920124	1.2025796144640835	0.285758047574505	-1.5491596421229885	1.1728640765142058	1.2181981771230146	-1.5280387363001542	0.5823490604956524	-0.15473180970226577
356	-0.03518348550854229	-0.5203913437102471	-0.5015113341067304	0.23194374085517136	-0.01425122652330046	-0.49556013816647926	-0.7814735154448768	-2.22217511569692	0.3627957692523332	-0.20302097448112708	0.5122713433683518	1.227345344305731	1.7523081258401294	0.25018209155813975	-0.18581393314178105	0.6035154446623356	1.3689517940290805	1.6343047577603738	-0.1648727055201683	1.0844819518365312	0.6682622415836741	1.7877569153471875	1.207890269090873	-2.6371216707405893	0.22734160663903794	2.528741114907657	1.3356780972136746	0.13675098086639925	-1.7423833564636368	1.1701873511333905	1.2494914500161136	-1.720899100727169	0.5630394802183241	-0.11121968151860907
360	0.031016319911849402	-0.4902300226232196	-0.613481102825041	0.18754199099874624	0.016913857268306975	-0.3516712775888305	-0.5616443143015889	-2.4826931890748196	0.25587990815409045	-0.14733895622247206	0.7384114842845244	1.4270089828702321	1.6077928502497953	-0.25531911785513706	-0.45572739724493727	0.8119609335426471	1.5885280330605802	1.8395446492481133	0.6774559003891977	0.695710180433442	0.8744475223398092	1.809191341600749	1.4551312886692862	-2.4418046412807146	0.15884238441417758	2.6760511330751635	1.4107392990734184	-0.05479182661647236	-1.7961878731200909	1.1856031387913077	1.2770968643369807	-1.776813860221923	0.5552608952808402	-0.08340349772376784
364	-0.1722293491783524	-0.6831483823694544	-0.9863946412931622	0.06534364057970929	0.010282457780209276	-0.38546535275413424	-0.5631237611858236	-2.591716044558231	0.2013605082911665	-0.12341614036394893	0.8465849139773857	1.4385232889095818	1.2030990093373448	-0.3601954272236048	-0.611389754659087	0.9093931294369437	1.6077262122571045	1.8866608095219177	0.9447527503956429	0.3891298761079956	0.9708228682802617	1.7314528183137436	1.5363874396634751	-2.315913432949878	0.023982314332374785	2.748499863360998	1.417121645210564	-0.18065583660290885	-1.7076556639472509	1.2215620248470658	1.292516943529311	-1.6924574332422144	0.5670058712948882	-0.06492943300304968
368	-0.5571654424905398	-1.033332106842381	-1.4893975220269862	-0.09371244883719032	-0.007300268374578495	-0.5190609084375746	-0.7552185039526316	-2.5280117924760264	0.20568546600863297	-0.11490758479432456	0.8476532080229978	1.3228007521610425	0.6705891473051857	-0.014597748369375631	-0.5988209828516783	0.9133100486584692	1.484923120564284	1.817239399136582	0.6230382307534873	0.28220093179025774	0.9756430958910776	1.6344528156976221	1.4602528773633257	-2.2637743892735327	-0.057795837375632576	2.792374365432232	1.4238568508438887	-0.15665781458403027	-1.4959887228388973	1.3033076491829143	1.340420838786478	-1.485780712191147	0.6298874600719795	-0.01908859978267178
372	-0.9593473648645628	-1.3919324839735012	-1.9225834559537436	-0.24414610801090966	0.011055917451184335	-0.6044021233557757	-0.9973819230647385	-2.363714450590422	0.2510232323030864	-0.0832227242872011	0.8232799151615608	1.2086464136125847	0.18776991915979188	0.6086472853552506	-0.42114850772385737	0.9041427351058698	1.3523184026907658	1.6910407500487699	-0.01480260394501599	0.43138083706661456	0.9699853038139925	1.620984073361022	1.310772534875737	-2.2185976449265334	0.035591050892616515	2.896109096844522	1.5116400680523723	0.0022215142324358353	-1.1906651228407223	1.4659950696171997	1.4799054823704705	-1.1845164269105066	0.7828294615054486	0.09321477240631411
376	-1.2347629039107215	-1.6154942471724898	-2.1257457679484375	-0.36671635415950316	0.09306496358262999	-0.5217367397487204	-1.1402641506016395	-2.231697315303616	0.30300161165984496	-0.004002009974001721	0.8627292492065531	1.2001770704485428	-0.10769766541946527	1.205818173225133	-0.14539036118039472	0.9640706753232187	1.3234832253419977	1.5461615284983559	-0.582947073895174	0.7944118956536045	1.0351117823215916	1.7447191432771976	1.188921806194733	-2.094335312324006	0.3438310316464822	3.123495570879801	1.7079447464736817	0.17582038000539127	-0.8230087736331622	1.7328354076504628	1.7392169193225835	-0.8184934833842472	1.0483294698950316	0.2849838428454721
380	-1.3312324251896814	-1.6430436331274094	-2.0579509683149153	-0.469732909208707	0.22867150546990878	-0.24723581907316963	-1.1152780027841693	-2.2475836220262027	0.330242960811343	0.1148762551029936	1.0095765565178367	1.3125103678944208	-0.17036436455152262	1.499027009994007	0.1298145350516596	1.1287449569814307	1.4261234962696845	1.3903696501914362	-0.8012507537639321	1.2454836337115351	1.203594443143467	1.9789260575876153	1.1577657431935606	-1.8500682068845078	0.7872498015554762	3.4707465084186038	1.9669339607169525	0.21410077756232226	-0.42543434989328877	2.096654409837072	2.092462295971313	-0.41966691507241616	1.4144294226221463	0.5320680724061995
384	-1.2971650329264501	-1.5183016023449407	-1.8069935991441395	-0.5629621729942456	0.381963758696355	0.1455187346837556	-0.9623064970516109	-2.434171908908628	0.3243864170467562	0.24370217261774338	1.2469097344388307	1.4721333943392507	-0.04738301399308034	1.3746243680580326	0.33010682380301976	1.377193328241366	1.5971671302525137	1.2265299527672622	-0.6355863197492112	1.6391526419262956	1.4504648410416026	2.2414500656757212	1.2220008342407942	-1.526937719304643	1.2047085731607958	3.871814002752075	2.203577751318215	0.04543567064854012	-0.03473319104485259	2.515454762783609	2.4705705580324286	-0.025758104333813665	1.8328818036533632	0.7857499698827797
388	-1.228161451099935	-1.3493283952978021	-1.5290909966963622	-0.6280426367161941	0.5216105567160494	0.541362165037916	-0.7892113904100817	-2.6992323330441024	0.30891865413872605	0.35884803442953656	1.5206971130124156	1.5725512464874534	0.158659860091175	0.9333020425121081	0.4494656909085127	1.6567710596216816	1.7326849655274295	1.0749480697194886	-0.28221037912643077	1.8842836570849872	1.7208186344569254	2.450298064721185	1.3394184078731763	-1.2315068213841525	1.4447010719063744	4.241512287875195	2.351173871779921	-0.25802773172082655	0.3040628127527467	2.922697775137377	2.7950158048634295	0.3162768475176703	2.232664579476589	0.9980449651315458
392	-1.1931567161953325	-1.2364616362825314	-1.3567105497438856	-0.6119155868339679	0.6463187320603713	0.8563969113662481	-0.6955048424327093	-2.8832034991903375	0.3293312183648382	0.46580415846522344	1.7819882586311002	1.5466281136564797	0.34578934224563346	0.42951780449189625	0.5529432282792455	1.923035020741422	1.7577693417992417	0.9716048812177404	-0.016521433326612624	1.986153716794831	1.9720429132263315	2.5718300277627346	1.450061794434649	-1.074221012264354	1.4567228518900606	4.526977050795823	2.4031457840327377	-0.5086094128165316	0.5422189221997544	3.2494428075765853	3.014082901020543	0.5557827339445313	2.544259064926461	1.1448540658656248
396	-1.1928158968373674	-1.2181893556356103	-1.3335919346518028	-0.45728608850420077	0.7849747518747882	1.078975793975372	-0.7142413836566137	-2.8557860779186175	0.42716246735489855	0.5978436454937637	2.01732778039868	1.4077552521449173	0.4517337072411349	0.13691106404070058	0.7351680379426156	2.1667010729445226	1.6704406696106677	0.9425857043310153	-0.00807084513653111	2.034663195241387	2.200917238400738	2.632769816427236	1.5043909511730915	-1.0986769171632411	1.3277860846374696	4.735382544959592	2.4136373935796134	-0.5137029277229528	0.6451665146751272	3.450989714492655	3.1233904282866827	0.6573266370389876	2.726283543379247	1.2353650300307224
400	-1.1737763852048344	-1.2639464108026774	-1.4105588162094944	-0.15547728499258942	0.9723024343737856	1.2584391800579149	-0.8012412766254366	-2.610125773515657	0.6113044604126288	0.7915450910610805	2.2505536022585724	1.2399189440893543	0.45785111073292256	0.2109342361131408	1.0589942905391871	2.413228267298908	1.5380257329256353	0.9690860485405366	-0.21246708875895942	2.1466219371004422	2.4404439864532175	2.6930050781922708	1.4738818369846776	-1.2434920041160387	1.2386420933921996	4.923167216268928	2.459284537781992	-0.20333386906308548	0.6148554071161574	3.5256895929966827	3.1624545971181086	0.6235198958867011	2.7822940279332684	1.3036152091491786
404	-1.081085559976515	-1.3102768626510364	-1.4952367506423094	0.22156950775472345	1.2191414802288485	1.4571036063599243	-0.8674654342684479	-2.289272540988331	0.8448803403504027	1.0571867200862923	2.5204007561945834	1.1485390634149149	0.3721953025003912	0.6182814820891969	1.512563820834769	2.7006916931630984	1.45517837633854	0.9770409440168208	-0.40586924450445344	2.3981575905333687	2.733267300380658	2.801844828207394	1.347922083312522	-1.3678499425685446	1.3632619346531873	5.157803999276381	2.590839141026509	0.3074324421273264	0.502323089761877	3.5182053953990016	3.1934122958619695	0.5071662651608735	2.7612318922900343	1.3886096442449523
408	-0.9073939300515799	-1.3103871312435924	-1.5201086959606784	0.5414408431688209	1.5002551040918586	1.7025490956236569	-0.8312837460510821	-2.121515030272962	1.0589936944927407	1.3664513791870658	2.852244846772163	1.203269359411683	0.21286144798895895	1.1667772502051106	2.0133311697672913	3.053387872616254	1.4913938007847636	0.8727617837805276	-0.33939096245908396	2.7878065038867583	3.101734153545827	2.9680468961166313	1.1318248481784887	-1.3322803940514765	1.7701278880250584	5.478670106406946	2.806127779551561	0.7663566450797534	0.39784476060556967	3.504181137774497	3.275330535248652	0.4003030945684792	2.739968531366546	1.514243122092431
412	-0.7019678336540321	-1.2568253247000511	-1.4798426590750358	0.6792186481493345	1.7726423695632045	1.9776798436777978	-0.6500808580198059	-2.2935562075882334	1.1883059710064687	1.6705583291791573	3.2465803541231186	1.4127436840628649	0.005638233371744958	1.6119046170545996	2.4573566851562445	3.4709885032757812	1.6650099712296036	0.6077684148702563	0.08942743368220313	3.2471942819627553	3.5370693117484695	3.1640984932168634	0.8509737827750512	-1.085633751989263	2.3817353188463155	5.881945118358745	3.06144975842964	0.9209721661203559	0.3995560993597176	3.561725845881164	3.447050085901527	0.4016803492895045	2.794455759622534	1.6797810750512578
416	-0.5354534374069602	-1.167563793095581	-1.4201389515307659	0.5947318062071868	2.0103993365074815	2.2488577309097044	-0.324288248197059	-2.8330843377110413	1.2091751068104075	1.9352313231245697	3.686549177398901	1.7362220243487605	-0.20642183668949018	1.7814958050572092	2.780460350646028	3.9352934261147543	1.9497889231091776	0.2314979577180217	0.7539406995811629	3.6873817350750215	4.0102248090585055	3.356104842295693	0.5562530145906218	-0.7058143001856111	3.0155270023505154	6.333279116853025	3.308482638589023	0.6658008677838887	0.5715782031887092	3.7408606911625344	3.7214374448279064	0.5744341597359114	2.9707565232612794	1.863704915109661
420	-0.4490862477408305	-1.0525921556600262	-1.390189644164669	0.3684349944826176	2.230193609329019	2.506560319294102	0.11808209836472461	-3.574771872078084	1.1571706504216257	2.167863363514708	4.153686036113292	2.117609733957138	-0.35964292197025427	1.657820578204237	2.9935507698773134	4.424068916595192	2.301988357454029	-0.10652127835082587	1.3585455383333078	4.04905413559011	4.491807449444188	3.5331272989715568	0.322313933750826	-0.36604669597714234	3.4816803844285964	6.793451292052286	3.526893606818106	0.10926084192823682	0.9109852290995195	4.042658318803278	4.0860948459458095	0.9136443711101704	3.2666630662458767	2.0362868257609694
424	-0.4262819577421772	-0.8908326603332613	-1.3928890193104417	0.16837768214152998	2.486917012611519	2.785732023835233	0.6377813203921678	-4.2266282928566214	1.1128756971872071	2.4164502559687517	4.6373143079025025	2.515762322749873	-0.3821857859975828	1.378904577588547	3.16849755440876	4.919023024537448	2.685835116281052	-0.21873107497304092	1.6033405025056042	4.324058044960489	4.964698302132089	3.7140188123393125	0.22933898808274078	-0.2416094684461242	3.6805767920074857	7.236660939065613	3.730663051722949	-0.4790227699106552	1.3429626192518624	4.417869556717045	4.506731021946793	1.3428052629900527	3.6320965198367956	2.173379654165454
428	-0.40947657720179725	-0.6403167231605773	-1.3700988258102422	0.15822927613840468	2.8376402783275902	3.145829431220752	1.1901864975443843	-4.5085425263062335	1.1600519389427935	2.737174980882266	5.12909792558787	2.913913957868294	-0.22437880876634556	1.1636232108301392	3.38521026710319	5.402546868989275	3.0820562761693617	0.01977395075037522	1.3578957284976072	4.541582096077553	5.420896516464919	3.928901185606601	0.3301843098410321	-0.40624427692843335	3.646496286722437	7.650424937959924	3.947036017943017	-0.8099464753682593	1.7511954263342717	4.787682044339267	4.93324469274495	1.745437617663506	3.990115155636377	2.266317123413231
432	-0.34945994527324653	-0.275952666301196	-1.2344948022191988	0.39926376838015476	3.293360463410528	3.620110264221306	1.7219911770259864	-4.29147909988283	1.3382712568827255	3.148229114213351	5.605766282233519	3.305569878815493	0.10921027483785317	1.2000509470205165	3.6729481127512336	5.845664963268458	3.476627102657297	0.5895205721276314	0.7440715413381053	4.731767165635223	5.844748482252706	4.187241543688486	0.6193695052721798	-0.7801852206559541	3.5142083079304554	8.018993357439534	4.183682431148643	-0.7282652240486056	2.0279915281592324	5.076363550721012	5.308197008082466	2.01560687509907	4.2679552924165876	2.3232884348386063
436	-0.24892915722464082	0.1740784193650673	-0.9261351204377651	0.8077830651869538	3.791786422692895	4.170812596281234	2.1743256990849402	-3.6559498217785253	1.617082949370322	3.6013605503709396	6.0169553604800345	3.675967684047931	0.5506348596022123	1.55056094731812	3.984216918422875	6.201481326658438	3.846723308387933	1.3148053851310582	0.07207167875451798	4.895108210602466	6.199267848575648	4.458870399661624	1.0236335966968846	-1.1654971808571462	3.432022801317275	8.308136919026412	4.411355007478122	-0.2893467240180812	2.1191389507196345	5.240937219739097	5.580461964823042	2.1020348018980726	4.42449520901355	2.3632054269253255
440	-0.16775049226846445	0.6208274944843496	-0.4614712584288607	1.1966884105986473	4.210669030049014	4.682763564684727	2.496055596725409	-2.843310348961468	1.9062284183058271	3.9902710813867155	6.290755256028991	3.995426167891034	0.9936157439894693	2.118009085076125	4.216774929844389	6.413341506024666	4.157650937073742	1.934345717314733	-0.33302658712229294	4.997544276017668	6.428531630498034	4.6828555942560275	1.4234414064708532	-1.354448315061792	3.472776165777371	8.46635720976464	4.575760829816943	0.2799261205281483	2.0403649755462054	5.2826399669787785	5.720472321372625	2.022998804706872	4.460427749816383	2.4045629440633394
444	-0.18310579611324856	0.9473611688537179	0.05691389352614991	1.3799681628672336	4.4198136218061315	5.008126246205794	2.6625151566994263	-2.129449600565429	2.0980944580512095	4.196101654902688	6.360160811578856	4.22844647293626	1.3395907845054316	2.686186783684339	4.270937431996461	6.437478049237653	4.373469818517377	2.222700828662512	-0.3118742398494188	4.9938535564224935	6.479591353269511	4.799700724881432	1.6988260703110962	-1.2494934765740309	3.5954742340863626	8.446502664221505	4.631015765895699	0.709970770473884	1.858800764159213	5.236389623772795	5.730824456051079	1.846329922782923	4.408333767251375	2.45514225339914
448	-0.32920035636756423	1.067527172254399	0.4796934115696523	1.280945178612543	4.34742163514198	5.041618334439106	2.688707344896237	-1.694776888383148	2.121209616073904	4.148698319451081	6.1989326320542775	4.352845180965689	1.5375364980025539	3.0165908260477807	4.109339703675207	6.269391520883954	4.475404251243415	2.099278683130617	0.04143204529553681	4.863292204976006	6.333717330200307	4.7867932198786205	1.7795015528573492	-0.9299741363887659	3.678451051961583	8.236802080339327	4.571839321037782	0.8318924286819916	1.6525891977547984	5.146449552893915	5.645870671322939	1.6484982925756129	4.3104920278438605	2.5075397428145787
452	-0.5602727518241253	0.9738090013713246	0.6765360219087015	0.97664540759509	4.0210790532632785	4.781378733960894	2.62156009012192	-1.5576957424890103	1.9752348611552843	3.866322746052072	5.84425209477227	4.37138127176972	1.5939462144662733	2.949972860517733	3.783348312362637	5.955717071755252	4.4715766793841825	1.6620773035047691	0.4359934617002019	4.632390964256485	6.025912269637108	4.671888816482203	1.672005053113493	-0.6205611809321655	3.6015565304424664	7.879356841221038	4.439879883046973	0.652986405631336	1.4713851176306296	5.041728006985216	5.515834794423466	1.475874301045199	4.196535099878401	2.540978663704885
456	-0.7671467642489012	0.742632387193637	0.5958030804850302	0.6525571925853921	3.5605630784738214	4.338693130983109	2.512289517735448	-1.6017814834207953	1.7299267009927675	3.452281704769544	5.390969739654491	4.306326378440315	1.5518368443409607	2.4763653215828616	3.4103219423022404	5.582269654485225	4.389803875330385	1.130909678464918	0.5549973235423089	4.3676485905047295	5.639085755415997	4.515451896711152	1.4485596381808121	-0.5731404409243279	3.32594679946412	7.461853008504383	4.298952568644479	0.3288369766516085	1.3212100234052933	4.925613390884334	5.383561597583351	1.3312175240285251	4.074207295621819	2.5303528244983142
460	-0.8407161810629731	0.4940808998985007	0.2875973575006626	0.493527709191737	3.1241447846690553	3.8879632851667463	2.3841876923447627	-1.6712158876186591	1.4899822435907566	3.0483071727084274	4.957234846950738	4.180592049534131	1.4523355924177999	1.7387624935119632	3.1159400861271482	5.241285787700863	4.257256020287839	0.7328428011511536	0.24241353510211414	4.143227566748829	5.272482858697538	4.372543800758484	1.2034294574871454	-0.928027687113895	2.923370115528746	7.0833291828609415	4.193947781464522	0.05823752641875456	1.1780835360347193	4.783958899817417	5.264975534497742	1.188888785221611	3.935814370708776	2.457704776280854
464	-0.7421032767633017	0.3307191125149291	-0.12019545554570633	0.5750545248771675	2.837796204077929	3.583627930176452	2.222884649386535	-1.671737309049838	1.3447105850601324	2.770519249596908	4.6392097356015745	4.003270139123671	1.3039371934394424	0.9754413341690222	2.974506132245343	4.995854365133262	4.084542740999777	0.5873363599253519	-0.39470329781061414	4.00283812465943	5.001911150701466	4.26143502113178	1.0015990708812397	-1.6265253979625098	2.5388073857104887	6.812782270397035	4.122600068174199	-0.034592300566120476	1.0198370192528567	4.6050791624150405	5.145377622964981	1.027356025962999	3.774687757498638	2.32154464135546
468	-0.5341572152003023	0.28980335520055256	-0.47983595607727275	0.8205994942927789	2.742615931262206	3.4877061755815952	1.996158237185832	-1.6169686276619315	1.3286966051887596	2.66023587508897	4.475912559652777	3.7718248272080146	1.0854879590285103	0.4262733746733512	2.9782135411410118	4.858371722352931	3.8669400117518076	0.6586771590768987	-1.0311565373135723	3.936986913277837	4.851327407032581	4.159321297634709	0.8496987202172352	-2.4270222125765817	2.3089818896171583	6.662487490045291	4.039925088219359	0.03734727939474756	0.8515899159865388	4.397205341681327	4.994208800104458	0.85416954540126	3.5991182236401507	2.139729255996018
472	-0.3514807811446093	0.3352172068238697	-0.6876771432680546	1.051172849862218	2.7851591039910986	3.5455970674642434	1.6869617657985092	-1.5990959365525756	1.4128336870762483	2.672785513805454	4.439695823904371	3.486797800797512	0.7824022154127773	0.2406752699497569	3.048436872415131	4.791758525194453	3.5993242172919744	0.7961862067147987	-1.2974277701999568	3.887990703303274	4.788299548457581	4.026280869808983	0.7030367833507352	-3.021652690887906	2.2834451140926433	6.589288694911497	3.8921530148467203	0.1474676575513784	0.705254016526137	4.18969582453556	4.788916098901581	0.7040792089805801	3.432219735063116	1.9430506180343323
476	-0.3219982675528925	0.39116486808245676	-0.7243634444068149	1.0963367196059783	2.8549339699190597	3.623451700598978	1.3205736842192777	-1.7148235993005525	1.5268483123377055	2.7096302440896274	4.456740844918465	3.168790094004579	0.4230622638511515	0.43060767541886263	3.0796339434118054	4.733179557294255	3.2946224129465262	0.8330535271592847	-0.9873315070973765	3.7784554862946673	4.746232974467109	3.841256131964358	0.5049241172440185	-3.1911613860623547	2.392782443681095	6.522736532909115	3.6584796813149847	0.144281476371793	0.6162852629360642	4.018166531908327	4.534263122554772	0.61434650266035	3.2988276398341028	1.7633455947224799
480	-0.4870685326676701	0.39354351063550275	-0.6536260230728059	0.8990640021513158	2.846301071610167	3.5853609948235663	0.9649541949704936	-1.9918804118411026	1.59955608440908	2.6744205884168046	4.4461078531545395	2.8624551223964088	0.09064655728103858	0.8816799499185949	2.993731729578395	4.6273794057364235	2.9907848759481395	0.688940523315524	-0.18394777132321996	3.551590433690567	4.660946357403384	3.6246638206520703	0.23565240144837746	-2.9146022723044225	2.485744470042458	6.404734118503673	3.372827282973077	-0.051101848354065865	0.594897507119244	3.9044244190820954	4.265241135318948	0.5952349886171102	3.2097361006761025	1.6222766596843576
484	-0.768392441716917	0.32706910289203384	-0.5832069501457385	0.5548901543912733	2.711920731373273	3.366089573944678	0.6960296017239869	-2.3642456471833193	1.5956156213529276	2.5232031281662675	4.356262672869902	2.6166872912145447	-0.10457722816290117	1.4138979876106708	2.776726954125303	4.452105987752433	2.7344825198752702	0.414495943930305	0.7617980222541961	3.2016823210943857	4.501685607988584	3.4297075185014654	-0.062125775806215505	-2.376488679607853	2.4138560234160975	6.218637927567271	3.1078734319421923	-0.3989245881499167	0.6134617313155379	3.84520625097294	4.0308699506079435	0.6177058800360541	3.1552085796803486	1.526726361234803
488	-1.0034079526363162	0.22775669338420576	-0.6080669745351825	0.26177897983261716	2.482817405154218	3.002705328035963	0.5508866296211079	-2.71141433031254	1.5304212531551007	2.2850713672165894	4.183686245845899	2.451838487156871	-0.08707609750697588	1.8577637625520291	2.485033505841372	4.225787152111675	2.550024741410317	0.15103015265480307	1.3920665944239072	2.7838373113918964	4.2832350622754705	3.305908433196963	-0.30026745720393366	-1.8676758957438613	2.117260212321058	5.993666633732192	2.928896419759788	-0.7713439445094529	0.6200795157989517	3.81700538625227	3.86784218765285	0.6280189736722781	3.1126446645351264	1.4717090092695215
492	-1.0311356756879535	0.1539946343587061	-0.7606658320295461	0.2119811618936549	2.2489430847608074	2.6117372446877356	0.4991332577978083	-2.930849306336279	1.4595254622803235	2.046148533423449	3.968373765462997	2.3361339510110084	0.12748092380762768	2.1131169742638916	2.222115987889452	3.99706195775812	2.414377921684433	0.030707903128818416	1.3660440410456993	2.4008336006584488	4.05625723768374	3.2580158628222744	-0.3983044912295615	-1.633527513194465	1.6662788349043784	5.785803780253089	2.846024267640529	-1.0381274197117438	0.5728441462358975	3.794601669267818	3.7797448539671934	0.5830520972790031	3.064506284606005	1.4477765523597301
496	-0.7775955180562912	0.15076248309695378	-0.9891275738538587	0.4883114683220332	2.115807766340838	2.3297736585923743	0.4591263521046724	-2.9947824402538425	1.4507702552406607	1.9099508475719416	3.7749566936551857	2.1949756090059487	0.4216895390831176	2.17144798684245	2.0988519138751025	3.8262858294203674	2.2617518844721207	0.08239232727944809	0.6348790510360921	2.1732582991089977	3.8862879178156295	3.2315878786513275	-0.3398582926752655	-1.7475746825918874	1.237250324940208	5.650725350418348	2.7993516851320233	-1.1527973384362071	0.4745050060689883	3.7721104526650575	3.735943784818137	0.4854702341220533	3.015548698441159	1.4491580688128463
500	-0.29547503515983525	0.228194042464141	-1.1776465147803294	1.0207341883637508	2.1586794798709033	2.2501609268597833	0.3494931450603026	-2.960181467211929	1.5528738459481448	1.9531900833407638	3.6685361769560982	1.9518133352592177	0.61907631002527	2.094540590720094	2.1908233110427995	3.7661220932288826	2.019249672559966	0.19775772044797538	-0.5215457068626975	2.1976840440577043	3.8303606413455045	3.1362304608317793	-0.19889779338687705	-2.079692358488295	1.0312768194864252	5.622023568264251	2.6878569058267288	-1.1861083477591485	0.3823772659184403	3.7698454761693108	3.68934129737171	0.3933430006109846	2.9948191567149314	1.4758869372298593
504	0.2656864219156473	0.3680803766494217	-1.198610898806379	1.6264167983000033	2.3958394466946173	2.389521115945799	0.1474858220668278	-2.926729671718384	1.7753124192238217	2.197534555608985	3.6957499887617797	1.5811849792613706	0.5673363194446887	1.970678801329446	2.5082206662747732	3.8485369585145794	1.6571130710725392	0.1831141258623349	-1.6148346621750707	2.508160346374413	3.9210932155793174	2.896897070246463	-0.11626245797129324	-2.372536414832065	1.1784868210602513	5.70462559213407	2.428914063996976	-1.2859837976412645	0.3828849186767106	3.8212892912707512	3.6039121059980426	0.3939075758048717	3.039108507112755	1.529490824652506
508	0.7401476483731586	0.5490711913551225	-0.9724651550536116	2.1062993950116953	2.7902085710651416	2.698178522927134	-0.07990623990388511	-2.966436140200288	2.0860619492314907	2.6076438361134757	3.8780703446704834	1.1457724542300054	0.2239246511766261	1.8754129362440415	2.990452997286868	4.082167138283607	1.2276762692926884	-0.12351614950704895	-2.1658000891363725	3.0582365912472005	4.164042939163316	2.508802169187734	-0.22936578037049965	-2.378455871299053	1.6779452519968108	5.884708866520712	2.0186827131802936	-1.583904739195605	0.5443653450573418	3.9485487838235973	3.4777073772364786	0.5556603060044717	3.1678683677800996	1.6071783263637125
512	1.0274128887939713	0.7676975707698799	-0.5095303045759864	2.3397526681954757	3.270502797452613	3.098713866993394	-0.19650283406236496	-3.0716245096856896	2.4241468845198764	3.109277717369555	4.211512554979746	0.7894588092899196	-0.3098028890417365	1.8492548419039563	3.5241742045117395	4.453547943315199	0.8643182494276085	-0.7393562179018291	-1.9153377961438511	3.7271885777784743	4.54122494504696	2.0590343423356177	-0.5921888336489098	-1.9884420583112703	2.3963468014296643	6.142756923425356	1.5533434113384998	-2.101063961446422	0.8741549827439901	4.141298760448767	3.345636836188089	0.8852627851069979	3.364666453449614	1.698125477318175
516	1.1322736711525143	1.0399104330510534	0.08798170812566493	2.328778976282874	3.758918991135252	3.527063122427419	-0.06383692457055867	-3.1529488483933292	2.7214224269822185	3.6168551353690512	4.668436515465528	0.6806076747876733	-0.8247542956510024	1.89829384801336	3.9816055197325686	4.928951250983329	0.7313787322652321	-1.4944750032840033	-0.9304735041014333	4.35472010466701	5.015804278107796	1.698669429305022	-1.1304068536828622	-1.2872014013216622	3.1262574116931403	6.4602765873881	1.1953321665148522	-2.7102141311883727	1.305063721222853	4.353845108483916	3.2615563787129935	1.3144656386566962	3.5782985596912504	1.7859488680571356
520	1.1451928586656728	1.3804973329022137	0.6657288057685372	2.174336189502394	4.191981305029057	3.9532408614484695	0.38343620203484635	-3.086906186893201	2.9236917421911417	4.057612408883932	5.200809465628984	0.9344781017552021	-1.092492220027672	2.0054316470058637	4.2667922865906664	5.45750807337932	0.9498491263250061	-2.0872328228705026	0.43407615909655267	4.79607485513961	5.536739812223468	1.5795887668783157	-1.6568436580788348	-0.5074226843420498	3.674937954207391	6.8173041171568585	1.1017470331985808	-3.177637092196964	1.7217105583590924	4.5235929374926	3.270422927228816	1.7271550850177095	3.744405260169088	1.8564336253025797
524	1.179841992260443	1.7759172871574753	1.081442472588529	2.0073780962807346	4.528100002300556	4.370673168591576	1.0906343432547139	-2.7832493711773165	3.0056061668805683	4.383923042673113	5.742739186093019	1.550494547744008	-0.965113041348419	2.1464116519142054	4.350686062318796	5.974911674673099	1.5324330291204804	-2.2168767396269233	1.696585531719646	4.975663649394444	6.041908248905805	1.7836160614758063	-1.9467912863217018	0.08500849434132435	3.9410939117110715	7.183571797353947	1.348079916411489	-3.2692398942423004	2.0121035525065967	4.600050437757327	3.3838701162734437	2.011456007647392	3.815126647853693	1.9040235232918628
