time	FP1	FPZ	FP2	F7	F3	FZ	F4	F8	FT7	FC3	FCZ	FC4	FT8	T7	C3	CZ	C4	T8	TP7	CP3	CPZ	CP4	TP8	P7	P3	PZ	P4	P8	PO3	POZ	PO4	O1	OZ	O2
-200	0.051507856566799265	0.7950955013228076	1.371030684824308	-0.3419149807403701	1.1096504898665538	1.5055012664931642	2.213843578471251	1.7469472841025657	0.21410584395711538	1.1655243605750951	1.918783183021749	2.3755214154348803	2.05887507872518	0.2406004512195915	0.630250154334522	1.927419657609319	2.5056300100007967	2.2440235558120465	0.9075783468220493	1.21312033823813	1.9612443397596377	2.7927672792495994	2.0913972801811553	0.5761446938273569	1.5642565449321626	2.4631071028510765	2.75000595352138	0.8552412369116158	1.4685846530075732	1.1298185558404146	2.2562353554027963	1.41574453950115	1.0486888859021197	1.168874260812304
-196	0.10761841359385588	0.686312077696855	1.2317799298658236	-0.5165796266864845	0.7488211970496853	1.1132489414718483	1.8453457308908767	1.518416758518356	0.015853505541591102	0.7794769386638764	1.4751807414003435	1.9925564477204383	1.766090507816746	-0.2701041393613113	0.08728629328624561	1.4705598317211532	2.114335054781446	1.7799394085767637	0.5774153456414706	0.4021652032712058	1.4829692803134797	2.367655032855864	1.770242209733449	0.33059728062131577	0.9972941850278506	1.756828065251325	2.2254447880824637	1.080393073215263	1.320551868919345	0.9889981125657334	1.8326353980524837	1.2876927820119497	0.9559617614452237	0.9848666762282029
-192	0.08937793202484214	0.5616908655290409	0.9377980804608091	-0.6604876501573802	0.3698882451255397	0.7686235289241277	1.3549540008667897	1.0996363135231237	-0.20895402080708994	0.3750705411501296	1.0111368869048274	1.5130656919425107	1.335517522301055	-0.7281658631060159	-0.29387491867255744	0.9912495588071499	1.6398466784083081	1.18022703826472	0.17707322493192326	-0.31031864803167575	0.9854698752318068	1.8191251708832246	1.3482810224824533	0.18397535337252013	0.4058106829411095	1.0151773665546604	1.6078587729867504	1.374038573610659	1.0958262654294106	0.8025487641099286	1.357950564770662	1.0670777532339273	0.8045767525386462	0.8473656752173273
-188	0.09931788568455299	0.5071492778371554	0.6318669303199725	-0.6555380804677282	0.1377689983942703	0.6096410735950816	0.904689190487791	0.6633292419852278	-0.34976246864704025	0.12787055936954067	0.7077888828527449	1.061759230794047	0.9031753517236076	-0.9135693884672322	-0.3714518537679848	0.6745216233389583	1.2017861574348367	0.67488843032198	-0.152520969125	-0.6600204689528102	0.6575412733642819	1.3093203273140959	1.0155042384257833	0.16857381122466822	0.015478556936642714	0.48422169563109546	1.0645508739296992	1.605405684232568	0.8765856005471491	0.6381988509277653	0.9823281144136282	0.8331041911072159	0.6506608708166508	0.790351329238533
-184	0.21859545950535814	0.5697526321331376	0.45644083503877503	-0.45247784142695446	0.15437656602030134	0.693731187022606	0.6434560401883264	0.3705285480204227	-0.33646261607098477	0.14500072561848174	0.6717785579886756	0.7569886426887019	0.5847439155120363	-0.7188633662194073	-0.14398010038740836	0.6312438829697085	0.9055748559022724	0.4208608259065753	-0.2965236894750435	-0.568431912417539	0.6095122083534026	0.9705519055657968	0.8850477315491913	0.23273244441400923	-0.05130862804214052	0.30385658068234456	0.7241311055020669	1.6655815797715563	0.7272013407466957	0.5502936230117347	0.7887995223157236	0.6573054773901458	0.5503525124006241	0.7989979366156892
-180	0.4532579172134829	0.7296885233576037	0.4752431201857008	-0.10383066508781309	0.41269698634855845	0.9765806173463827	0.6319142564078047	0.28843179272308894	-0.17099904970864976	0.41735336079130053	0.8946747757257825	0.6538020355883832	0.432764111856747	-0.19823212871570614	0.26506799392534164	0.8552451112135164	0.7938895205481119	0.44008892663470134	-0.20849323220065596	-0.15993526537569752	0.831472692774543	0.8587804415001533	0.9478659009844016	0.28697806524300984	0.1743562217125028	0.4604022789298354	0.6347293241687942	1.541595693510799	0.6651736481085008	0.5561947212481786	0.7733541111494278	0.5701173529535974	0.5335174189448987	0.8259764888890361
-176	0.7246391158882051	0.9087278819982851	0.6388109310234185	0.2594791048174429	0.8054460862805005	1.339439269498795	0.8114199021833868	0.3640432944643324	0.07916218022387128	0.8299921730067051	1.2680022684508236	0.7195776682805921	0.42457610261533474	0.46295603992878936	0.6827695352482185	1.236830827451338	0.8304477313055733	0.6290896519036752	0.0715697703938734	0.3276583246064733	1.209704992101123	0.9438554620754596	1.0943483086612915	0.2677149169838443	0.5385621176473719	0.8165074566253454	0.758754072657847	1.330861922718693	0.6614354236115607	0.6323959215410185	0.869970557877388	0.554295419247206	0.5920471534086365	0.8251501897006011
-172	0.9128898359138636	1.0122817729187825	0.8160074332615871	0.4991361188207503	1.1822097271635228	1.6483560758935378	1.0410565111579009	0.4681602704626012	0.31960737624537605	1.2235789268118833	1.6430745083333251	0.8590186216600744	0.4885829376759773	1.0379819843788591	0.9791317557409732	1.6231526095417652	0.9276913381042767	0.8281967022966691	0.4305707503415175	0.6844093782311389	1.5900968273071077	1.138196107851734	1.1859716147043788	0.17598640874299393	0.8567932822530037	1.1965905397721732	1.002908704132938	1.1856775253877996	0.6670362336483844	0.7318973522781134	1.0003182862775397	0.5659803733841168	0.6885986906786002	0.7820541838928126
-168	0.9234621501495613	0.9782137250044604	0.871545312588378	0.5409613238028136	1.4192300999095253	1.8100988819198078	1.175402519119491	0.48383796092900033	0.47581654666931467	1.4684020243764426	1.8988906097153446	0.9685457920416565	0.5507048354550019	1.3541212047720905	1.1198010416368855	1.8883930397040065	0.9976542566860296	0.9037225819659089	0.7270043473962104	0.8341468551556394	1.8496190262826144	1.3439511026783217	1.1323672504445754	0.07188542169064574	1.0110251878008003	1.4751263819644456	1.263849255231939	1.2193906276433806	0.6482205374564181	0.8116948584090415	1.1153649063560325	0.5681449756583148	0.7792987207764479	0.7223986369013995
-164	0.7383057456449599	0.8061426857622318	0.7420462351183956	0.4053832580345043	1.4664770327736367	1.7991613104218487	1.1402318448842528	0.37984007501069206	0.5220136033230031	1.5136010608605315	1.9842867801158899	0.9879375075192779	0.572953699572718	1.3459347452514385	1.1530419558977478	1.9785755822772209	0.9956579779282524	0.8051072934804525	0.850072977780835	0.8494618513594959	1.9399059961932117	1.49372231583168	0.9368157959173907	0.03310266128765489	1.001752493236504	1.6217365223947666	1.467652078737772	1.4328488075320016	0.6114234908879447	0.8563960172965787	1.2083605497369636	0.5584243521896624	0.8388476946632716	0.6960360986302511
-160	0.4227071989831209	0.5506483302518975	0.4670937347540055	0.18478965712622442	1.3509339060054184	1.648753281245318	0.9633909439559163	0.22540041747405526	0.47858539102839764	1.3897063697060503	1.9185002993783593	0.920803246557489	0.563094793328536	1.0484405729526125	1.1497814626274763	1.9136545609796438	0.9329773760128363	0.573333977205425	0.764059899308422	0.8760355688865504	1.8861658525529525	1.5677081306931016	0.6890950781590364	0.10362452242437786	0.9299464798336599	1.6857999520654805	1.5882559974625121	1.71020304724923	0.6016195401261067	0.8844773151001308	1.2985246148703442	0.5727335796201183	0.8730346538436204	0.74688976814526
-156	0.08665294923362254	0.2833025448322152	0.15583427211040912	-0.015281936115186313	1.1399161786863194	1.4153301680117178	0.7399067263995848	0.135127171532883	0.38397544525476784	1.1690992087411183	1.7551600888761418	0.8121097663402754	0.5499153719369451	0.5524755106328739	1.1363954515376156	1.7507319406176685	0.8509470202896147	0.30395442170649634	0.514668403756587	1.0151830886005444	1.7468922094109323	1.5815720518235648	0.5119847642369953	0.26481714777843773	0.9215781665422573	1.7347701744149873	1.6387650925269446	1.8856778097227638	0.672587631434814	0.9314748025264871	1.3992088997800203	0.6598891599207015	0.9092586017540253	0.8842601753797623
-152	-0.17535048678949083	0.05019292222701956	-0.08424437769839424	-0.13512740995146152	0.8921639300709584	1.1424205274348793	0.560456810966727	0.1812559659673147	0.26316600971536097	0.9140859819221963	1.5368628463090033	0.7032677513486567	0.545737145953384	-0.03970653926241961	1.0674158307782398	1.536134477551687	0.778323827208963	0.08928237832892784	0.19968427667270267	1.2406158415943085	1.5640448292344549	1.5569513996869344	0.4912815081590475	0.4459823060696664	1.0394099924547826	1.7884062483457313	1.6447293716866909	1.8404815150523275	0.8465134480084804	1.0195883486754818	1.492966886565704	0.8425807931607739	0.9706399416259078	1.0710625621456804
-148	-0.3282846800145141	-0.14906701407943726	-0.2093274290045038	-0.18483407748763112	0.6272642596620375	0.8435849526087696	0.4503570485665558	0.33341601406794974	0.11373683781518279	0.6448780281951427	1.2684775558870627	0.5966327175335642	0.5241931067583573	-0.640418647102886	0.854541716802298	1.2759501901836867	0.7022445780190256	-0.025978160956478518	-0.08726946987530022	1.4017220700159847	1.3345295157117525	1.494703527491495	0.6262679084224876	0.5635992870406411	1.2350734441092173	1.7904198124504498	1.616110916825779	1.571538921203144	1.086329576610614	1.1325294942872444	1.5295305213458261	1.0877003642276974	1.0502877208895383	1.235095736246307
-144	-0.3994587649750451	-0.34713116200542926	-0.2546209388503233	-0.22455282452632797	0.32926803744153577	0.5101346360678383	0.35867202191395925	0.4670515942702557	-0.082251295239685	0.3439156702418496	0.9227303243228567	0.4547969985446648	0.43316784391711377	-1.171263691806027	0.4326026130721358	0.9404123401740574	0.5744491205017123	-0.053869619829545565	-0.30007874889905123	1.311755057837734	1.0181527112050464	1.3677040303985029	0.8260125496990341	0.5666939005849215	1.369948860524366	1.634499068901851	1.5334699115183752	1.1876105040129852	1.298178550303652	1.2118235795896706	1.4473493062670588	1.305097576661	1.1025710078058755	1.2973866429951655
-140	-0.44647204763222686	-0.571491955267937	-0.29577180668542263	-0.3184485129422564	-0.024329176111188833	0.13267222013355595	0.20380188473268024	0.43768778332830943	-0.33220851337481616	-0.013211819309912234	0.46933454156635646	0.2349985981014869	0.23638804197233804	-1.5525457819841293	-0.1822390402722744	0.49436297887918806	0.34919068129115355	-0.03887927522379971	-0.45069759970362017	0.8647955634217647	0.5724832401126937	1.1353678674642822	0.9540460681669793	0.4587188649516942	1.2892839876048563	1.2262266843354106	1.3541127409125537	0.8370916822279774	1.3649939264166977	1.1787298888010316	1.2040941684840023	1.3785197700028484	1.0587205860110696	1.2035764425407904
-136	-0.5134762512594443	-0.8110066631822024	-0.3880568434931358	-0.49248418087596646	-0.432862072090188	-0.28219124603550616	-0.06328438951488582	0.175726308975012	-0.6125990732938816	-0.42635461580397493	-0.09545939391592102	-0.0724918393450595	-0.04396750766859095	-1.7135333971630018	-0.8816699959429426	-0.07022737693937306	0.021366858800943737	-0.021095814130092566	-0.5846029505274984	0.10993003817460177	-0.01129654140153507	0.766858039350338	0.8968598223930868	0.2851551465941241	0.9074461437202712	0.5418540821700054	1.0317946646389264	0.6145818217973291	1.1965259283374	0.9717101430201479	0.7969498018170883	1.2156621187035144	0.8603178240989634	0.944266793728016
-132	-0.6022494420105027	-1.0064079736095768	-0.520918427582665	-0.7147498112752642	-0.8574727752017275	-0.7056310755080341	-0.4126713861536921	-0.25527366931361056	-0.8686636068346978	-0.8554416873314893	-0.731772838175492	-0.4216612268769208	-0.3153803936625118	-1.6187223155160853	-1.5055488309995748	-0.7143625598991362	-0.35470870047659325	-0.009072746127289116	-0.7382461410003349	-0.7577010374012588	-0.6879715902125016	0.2653417878604261	0.6230626090531388	0.10108555827845202	0.2595391564969025	-0.3436574331190122	0.5455605373913603	0.5078068362766573	0.774518368672886	0.5824662432269849	0.2665338509506019	0.7957286814626578	0.4950505184549363	0.5580964074349362
-128	-0.6760667545415696	-1.0760946246634933	-0.6215490683121787	-0.9095277167245067	-1.2329298226699272	-1.094403383352925	-0.7411061506633717	-0.6811506134955615	-1.0380285952109558	-1.2333961694094726	-1.3624439205103551	-0.7231842857222004	-0.4510377634104945	-1.3033788171285963	-1.9121032904986361	-1.357509490400438	-0.6826751810957773	0.019880114073032747	-0.9116908884872338	-1.4862210713056359	-1.3664272989106374	-0.3214994958866713	0.20218829759571716	-0.06306409819893276	-0.5093488680377481	-1.27657735025443	-0.07804254422749536	0.41770636929909155	0.17013497607668368	0.07015012186935861	-0.3175363830655615	0.1896489406804308	0.013997808994774534	0.11705377668391403
-124	-0.6915578824702928	-0.9628475880155157	-0.6039778574953356	-0.9990898345518204	-1.4983965120631648	-1.4062970841188138	-0.9278891063151421	-0.907629726025716	-1.0833533974952032	-1.4985642395331393	-1.89836537358691	-0.8888996817080755	-0.3562723389213606	-0.8855462647968338	-2.0386097379712913	-1.904734725911527	-0.8713209011013652	0.09412473416406077	-1.0646834346593448	-1.8853466463172277	-1.9412735651594855	-0.9118544436320845	-0.22825401963779482	-0.2114038611081404	-1.2080954282776721	-2.0816628880395944	-0.7620547990632403	0.23555600583685785	-0.47684663413772227	-0.45562940720917394	-0.8803821779911769	-0.4597392964676726	-0.4809517252223286	-0.2984597973440719
-120	-0.6330692156067015	-0.6727280003729057	-0.4303804923158748	-0.9427276229898672	-1.6235617358224705	-1.6104013879171595	-0.9022850371468455	-0.8261205533150945	-1.0134453747911498	-1.6218165118278534	-2.264663928989915	-0.8755950309581277	-0.03153862796211685	-0.5315048085144941	-1.9188997697066354	-2.2761285247556473	-0.8783878661866723	0.21585963611939737	-1.1407484979438616	-1.905591244654787	-2.3263993204508693	-1.4114091360697132	-0.5286489115719365	-0.36144813803968645	-1.6777453380187388	-2.6217400961486867	-1.3944917882044054	-0.0709617285128936	-1.0079483960452629	-0.8751093723137241	-1.3585652078660342	-0.9892611478624631	-0.8745022990082194	-0.6235102399342719
-116	-0.52730798588181	-0.2825995974558314	-0.14309410714738147	-0.7565381507846269	-1.6165898997499848	-1.6910129742843747	-0.6814267618141087	-0.4744037079754483	-0.8788023568853939	-1.613916154601401	-2.4186389385193783	-0.7047463637678667	0.4088112999608164	-0.3836462786048268	-1.654190059300134	-2.4275543628437926	-0.7281919699403616	0.34728470356998303	-1.1041834326522684	-1.6439411598661713	-2.4777407583622257	-1.7393253997758007	-0.6238283499226349	-0.5136194812204778	-1.8488408280423918	-2.836360208979626	-1.859795208050135	-0.4214008141845546	-1.3040374484517014	-1.1043933602106373	-1.7076367096702603	-1.2767248121452321	-1.083711621409399	-0.8248475769198405
-112	-0.4301017213929641	0.08795174934116035	0.1519535031058486	-0.5089633451963144	-1.5134383401807054	-1.6475825268155957	-0.36005207805328193	-0.017550164789354988	-0.7439452987007897	-1.5130647382681965	-2.355841869128365	-0.44854542499782646	0.7823089341439394	-0.49037238831690616	-1.3562030757995491	-2.357374662169539	-0.49497711533508076	0.4257209588269676	-0.9591248607261781	-1.2775380579164943	-2.3989062248698576	-1.8509652567861126	-0.5365504012866369	-0.6331747754323321	-1.7522720054254868	-2.747167580344342	-2.0762321896585303	-0.66116142106022	-1.3286842074226775	-1.126328465479048	-1.9031267118088364	-1.2867088285384818	-1.0902838679443194	-0.9044361687713582
-108	-0.39181855222005807	0.3272128990971914	0.340314268206646	-0.2871221594713906	-1.3557485307796397	-1.4936255178888092	-0.059042107164804396	0.3395457259188525	-0.6535258276651914	-1.3609933818787634	-2.1059040970085428	-0.19186451982694425	0.9222158766350992	-0.7750795464020295	-1.0989376278788305	-2.1003129429241483	-0.2629679434812724	0.39819747109013753	-0.7423378210399008	-0.9690591668458107	-2.1315600818223075	-1.7490910247511449	-0.3674353053829687	-0.6604049189106408	-1.4859580956135507	-2.4333159862118143	-2.023492569582945	-0.6548505408919799	-1.1377431125525845	-0.9921890472157276	-1.9384947966270725	-1.0801851722148113	-0.9441932415965489	-0.891229627266463
-104	-0.42795750390722787	0.37682080173721755	0.358659981775745	-0.15766531189212502	-1.1721167534798986	-1.255982515025055	0.13515357639045184	0.45435976867401884	-0.6116051062401168	-1.183854696145881	-1.7229059891116894	0.006276503655114016	0.7552763204579177	-1.0677417489750487	-0.8995814896759491	-1.7146722035032054	-0.08789887257079747	0.25630888278145586	-0.49771141880260356	-0.7946612814867151	-1.7387578443496825	-1.4801130257430544	-0.23297198057959556	-0.548837064311036	-1.1620742053256272	-1.9946902939980098	-1.7483875707352818	-0.3753647198736758	-0.8506495931129363	-0.7929983119016804	-1.8246183349318557	-0.7830924371975337	-0.7361153345596393	-0.8248793461954255
-100	-0.5130125867289071	0.24896651443565948	0.22197627965196612	-0.14004999363825957	-0.9744076108172925	-0.9736895536634964	0.20024107346046618	0.31074887435657833	-0.5858526215067041	-0.99000769603639	-1.2754714456780596	0.1280052509652318	0.3334891191645822	-1.1899642914292228	-0.7336975913597193	-1.2699520555857935	0.016733622136186992	0.04640820238198178	-0.25228184397898584	-0.7311463337558396	-1.2903946605527967	-1.1200177641247415	-0.20062360116850766	-0.30546253842479565	-0.8650279023265125	-1.5225858649912893	-1.3476248945544222	0.06646935624983695	-0.5984947070270016	-0.6177622064252247	-1.5925625522459508	-0.5304051028211647	-0.5553620443627687	-0.7393234353472855
-96	-0.5973253235041056	0.011482062720575226	0.00437975999724748	-0.19796593437281132	-0.7656251172762719	-0.6922419053720081	0.16796855586082465	0.01001174745416155	-0.5325980769062041	-0.7801798562379378	-0.835124967373934	0.18539285612982842	-0.19703213820779528	-1.0404692861990563	-0.5673337564449699	-0.8349675515074797	0.06686159206437171	-0.15287511012103885	-0.0114349499056121	-0.6973376256502805	-0.8519741275257909	-0.7525901179386072	-0.2558821135259416	-0.003701437488166275	-0.6360030754244285	-1.0843421193402412	-0.9327627992921866	0.47068518281355676	-0.47039919972864647	-0.5180420266423564	-1.2932684388887417	-0.41015705362715743	-0.4538946438296884	-0.6527646763533315
-92	-0.6367718561308005	-0.2475711697049905	-0.2082539493548093	-0.25873890453816856	-0.550968764821401	-0.45084503179209984	0.08859979338926402	-0.29884156509289445	-0.4264143098555668	-0.5603348002591798	-0.46131312730667084	0.19682863304988468	-0.6705718023535998	-0.6413824542064707	-0.38163453244176937	-0.46492633106151016	0.08305842408429254	-0.27696508099247236	0.22675304057568935	-0.6149607881278543	-0.4745779919563315	-0.4465302217653808	-0.32254734553917713	0.2422454947077554	-0.4802073526179305	-0.7195832115125422	-0.592046438152901	0.6494548304373106	-0.4821668255076519	-0.49389797324414686	-0.9889808272187922	-0.4327662874262758	-0.4318586278979278	-0.566757379531447
-88	-0.6158941968626802	-0.45593985800070275	-0.3624117961316595	-0.2519778900937212	-0.3431697777190136	-0.26866486600755374	-0.0035675552117904468	-0.49970009796819115	-0.2758359902093428	-0.34702002914552615	-0.18677207780412639	0.1691091801426891	-0.973652419969895	-0.12226477234489083	-0.17973490013997062	-0.18959186923320245	0.07224592548249831	-0.31527995983631885	0.45188781504981257	-0.4521542478112859	-0.18642383766790538	-0.23945121406657874	-0.3241961292187912	0.3362479201410458	-0.38244709275961836	-0.44298750050281044	-0.36562120822148747	0.5211613761141561	-0.5788752422022684	-0.5053367601987567	-0.7369784694184525	-0.536922215059807	-0.44906598216165805	-0.4735920119249464
-84	-0.547975777196206	-0.5759623036148047	-0.4525009084244243	-0.14626386724737267	-0.15871009190543262	-0.1391885724129793	-0.10343722972980526	-0.556467174078759	-0.11580919445124316	-0.16129778284833934	-0.01066575010408258	0.0951810476761033	-1.0749953958073208	0.3507871618951093	0.022448189499922434	-0.008107740411553925	0.025690555507647348	-0.3154352299355667	0.6331707223164977	-0.22903284372678612	0.010518830243017625	-0.13463602926117382	-0.2442537689002634	0.2585104399353213	-0.31926092424849384	-0.24883145031093945	-0.2440228307046642	0.14246252143177485	-0.6674415452318337	-0.500799654649909	-0.5721698984959006	-0.6261044128822816	-0.4537856865393141	-0.3680940261130408
-80	-0.45409792547018163	-0.6001539811240696	-0.5001026975403101	0.03513078010153272	-0.007090224866549338	-0.03563865637722037	-0.2185266310419775	-0.503803430715781	0.016845967578079213	-0.014761574529094896	0.09838613842919593	-0.029833584948557444	-1.008046266871737	0.6551969630865399	0.21137866324462523	0.10833540531462942	-0.06504583342342155	-0.3474599114228579	0.730283735338828	0.011454061576117534	0.1389132138559734	-0.10824967148391708	-0.14458329939101236	0.08366028198339251	-0.2610234611596742	-0.11309780896957862	-0.18588273180283935	-0.3336774996439192	-0.661520717858019	-0.44457569606116326	-0.49432900423175186	-0.6158157571503539	-0.41019490257649427	-0.2551869445556813
-76	-0.341839998097432	-0.5375303016442703	-0.5243706093900502	0.22657754960075246	0.11551587999504401	0.07175145280127068	-0.3448806694383268	-0.40815448657937226	0.1063996699746299	0.09886277442051954	0.1862227166957798	-0.1918648029490062	-0.8342254140772549	0.7561938743572735	0.384308158381064	0.20242394455824173	-0.19147817742164677	-0.4534621823306124	0.7181158047665217	0.2410110527152513	0.23549173712879104	-0.12525805799330886	-0.13011474874547407	-0.05331638441929837	-0.16966274337848175	0.0022408077436735017	-0.14571936391756302	-0.7459286432506834	-0.5176432715698158	-0.32989096558251063	-0.4679033148396233	-0.46866676093030135	-0.31064200322876584	-0.14905190430202483
-72	-0.19982370683764147	-0.40325036543124676	-0.5252785669416213	0.35626473932917097	0.22388806882598758	0.19697353194096784	-0.45648208145285546	-0.32741141236611465	0.16637660520986042	0.20065407404307214	0.2907404594233453	-0.35432118087956443	-0.6108638032749169	0.7014680487088524	0.5474669919496878	0.3104393772393635	-0.324382870570401	-0.6137901529074211	0.605661867519923	0.46650239707468183	0.334627865900141	-0.1558177765250092	-0.27997556258086465	-0.02756865501893973	-0.0032118160662175784	0.13983181083661012	-0.09649167930559915	-1.0044313643845257	-0.2461867177231267	-0.17332799688923978	-0.4357496190990415	-0.20166318067657177	-0.16902235107663177	-0.06464573724637687
-68	-0.01421845886991792	-0.22005873862973835	-0.4925924527129276	0.3873872449154196	0.3329466572938509	0.327458947070203	-0.5202308880069169	-0.29198568985652645	0.22796158435010389	0.31237569372464813	0.42348295343291403	-0.47459584354739665	-0.38702013990917483	0.577502189608689	0.7058567982972286	0.4446223664979046	-0.4289207745690109	-0.754480002405729	0.43950950988430265	0.7191017251932622	0.452509461690928	-0.1851369137858091	-0.5887120947279393	0.20564241655405263	0.2670951776913569	0.3328655055701941	-0.036841247137753	-1.116091010136853	0.10254445646145231	0.002247772872360822	-0.3409793070290484	0.13183899190518328	-0.003474057643285065	-0.0062741343704901765
-64	0.20665723033227507	-0.023583255648675625	-0.42905065308964857	0.3393013766782127	0.44773206001727506	0.4324645687151845	-0.5199460374102544	-0.31256264369251413	0.31734067121493564	0.4420517075821994	0.5679736719096627	-0.5260471688340596	-0.21629239564169647	0.4601775992219218	0.8572615363411769	0.5903025850651102	-0.48412021872362154	-0.7931431511881188	0.2888380877831746	1.0231527064240509	0.5829505905692068	-0.2102527315076608	-0.9525677537709925	0.5835991487073704	0.6358436330000569	0.5934909567153855	0.02063703531776954	-1.146068570104502	0.46623486162728295	0.1849966193535232	-0.14592136405819683	0.47203910231621143	0.179279580259681	0.04049733270910966
-60	0.4207742501602576	0.13900773192118734	-0.3646630039544975	0.2781955294737865	0.5610292539737045	0.4846120166464216	-0.47148072600536534	-0.39394995470719996	0.43739390262798633	0.578800140350041	0.6941818577406149	-0.511641262670022	-0.1591100092685434	0.39170876046465897	0.9922569369059554	0.7182454448685809	-0.4933732139528692	-0.6951855999560983	0.21949364189521078	1.3667055333917464	0.7055383306809977	-0.2280184322799149	-1.2143940894937642	0.9659082269123599	1.0526233884938097	0.9073859430292001	0.06908795220098167	-1.151023981049327	0.7940332273463026	0.3781020631780745	0.1567459996557528	0.7748193721282418	0.3848671307383564	0.10514724973119086
-56	0.565047560695737	0.22232262734072028	-0.34494265826873666	0.2791291468248687	0.6585181338850394	0.4797734606073835	-0.41331490769938484	-0.535905061799283	0.5644584283882644	0.6985962969308245	0.7789812664391756	-0.45888504270090846	-0.2614463859156102	0.387198327994281	1.098787901011533	0.8038246015281246	-0.4776016163688636	-0.5037761913931875	0.2727469496993349	1.692815537947121	0.8000891784494819	-0.22439858260719986	-1.2448738781970226	1.2052274911969003	1.4304227792864788	1.2362701861639962	0.12019672959498519	-1.1313037843751779	1.0533223125566813	0.587781427806766	0.5423040972369234	1.0151776049732388	0.6167203172371813	0.21679153983694657
-52	0.5916203841531222	0.20537209458951752	-0.39625865120977866	0.3783412566169542	0.7279155235985914	0.4426248360425902	-0.37771904373171483	-0.7146110516625774	0.6625432355365592	0.777750013295159	0.8191786387742105	-0.39946696061368103	-0.5136299120332872	0.45441701893518105	1.163317677421792	0.8406249263520523	-0.4558956015520687	-0.3209344736579495	0.45764180902332224	1.915766711166572	0.8577640631000094	-0.17421603158834503	-1.0129114363846001	1.220916983382935	1.6721392827731882	1.5267109832364898	0.20054270276459052	-1.0344636414159403	1.2193577258795476	0.8039313534466478	0.9597367024032527	1.1733093232095537	0.8563452341393583	0.3840868463355718
-48	0.5027827607812242	0.10766513618466123	-0.49518555277733406	0.5495107756092312	0.7652031163923276	0.4130187024179214	-0.36462855246990433	-0.866488335329112	0.7045112830494661	0.8051083067594111	0.828965661816975	-0.3485375931999985	-0.8244507888005724	0.6040733441360248	1.1702598303812544	0.8403697588684131	-0.4292998899111476	-0.2503748529788567	0.7514553051095937	1.9561746071064219	0.8819349981929449	-0.054970752309055744	-0.6027553066294342	1.0339627239825127	1.70552646683196	1.7219098762907181	0.33146446859596346	-0.8069626668583365	1.261618849430075	0.9866732930067836	1.3408068384650689	1.2192004888270271	1.0528808805585892	0.5802362546576334
-44	0.3618146171971626	-0.012125616862558024	-0.5656335339570444	0.7158858758018148	0.7743197659969958	0.4211422492361718	-0.33773818526828	-0.8977971054298134	0.6882337314395619	0.786019263667195	0.8241989591770322	-0.29721909686388226	-1.040102598425324	0.8374056198912166	1.1036779852658491	0.8196797350215721	-0.3798425188011217	-0.3357163063156363	1.1005767556060153	1.776761408134653	0.8789950587014661	0.13118623163957366	-0.1716466988759828	0.7439526896767232	1.509144183163349	1.7728708937706965	0.5035458790463568	-0.45788290981082996	1.141479370096252	1.0704849931392653	1.6093949038880235	1.1109578581417563	1.1323194475195861	0.7426078896846962
-40	0.26698234609908195	-0.08040168116058788	-0.5157025443408291	0.7937937954888443	0.7594830374616095	0.4651822734055295	-0.2520416372611475	-0.726333854748825	0.6368706210269439	0.7347754817531161	0.8027679303882144	-0.2264449143653009	-1.0147608492980216	1.1175290317930735	0.9515017843065207	0.781205413753354	-0.28942051456812684	-0.5313751088077904	1.4197756016171323	1.3981416190133666	0.8443391897818532	0.3392190030593411	0.12666362492053101	0.4623888719328611	1.1156935663664942	1.6457350212508022	0.6614009721269676	-0.08997435100012008	0.8271903970814669	0.9869844292517257	1.6914451079579051	0.812049148416692	1.0249457333436574	0.7905997613973296
-36	0.29772028251821075	-0.046301875146551534	-0.29551023170248625	0.7433581929512344	0.717379389382181	0.5063551055521732	-0.09546724682785036	-0.3371989420483585	0.5842966422587711	0.6622815711466559	0.7362577896602928	-0.13202461566970639	-0.7005051952795817	1.3579690422104957	0.7166747432734254	0.7035002690673384	-0.16565877157348155	-0.7291844468780109	1.5987307984996035	0.892463681828777	0.7552899103168922	0.481527684903339	0.20756156690168526	0.2500031584149758	0.5961559995858542	1.3275110688071703	0.711898444285698	0.12962807682211175	0.32142802991776603	0.6975066644224366	1.5289761981508145	0.32095616974859303	0.69942569556078	0.6558688862453964
-32	0.46587383629478996	0.08868914820213733	0.059921353904117784	0.5951147660489018	0.6343516691404509	0.4835903036305838	0.08119919875624966	0.18537758243964328	0.5564261064786125	0.5663143978125947	0.578574477165491	-0.045926581952251404	-0.19720952163019898	1.4463129007063211	0.4260084320279935	0.5460183606667243	-0.05825877919985362	-0.8233218768313768	1.524542685474325	0.3548130086046868	0.5759669527770854	0.45190718655931567	0.07584086786434067	0.08894482232525586	0.03140670425711049	0.829380092911052	0.5557024464882215	0.04584372032035192	-0.31851634302783954	0.21723237578859236	1.0963983508085204	-0.3075674764497241	0.18422891153075446	0.3114817730668861
-28	0.7008628231473311	0.26610252193977374	0.43232825289292737	0.43355527410717565	0.4914622890461948	0.3410775950880348	0.17562724605564542	0.6736820919194165	0.5575557337035436	0.4309582997408686	0.2889338724470868	-0.03298578775541632	0.2761743955792007	1.2977629867213272	0.12826882270376314	0.26873192123275674	-0.04714456933754871	-0.7733845095181865	1.1241464586486194	-0.13336439397042382	0.2738929383992156	0.16902433293106556	-0.20190665074870334	-0.0946268287892198	-0.5127996193336624	0.1885260636815034	0.132848873399063	-0.3989771296441536	-0.9838575099900586	-0.38215383790806384	0.41732922091022745	-0.9657347177918567	-0.43547391781532896	-0.21154239720340984
-24	0.8809164144209499	0.39624398846720094	0.6727911812962081	0.3471077075777694	0.27507167985131764	0.05324547724393647	0.08540345706835069	0.9427821612396989	0.5692961797646001	0.23585569799003187	-0.14349143170845108	-0.16072830517243186	0.4872511314964785	0.914540169314238	-0.12277571080919608	-0.14420248531650387	-0.2040974343630528	-0.6245027764765657	0.40968477622547206	-0.5306062088921291	-0.16032522876315594	-0.37824708127844686	-0.5459961281342791	-0.3741006841751155	-0.9948619578992868	-0.5328933583156759	-0.5377738462222076	-1.118432638205587	-1.5453427990997883	-0.9940465663608181	-0.4264735568723239	-1.5245952567708843	-1.0454364988635172	-0.8285492637696255
-20	0.8914781786345489	0.3980523635827982	0.6737185699619269	0.37156203295357393	-0.016355482820106026	-0.36714476254274464	-0.2337333554088729	0.8791322685933927	0.560344933048766	-0.033243365501872554	-0.689066050697104	-0.4606937456420511	0.31699940482213573	0.4043875922483676	-0.2976643733615526	-0.6716172678203206	-0.550538121263986	-0.4745166587770125	-0.4955487238770336	-0.843813417211617	-0.7025204879189942	-1.107470748012621	-0.8982561804027144	-0.7689839582101745	-1.3920700514932955	-1.2551996676225514	-1.3460839952815793	-1.9047931384632595	-1.9012167405764762	-1.5133782586989237	-1.3043079343290094	-1.8821562481090353	-1.541760202329964	-1.4259189331293318
-16	0.6826121789864088	0.23580014646124145	0.4243918646587992	0.4662349808365722	-0.3690534522752456	-0.8749126173818172	-0.7271961551426134	0.49685507887327757	0.5003263341669427	-0.3745269765934728	-1.2829091516529336	-0.8957951046261522	-0.16936294691717962	-0.0597727930526805	-0.4091411818664929	-1.2563248841037804	-1.0292248699905684	-0.4110879589669092	-1.37288474690001	-1.1138389082443456	-1.2956149545383349	-1.853869195072238	-1.2213401763597718	-1.221577879682536	-1.688424702196183	-1.8927506160632441	-2.11309813919619	-2.512062066411559	-2.0182831236427283	-1.8706718636012873	-2.064174408469491	-2.00383042783266	-1.863419647280486	-1.8957374048053979
-12	0.2896670989829401	-0.06902787071919977	0.013864414731426572	0.5336000905869934	-0.7562372069339158	-1.4074144327869522	-1.254266020469147	-0.06871309859093566	0.37186583782722704	-0.7662680725778408	-1.8442660523581411	-1.3586946691541595	-0.7507474403500283	-0.32135191478658004	-0.5072805272646195	-1.8206524802970931	-1.5121198854416027	-0.45443174128240343	-1.9730831334843253	-1.3859087193784192	-1.8629708243064607	-2.418479913327519	-1.4707630835593242	-1.6192716319209484	-1.8663742495145426	-2.368735545853624	-2.6443777017586467	-2.7569081713689436	-1.9428704927982758	-2.047907347277041	-2.572895758808628	-1.9328892182186788	-2.0033113905872666	-2.1668906157144296
-8	-0.18795354616872006	-0.4504633534502443	-0.4187998463070577	0.47582727550534715	-1.1422865361937624	-1.8984295081845264	-1.6502852398214674	-0.6226875170245143	0.17795845821273115	-1.1689131230405994	-2.2988049925939023	-1.7073013739396006	-1.1660042971736149	-0.32271978177607696	-0.6487957222770484	-2.2874705733720306	-1.8465229226222184	-0.5435450659380139	-2.1105754322170855	-1.6776807265839655	-2.327192777480116	-2.637501709954718	-1.5756510456358161	-1.849642748931175	-1.9077604960912657	-2.6286642485054728	-2.796095602605454	-2.5919933253650256	-1.774326200773858	-2.0701510853953193	-2.7556807925268276	-1.7645138457571279	-1.9945741841502804	-2.2218384686640786
-4	-0.634658811874203	-0.82555794507448	-0.7554882745742039	0.2555064552531931	-1.484623905248267	-2.2829246463357786	-1.7989271833777623	-0.9962087248445864	-0.05767485484820518	-1.5298908910272284	-2.5914111071963295	-1.8178765727876223	-1.2536721197901044	-0.1360913958689801	-0.8541308619868985	-2.5947294169718873	-1.9142118644068868	-0.573302029115906	-1.7430865720609214	-1.9593645284774575	-2.624380105068413	-2.4423804221477914	-1.4542911015986537	-1.8515932513218805	-1.8021073295870793	-2.6471660070342	-2.5257823403484765	-2.116780275722538	-1.6134978492054233	-1.9796209285346524	-2.615831368517731	-1.5960036475894357	-1.8817114782508442	-2.0927281326863403
0	-0.9663990115562013	-1.1235855789426992	-0.951109406930955	-0.07819595913217929	-1.7349545911854567	-2.498326056848461	-1.681465621517647	-1.1103833885768615	-0.2942371659002653	-1.7909012987697297	-2.6882171562988417	-1.6343029696210352	-1.031108257551426	0.07927075008405554	-1.0780812474688413	-2.7013430527195594	-1.6783162313049562	-0.46007385733795214	-0.9949042771969705	-2.15788864544602	-2.7119185856060666	-1.885245556839944	-1.0627748939384554	-1.6367802578609354	-1.5567202528750792	-2.4282500682558545	-1.907288188887258	-1.523499961821257	-1.5141015014568022	-1.8091164781671	-2.225046390637791	-1.4802929125605322	-1.6946964221129044	-1.8408192349687722
4	-1.1497371167718755	-1.3012585607099993	-1.0375049088032815	-0.40888565675498595	-1.8419669820056694	-2.4900925096585556	-1.3745011056529484	-0.9873399113522686	-0.4797447609709966	-1.896265144328907	-2.572436087789281	-1.190372940872771	-0.6674624068574525	0.1777437175793088	-1.2145348756643681	-2.586647503997907	-1.1961663931210225	-0.196177392702713	-0.10962829711176877	-2.1840050165348677	-2.570655816263624	-1.1185101242435993	-0.4493867147543847	-1.277941104523448	-1.2003601759168305	-2.0002405592961914	-1.103278514937573	-1.00934087975299	-1.46207165348941	-1.5700728853639498	-1.6893866019511394	-1.4066280091057712	-1.4406168424473869	-1.5310744008509005
8	-1.1877398460918214	-1.340370770884993	-1.080205557003273	-0.6087237581143043	-1.7591679051807203	-2.2238297406317074	-0.9954264138838846	-0.7103986126130016	-0.5611748681205232	-1.8026660635257932	-2.240599865024792	-0.5912810549112726	-0.3680469682461095	0.12339758841830943	-1.1408058376119907	-2.2480626049504084	-0.5893617257497061	0.14303062820085594	0.6463469846619234	-1.9719065377994298	-2.2039666120197476	-0.33501887236888034	0.2280078375543328	-0.8734264351727399	-0.777313826505794	-1.4079413378454364	-0.30482914966868907	-0.6953647715178407	-1.392616149247349	-1.2597659794472653	-1.1060827942578855	-1.3167878356112823	-1.1146857710351763	-1.2123054235368182
12	-1.0903539630063983	-1.2361788718484308	-1.1175696821607075	-0.5987794980190193	-1.458379980219922	-1.7016178326560374	-0.6319518073339184	-0.3660713723000171	-0.4975370454147534	-1.4900064430764743	-1.7050677494869269	0.03321531034070567	-0.242154463514252	0.02279440494087133	-0.779881892619458	-1.7024902062347675	0.01057581880253704	0.4407775986986975	1.0873230668272218	-1.5123647413217218	-1.6376383263249554	0.3039883069469656	0.7496998887207457	-0.5075089918674667	-0.33476647650121616	-0.7060113531407409	0.3353296807882769	-0.5892178997422262	-1.2342064349485036	-0.8821234084746042	-0.5335795865892424	-1.146290060963928	-0.7226420622700477	-0.9106485820666781
16	-0.8567880966489213	-0.990388748529477	-1.124108073257481	-0.37906381392141963	-0.9445446109766128	-0.9742198561867241	-0.29754057451466664	-0.004639568726925569	-0.2736728482489381	-0.9709219311996282	-1.0020349000427369	0.5803940281519555	-0.24311174390925025	0.0671558452937237	-0.1475853320210291	-0.9916598771807478	0.5133441673669554	0.6007574185462521	1.1668565243824618	-0.8646472074612933	-0.9212710834131499	0.7203997355392587	0.9293889379878386	-0.2298564011015684	0.08937003440942934	0.044515121615791964	0.7469429354882654	-0.6074582322996284	-0.9543450450644179	-0.46736720086354455	0.009421080327089913	-0.8667722322514604	-0.299004822214522	-0.6379647238836786
20	-0.48277968046368513	-0.6140394791358871	-1.0218415234515923	-0.015000359117365409	-0.26463603906574495	-0.13717311586079398	0.06358701719680761	0.3621596386825739	0.08956420398987554	-0.2948415867990841	-0.19606976161568157	1.0094739173197926	-0.2128381127705883	0.4105263044006087	0.6451917870444482	-0.18399560405053145	0.8968231655366425	0.5973525032220545	0.9714561080247566	-0.13837724889150627	-0.12580116061396981	0.9313300824493378	0.7120553237103509	-0.05718654752240595	0.47281959533525225	0.7799008468964487	0.9485453343284809	-0.6364455803061237	-0.5833998307757448	-0.07575813661760132	0.5202101455905873	-0.5077880012089558	0.0924654973198956	-0.40543916719116246
24	0.01434217296644977	-0.13404297794831718	-0.7295722346959406	0.4052891124983193	0.4961043881765492	0.6915099007313698	0.5241984115717289	0.7376924138517696	0.5365686403078921	0.4570581901454775	0.6241505726314772	1.3402755226628824	0.002945963751537424	1.0579636070243332	1.433196779447322	0.6308650358484725	1.1955531805371213	0.4868733870611681	0.6612411720747282	0.5402119146059446	0.6641108972948387	1.0178936694195064	0.21674933974855215	0.014108438009166072	0.8043329099374859	1.43783866996142	1.0151269410253076	-0.5993553980953852	-0.2044058138931809	0.21981409136587543	0.9804506873172331	-0.14706139229361503	0.37902253770501687	-0.23164445103334858
28	0.5738983735853782	0.40150618451791054	-0.22298756185499455	0.8144360164106962	1.2311464517027502	1.4031652176716427	1.1071838112533967	1.1158500881632791	0.9901610587870099	1.1858590811353271	1.361345406909918	1.6208316046800715	0.44306245334342625	1.8314956380379663	2.061154121917058	1.3573025430743002	1.4616786204627534	0.37599763179262535	0.39507385988624716	1.0686532232006527	1.3634401525406157	1.0708880397462188	-0.3072113685004126	-0.0009481929567917326	1.0764539214612923	1.9649701068858512	1.028014538076815	-0.4929765748452128	0.08591585584644926	0.36589214113362994	1.3416107859117696	0.12565554646715119	0.5114157186947613	-0.13803638483005762
32	1.0915961238003813	0.9226289368223498	0.4274519373115194	1.1835854023614656	1.8355566216855503	1.9234918307378273	1.7423877672073391	1.4706358872476946	1.3716198171317804	1.7927155449428225	1.9297536562835411	1.881972427385012	0.9906422470830668	2.440808528459743	2.4376389918771695	1.9126630973209533	1.7200127796615967	0.3666805615704059	0.2726995640068581	1.393104788123984	1.9007559966735255	1.1412471504007935	-0.5936219677242711	-0.08127558955891706	1.2781189647830085	2.325000995487969	1.0332406733175266	-0.3754997541960735	0.22093866709717463	0.3560825279305526	1.5399013718826917	0.24889354344947745	0.4892767059370889	-0.13490189577852318
36	1.4503706657030953	1.3480397428810116	1.0651390525628577	1.5086523256359043	2.2265608254484204	2.2193248215909573	2.2761330547086387	1.7602210000419531	1.619538660728868	2.195272440136181	2.2700586261656257	2.1039612240123495	1.430851813518489	2.625788205193032	2.549838536500509	2.241055721346883	1.9412066887482162	0.5063361512751825	0.3135345272254455	1.5047322473682136	2.2265024128966884	1.217483994271119	-0.4870904075722474	-0.20275774546930234	1.3879787886862422	2.501608365418665	1.0267403099840238	-0.319335340647308	0.18691363883511053	0.23519740939363326	1.531172033258796	0.21021474844787358	0.3617143323825812	-0.2094767684416115
40	1.5658826788468192	1.602720494992216	1.501504655861775	1.777555938047503	2.356364005815279	2.287816757148012	2.5296466286687984	1.9393362949998867	1.701318855758599	2.33996962910191	2.3550701081897616	2.2147011700981145	1.5702162941389175	2.296416038437336	2.4407203135856985	2.318432325231726	2.0481529184128955	0.7676231245687434	0.4701125013880007	1.421530123936311	2.315156215544563	1.2390978305050016	-0.016064291779371638	-0.34095510754333064	1.376696583133062	2.4948909219694384	0.9700324510878908	-0.35918506889256807	0.01675220202150366	0.07534465174725778	1.322998043534751	0.04037595157562133	0.200970157473518	-0.32674798286911716
44	1.4215743505826226	1.6367404419583258	1.5911055763127395	1.9495955656420143	2.217780346039437	2.13998960908374	2.379725450229564	1.9668949792793677	1.6156260926464001	2.211132282396554	2.1868901197532913	2.121424908050289	1.3399695124173783	1.5913280208464797	2.170736545804207	2.149307483968662	1.9515978048642542	1.060350415413693	0.6596553905044826	1.1697424620659103	2.1631576960308614	1.1338946790677331	0.6263537987153921	-0.4770980465287501	1.2193257777900286	2.3129537047163837	0.822005150626968	-0.466310976758469	-0.23717127680503158	-0.06487239135814366	0.9787586306656213	-0.21137519127407584	0.061814173899987376	-0.44730463511066987
48	1.0746690007733548	1.4404883348335755	1.2938497033831238	1.9632443140053817	1.842601890680214	1.7907710030165795	1.8194282008964977	1.8088396741974622	1.3877332175503876	1.8344150735316942	1.7894345476748001	1.7594064429685092	0.8234240391922638	0.8159655908010605	1.7874585344961953	1.7586743787232262	1.5960190255877489	1.2688196865472097	0.7954249361936494	0.7745423297400252	1.7854235127194118	0.8559493400897596	1.179318901899215	-0.6057055577244331	0.9083955264998568	1.9618852088986447	0.5646769390154593	-0.5690448269782169	-0.5348521457519841	-0.17778891280109563	0.5837616309686179	-0.5065512048329891	-0.05315290378025342	-0.5556145892420444
52	0.6303832515059694	1.0512984964530874	0.6953455788222715	1.769610877337582	1.2963139978104958	1.2635821072147302	0.9694693064054747	1.4414269887771285	1.0619958612332079	1.2751586405030682	1.2037831514483495	1.1340413064935104	0.19442774306323243	0.290833710889861	1.3221546378133087	1.1865785091959498	0.9937794183436093	1.2955136266424725	0.8086820224371866	0.26798343590787954	1.2153507440399938	0.40602379934796584	1.4373390638301742	-0.7352909427198323	0.4665225732468874	1.4422420226877295	0.20875284023031973	-0.6091353877900839	-0.8638576843385918	-0.31702867070264656	0.19111506592659186	-0.8314464071262635	-0.19991055080485995	-0.6801931840889517
56	0.20264400490619686	0.5516732917208673	-0.021650155951555613	1.3732085193296126	0.6698277575747471	0.605118571184167	0.036531351414477255	0.8655462839208153	0.6947997790914413	0.630328653651493	0.48819911356691525	0.33467048322104775	-0.3865095069186733	0.19188877891730657	0.8073176125170779	0.48776316519612867	0.2311436975126936	1.091300603972331	0.6656911952377789	-0.29659768864134534	0.5075241314472014	-0.17134828822266823	1.3344217505142708	-0.8768438674723088	-0.04768995183586657	0.7577397208156204	-0.2192073607870774	-0.5949077591181194	-1.2288055388897519	-0.5691268429692208	-0.21585562770704636	-1.1876538961942722	-0.4620394695060699	-0.8872534610281804
60	-0.1219154891273889	0.05173364641121898	-0.6464008672606644	0.8491587617415782	0.06343691780048094	-0.1071804312145715	-0.7678567747756729	0.1314111944695492	0.3477111151976296	0.00902364214466649	-0.2823561720871833	-0.4923667001214108	-0.8480228760289615	0.4681647110086258	0.2936819486355843	-0.2682454579256506	-0.5600828514263503	0.6694433076169165	0.38095632099290494	-0.8417128303257461	-0.2628532939473364	-0.8070617893823477	0.949347612845132	-1.029317734026894	-0.5490832314933368	-0.06691450608763747	-0.6941291672347665	-0.612518607023638	-1.6253575045557296	-0.9978170965751448	-0.712469874013717	-1.5687055548162547	-0.8954850412648134	-1.2428243128869505
64	-0.30286586208171173	-0.3430779269616466	-1.021680114073948	0.32212421216698495	-0.43692421802834214	-0.7772812227651842	-1.306908961811151	-0.6473435743200519	0.07598898540623357	-0.49602258080180156	-1.023349759379181	-1.1972506016067495	-1.2124139039900357	0.8785632826558033	-0.15406885704242526	-1.0023518775428522	-1.249237295811433	0.10254192326405576	0.02124232793451601	-1.281769272429127	-1.0086842749878018	-1.427067633840543	0.4427519727495751	-1.170701977635082	-0.9468585824902407	-0.9676631664640509	-1.1963793009116226	-0.7803217152921451	-2.015414471306221	-1.587441321179779	-1.368454333665041	-1.9374719809253091	-1.4754488430918664	-1.758120293946793
68	-0.3501593163709529	-0.5737043008624795	-1.106580254621925	-0.0882321966447011	-0.7874231914666899	-1.3239728178929466	-1.565023060662039	-1.3151395287688252	-0.08898182935898734	-0.8394041636254898	-1.6585743385401635	-1.6837922292159353	-1.5383387765192051	1.1266686887905668	-0.4856607007639522	-1.6410933691552825	-1.7520471767059618	-0.497763543064328	-0.3084116570315466	-1.5546593626825285	-1.650454517012202	-1.9632246444726555	-0.030857715677792823	-1.2648432222857038	-1.1727344960167911	-1.8369797421806144	-1.6985961155921334	-1.1673867673010447	-2.322642320490872	-2.218566888929907	-2.163260692856773	-2.221978897206815	-2.076803678991194	-2.347870105537652
72	-0.32257336296655587	-0.6648951156041686	-0.996114251482856	-0.3267405918931837	-1.007773754436512	-1.7217558578890073	-1.6452676016276537	-1.7343999103625773	-0.15717461665525048	-1.04458594058472	-2.145674938506642	-1.9464514206380508	-1.8502111388223184	1.0144476864951624	-0.7012642008242351	-2.140316004117706	-2.058040375281853	-1.0155651543725899	-0.5028620349585753	-1.6547214943116098	-2.142411465004139	-2.357382768401208	-0.39030727645559365	-1.2837136951460806	-1.2080560892122196	-2.5446352894433333	-2.1476514285224035	-1.7237206653944226	-2.4564783511130517	-2.696090929853791	-2.9358770773196787	-2.337557309924651	-2.505952351918928	-2.8318962979343776
76	-0.3244644097242479	-0.7366202455042569	-0.8893827177481158	-0.43160202990281754	-1.1833033531831005	-2.024436468735225	-1.7230030254731388	-1.8548304987807482	-0.18651089025138004	-1.2030739753866024	-2.496690743818532	-2.0681652970549957	-2.1047153419761435	0.5340318666326562	-0.8684192277917356	-2.5059711869866295	-2.226699346642529	-1.3661744560081386	-0.5088770376708974	-1.6465430218133374	-2.492859357262043	-2.5640957290762074	-0.6400642378859462	-1.2305034367965368	-1.0963854762052814	-2.9789836331495656	-2.459033006181675	-2.269964689245697	-2.353494876641615	-2.822134726074868	-3.4113199624718398	-2.2251200619785476	-2.5744812423556507	-2.9909806176010876
80	-0.49486744278897093	-0.9733890866499423	-1.0147292588363703	-0.51922929155864	-1.4381140434195872	-2.34966444375944	-1.9727711627743585	-1.7615355208745107	-0.270798682482803	-1.4438779317641046	-2.777521126410285	-2.1786222402880817	-2.2233407441272046	-0.14998213908952454	-1.0992956133744478	-2.7960853506065786	-2.3550884664203062	-1.5216232499805973	-0.36636477616318314	-1.6430234867575262	-2.763619892772286	-2.5568942959126266	-0.8302811363238466	-1.1484411925884408	-0.9312940812439844	-3.090813152139074	-2.535407775199663	-2.5607247287948014	-2.0120263048871627	-2.4803004202209977	-3.304230443241482	-1.883363003744111	-2.180513376452741	-2.6557187967007163
84	-0.9771599148874921	-1.552999492539014	-1.5377403458871712	-0.7297575455360793	-1.8843886804688164	-2.8244550156808264	-2.4964206155690922	-1.654614325160574	-0.5065606819714845	-1.880737419148384	-3.080986968844791	-2.392041915576275	-2.1648867075621405	-0.8102765062855473	-1.4959748945613442	-3.097695581244622	-2.5316448147752033	-1.5161354503499824	-0.21035633928118005	-1.7566801265233662	-3.0443313044933675	-2.3376066625704004	-0.9987151597557082	-1.1051856251469914	-0.8226473906728013	-2.9176778719670677	-2.3055803717577046	-2.3938224255205105	-1.4995679817486227	-1.6903349118471218	-2.4543187556290023	-1.3758792842459653	-1.35813521995971	-1.7870615675629935
88	-1.8674192381441064	-2.5619082386184733	-2.4931509431835486	-1.1593326300914601	-2.5694551403023	-3.5170719534768144	-3.284537545494571	-1.7608811810858187	-0.9510328745672566	-2.559689992164113	-3.4830472381391346	-2.7534253527742214	-1.9832171151634514	-1.28642308387215	-2.093046421488637	-3.486165991564488	-2.796477310749632	-1.4275803529936064	-0.21850313191083415	-2.048112625673129	-3.4107592019752087	-1.9426757048196417	-1.1336868972765708	-1.157186624466385	-0.8533114173325953	-2.572932952106874	-1.7645249322210281	-1.7084623532076044	-0.9263676977610915	-0.6045899375909888	-0.9230315661967909	-0.8065911511083895	-0.2682631605051042	-0.506517528208776
92	-3.153885118151097	-3.9342732330173544	-3.7666766548424726	-1.8133529378884599	-3.4437243851500363	-4.387434948334413	-4.219004620390518	-2.2182960454247316	-1.5907472331892547	-3.429342261239204	-3.9991943735242206	-3.2145757594010664	-1.8193080379329338	-1.562922354566879	-2.8291211056806422	-3.982049931962892	-3.1219053189612085	-1.3365830149283697	-0.5213509188840634	-2.495004647631383	-3.8828399083333682	-1.435870166968038	-1.1752414673697147	-1.3147621121590605	-1.0438280079236697	-2.198706382922311	-0.9876756047107961	-0.6171576365147943	-0.39772522349077444	0.5533944950437006	1.0059673760765095	-0.27509343554660576	0.8661981203144332	0.9432504153278722
96	-4.679516780482719	-5.4488010268925136	-5.1318960060251415	-2.602087491141542	-4.366447437706249	-5.283920274745321	-5.111806856600764	-2.9899215622753923	-2.3363978803774077	-4.349030483709695	-4.563959110181212	-3.6513216403326907	-1.8251007749254498	-1.7498010352779167	-3.5657634645080547	-4.528040397655932	-3.4212987336563625	-1.2814686266016388	-1.122101900128696	-2.9996309204662106	-4.403765190450165	-0.8865070916681873	-1.047763702608252	-1.5333527287870428	-1.3427786793185499	-1.9040200662224744	-0.10689681741428507	0.6465187056430878	0.028500702160165065	1.5770113428354458	2.9292955324601966	0.1631254251653116	1.8479855013920243	2.28988766092086
100	-6.161080821694522	-6.7960176296312556	-6.328906996960499	-3.3754267607344586	-5.150951372493145	-5.9935312119796045	-5.7685694548876665	-3.862108459258513	-3.0491576117779355	-5.134623514563177	-5.047409044873705	-3.9140899082544696	-2.065074438603327	-1.9823147008438304	-4.143706311254456	-5.001038061867001	-3.582519045367851	-1.2370448081255414	-1.872790570299124	-3.4299323472209906	-4.853554713392925	-0.34547364624537763	-0.7057762128176958	-1.7362455085787427	-1.649284358628926	-1.7199507908311866	0.7393305879046405	1.8337677670910677	0.35465374499424906	2.3456990659618344	4.47910116972163	0.5084794746912493	2.5706109935708663	3.3284950172311234
104	-7.268013458975469	-7.686367969180212	-7.146699410514668	-3.9788222212471642	-5.629200444314247	-6.321860297454364	-6.050040229781269	-4.534788120264627	-3.5870661644969952	-5.621193871611072	-5.301806913341519	-3.8882501027166816	-2.455976956842467	-2.313630098223587	-4.445517528754174	-5.255292402350559	-3.511206141189988	-1.1263090343649003	-2.5261168416141113	-3.6732749846223567	-5.09145973827445	0.1679812367489686	-0.16382548171643108	-1.8574126911951883	-1.8580537987527739	-1.5935507972538316	1.4561830722283373	2.7782950331160947	0.620658992153995	2.844046108694718	5.4528407912866115	0.795736132043236	3.0314652843232146	3.978348245113107
108	-7.735314349671869	-7.951108912420497	-7.475049953661493	-4.301023949254484	-5.705857739347756	-6.164896949461987	-5.9075450748065625	-4.760442244908529	-3.8508419893315136	-5.71417425620298	-5.218149648843261	-3.538586130744884	-2.7926468778674574	-2.6666560105708075	-4.431211937207041	-5.178163515368777	-3.1676292339458643	-0.8657345153885407	-2.8461272644664413	-3.6775851156844728	-5.009410368669593	0.6579727513867216	0.5011845814448966	-1.8796726417768048	-1.9072308492191288	-1.4247595035820884	2.01402258364494	3.4305941971949054	0.8595181085820311	3.126743547174701	5.853196129326104	1.0519090864326248	3.2914538300382667	4.2749123465372065
112	-7.4595174601094	-7.587171058572506	-7.306754093795871	-4.295248974446066	-5.376039491431688	-5.536797032682308	-5.380349622493804	-4.456087578013376	-3.806273927615424	-5.4051928383734635	-4.7638568757898	-2.918521396897799	-2.850979559376065	-2.8716947959875827	-4.127188195298846	-4.730148303487211	-2.5818793708464933	-0.4224403191868129	-2.7266445091070954	-3.4574904354540252	-4.569625842954991	1.1261117429911918	1.1698256701498067	-1.8480938626359524	-1.8018883421227274	-1.1244434089881408	2.430845254482823	3.816600789924556	1.0570313903823998	3.2555498994648526	5.826776012968248	1.2581562964145252	3.409700861905249	4.309466351119155
116	-6.529291613306383	-6.727221948805192	-6.699571592582278	-3.9724607367356373	-4.703337180660616	-4.544188487977711	-4.5637335662059515	-3.7291562463068315	-3.4761903198214856	-4.750741469786536	-3.9850275415897736	-2.143739456486382	-2.508970731122733	-2.767745726273222	-3.5836532025457735	-3.95134662584229	-1.842924590226213	0.15152680835614007	-2.2493624630403883	-3.070299379226389	-3.810119142449466	1.5459614953109948	1.7118821100883135	-1.8460063887718992	-1.6056551892749678	-0.6621441228361509	2.7306938102443326	3.9555833239822284	1.142765876745836	3.250899545091218	5.547984109222667	1.3420690264196458	3.3969111356802157	4.1587209596540475
120	-5.172413336092523	-5.55529974488535	-5.728008732638998	-3.3747005377443484	-3.7741510772784355	-3.325226775357051	-3.5651857762923505	-2.8036422658707023	-2.9120535777002616	-3.8296339415182374	-2.975860588189799	-1.3443751301201834	-1.815413589662432	-2.3020634593062566	-2.8355600762301814	-2.9346158430394156	-1.0669202777628282	0.7274485212079552	-1.6476339060192624	-2.5807053977659615	-2.819015257393779	1.8580087376414374	2.0167787024123958	-1.946743125768845	-1.405607696799082	-0.07779623548416352	2.9083948061946066	3.798811426108386	1.021569368644235	3.0877933424237978	5.122019754829374	1.2093511789306295	3.2162961878635192	3.8487999342066646
124	-3.64622568163584	-4.216543186986088	-4.451245773521206	-2.5503451759798206	-2.654518120739392	-1.9857897708347514	-2.4638802943011506	-1.890324945445589	-2.163947815200009	-2.7037975719852128	-1.8307250691922556	-0.6135172232396837	-0.964360949942542	-1.5661281307733845	-1.8899775695767151	-1.7785936549104227	-0.3535217931881775	1.1520713538646759	-1.1917939156006288	-2.032528156870923	-1.6900122123011225	1.996484751429087	2.0189559408712543	-2.1728329603649543	-1.2673809496352537	0.550618051092428	2.929021112676344	3.2384896196617343	0.6310727580349903	2.7379057338253676	4.564543712535693	0.8005357364470117	2.83180689096744	3.3731160078716402
128	-2.1301922744374555	-2.771872036611315	-2.916254751472003	-1.5432373246330582	-1.3760968411988461	-0.5687582478468604	-1.2941389051188439	-1.0780101987324484	-1.2679659096176026	-1.406795498157167	-0.6080996974850816	0.023600527957100836	-0.19050477397027749	-0.7473411541190044	-0.7505468707208656	-0.5492402301272787	0.24974439975149793	1.3183386292551331	-1.0501407358358932	-1.4447776042700728	-0.48626288648859756	1.9352762650266169	1.7138586001040754	-2.4836518701789667	-1.20741724663113	1.159453269892181	2.7636256148181704	2.183452600688484	-0.008760868549579599	2.2252967301452156	3.8589339158857907	0.1395367082410722	2.267971986766597	2.744119160399646
132	-0.6798054558756668	-1.2199102609352204	-1.188256022314273	-0.3988726725044484	0.043829351552931	0.9290041304021401	-0.057738039496797865	-0.3084841660817328	-0.25651389295664323	0.036682423111569364	0.6736797673382762	0.6076965912734834	0.3536141505850238	-0.022521927895904018	0.5393744693489647	0.7286403756818748	0.7604529838435906	1.215458747656054	-1.2026293247377007	-0.8265994170300109	0.7675593475989947	1.7249909595806685	1.1622519463758987	-2.7972731519646636	-1.193406459656311	1.7385163263296624	2.4377922950231445	0.6556500775949784	-0.7833730558644278	1.6551308590108935	3.042519084878192	-0.6551740152983593	1.6386100012416305	2.0387010522868567
136	0.7349081020874065	0.4311415542207679	0.6181687101015665	0.8191202858271227	1.561718936791902	2.5052812036204517	1.2406557767062072	0.5546104297940487	0.8191456178010883	1.5736324747409491	2.0087442347355373	1.211225387376215	0.6693202240257661	0.5334445224645223	1.8709068251103986	2.0476953931607547	1.24335992022355	0.9328993535330222	-1.4534820281525151	-0.19758224437419966	2.062975163019638	1.494089718861148	0.4766585218792861	-3.031913749669372	-1.1697763175040572	2.332488769364328	2.0568332620189094	-1.1580071420042914	-1.518720742205943	1.1898335188389157	2.2545006218256334	-1.4065790140878895	1.1188229294185907	1.3990470135652189
140	2.13690685686374	2.092403168163845	2.3307475984855452	2.0168201872450546	3.075421325548296	4.1007146731794055	2.5565130646056056	1.603504057650455	1.8717397404143872	3.0947647016591264	3.3628690157863055	1.8893120241148333	0.8865258671312441	0.9675209497819759	3.082712165678814	3.3785357389980932	1.769600506129417	0.6120132788465081	-1.5378303489005547	0.39992830056307777	3.370378724171886	1.4041117394282863	-0.21110987609968923	-3.1415407578307013	-1.0935736866997463	3.0017187519581316	1.7827563240817366	-2.941659681522608	-2.0476319738188735	0.9798143481312176	1.7036055283449887	-1.9463238666985534	0.869502422998504	0.9805357431451127
144	3.4592075260563795	3.5766303448974885	3.7492647076360672	3.074652187214056	4.428743828082412	5.582991109103765	3.794346561388824	2.784413330677552	2.7830064226458253	4.4422602541347125	4.649878490152275	2.643150084497952	1.1610351771605258	1.3905333245455762	4.014484395381979	4.643975246148624	2.375191444122237	0.3731142571088956	-1.2699958053949483	0.9136778689204496	4.614784705908603	1.5800911148232144	-0.7894638756847128	-3.12792276546396	-0.9536712741615779	3.769762506503993	1.770834441482442	-4.359721649606775	-2.273046010954226	1.0883096429050534	1.5713554581069886	-2.178489202721279	0.9571570729885316	0.8765327312273667
148	4.526210773484526	4.650859821021379	4.702563273954806	3.8693008325161107	5.454876409109841	6.779808504153381	4.826090800498397	3.8861207863921017	3.433722964200556	5.453659997522336	5.743887409967073	3.410368433925048	1.5634890755279724	1.874814267193429	4.574989307296919	5.726901516760446	3.0364081782926684	0.2620719962655932	-0.6516626460788616	1.3099728789634495	5.683269486383546	2.052966351094224	-1.1981006830483898	-3.0247795505449284	-0.7627902011686223	4.592002857058651	2.0993778652592727	-5.181531416208662	-2.1957838479870624	1.455530997416141	1.9115819882767469	-2.107104534551288	1.3167754378452003	1.067162153410716
152	5.1167249550380545	5.133483396920792	5.104098307120715	4.303657997709747	6.039390071879692	7.54578207018213	5.534750924441624	4.6261305692222425	3.7448658848627496	6.022229656273603	6.524915678716601	4.089645375416826	2.0224950262505024	2.382787460033234	4.785292136508387	6.511436445962547	3.677144518151405	0.24190515218694716	0.12188550054056199	1.5961343009704534	6.46403311051094	2.7476129462489793	-1.4348663055432653	-2.8686005996758146	-0.5333625660781631	5.366312967103218	2.7341825893035177	-5.355224595854358	-1.8946764421310747	1.9267277668945133	2.6119067602970487	-1.8151904298729562	1.7832676127233291	1.427560564251591
156	5.0797390809554095	4.984995352556919	4.982135283289238	4.336437691230502	6.171262725507926	7.8291549484950025	5.8659696430878	4.791421878161612	3.709015598469498	6.143899425253526	6.9357323471435	4.588444698193123	2.363311523192758	2.772848837527428	4.769446360944145	6.937671643861016	4.206039894928866	0.23759667515371952	0.7585123162192483	1.8244063808155695	6.89866302655838	3.525856724420211	-1.5313497743090674	-2.676579707063697	-0.2519727938966057	5.983343586120316	3.550871363257812	-4.995517241263264	-1.4722171984695933	2.3324770868539813	3.4470708283178566	-1.4085636103353203	2.1780509893739968	1.795217747924176
160	4.432052124277673	4.337950695529661	4.468296993418342	3.996671666545116	5.950767025228443	7.700633983243315	5.857794746868205	4.357377994980124	3.394379368795128	5.921634659121575	7.0162310423137955	4.869228827580646	2.417888158415683	2.882760040634328	4.693925845692922	7.037464600914971	4.564072597424579	0.2019931966926987	1.0223168108878313	2.067480082060388	7.016735059188743	4.261074055403932	-1.5122244319882747	-2.4408063826925366	0.1252728846486593	6.386215670674451	4.403010357230635	-4.3007898222103975	-0.9983266566820431	2.576157324962503	4.1964745415594615	-0.9575191115999832	2.4023878513716874	2.058630699682218
164	3.3812429819569565	3.4476482781149826	3.7514636421855694	3.380912056969999	5.549417481716607	7.328051548576085	5.634030804714649	3.5176927954552273	2.9188003466346437	5.524393067717288	6.8944043939092206	4.970991122093008	2.1384179538142707	2.6413659982750395	4.688930022799041	6.929520589499271	4.7574086069157	0.15912572999356323	0.8648528434852492	2.379760259342025	6.931704503678327	4.902496802350169	-1.3646974529143334	-2.1389839595196287	0.6513820870166122	6.603671057240907	5.197126375428322	-3.4536220940178692	-0.48392948386082185	2.679653399377714	4.757493960766802	-0.4694026398728404	2.4848692354407858	2.215429777274009
168	2.2496147098964405	2.5846290523123296	3.016170970931043	2.62700890831495	5.1373877395623015	6.905728322713638	5.357114301507545	2.608093016715369	2.405521386748908	5.116424070791988	6.732983572173214	4.9924607150868985	1.646865363731469	2.1317489093364794	4.790988433185899	6.77077005584246	4.856046187538246	0.19810771892121282	0.4632364499794272	2.7650740076825553	6.794578535091432	5.491734013997253	-1.0411846611438444	-1.7514673427230507	1.3503555025339784	6.733890993282984	5.929666981031227	-2.561027997226653	0.10380323205012448	2.7621021201015576	5.18583487155058	0.09569657569804467	2.5567781860648973	2.3647913873095048
172	1.3374507393448192	1.9249279450454195	2.3901650845263265	1.8777644586837832	4.816072928667	6.575468523590188	5.161009298645729	1.960063452540329	1.9419155071820955	4.793523776349664	6.657788736700221	5.04329107918586	1.1869863241744734	1.5644121130546336	4.938653456616792	6.687674982352305	4.956431376341194	0.41838884248004665	0.13942599261368144	3.1712169567151265	6.727634889783154	6.120835288806631	-0.4974257635432387	-1.2714766231860093	2.1871459428880216	6.887486917272632	6.664241297108735	-1.6566030937331286	0.7989003638124382	2.9640283509760206	5.63916634089553	0.7797919492107189	2.769331448238823	2.638079159751844
176	0.7993472794378358	1.4965916834239228	1.9221355866540322	1.247258302400597	4.59152935776175	6.379288657294723	5.101789938443681	1.7594466164989864	1.5592137535783173	4.559935081413296	6.705465299842788	5.191629396682435	1.0005454991828497	1.1746020287421786	5.019540774070042	6.72353885860453	5.130958067337324	0.8558824040738459	0.19920146415007978	3.5151708037318583	6.772897226399834	6.857994062275073	0.2542496317166324	-0.7082065325976316	3.064755432020537	7.122128945488812	7.464951496350563	-0.7454420309319657	1.593016501219414	3.3598852072763825	6.258488639289167	1.5795791109258865	3.1994976916595936	3.108856908578503
180	0.5916982278190023	1.2022650211497532	1.5887199600162725	0.7938571552260806	4.395237434734391	6.260530455995438	5.139415251153863	1.9802651355337584	1.2403829066431145	4.350370396120863	6.814027769051116	5.4285011154447425	1.2011215656472691	1.1031289072795645	4.940363871498948	6.825415117197415	5.385815606824486	1.4412100278706939	0.7730334381613458	3.7243397141839822	6.878411275663466	7.682695369397004	1.113922593165399	-0.08742152877431894	3.8514532945667868	7.403952103041437	8.32579324527578	0.15086011550484937	2.4154255329183605	3.907599200873396	7.057507973972276	2.4235863624418235	3.7970378303029273	3.7347943688511904
184	0.5195919262165378	0.9014349557052052	1.3233262267080557	0.512205063003529	4.139759530105973	6.111656173534395	5.165477262806812	2.4253196655075158	0.9475521421350961	4.084005822360996	6.862651807624641	5.672362313254346	1.7149666504476524	1.329233166199673	4.681154716117011	6.879029256618937	5.654873833684242	2.0219109007331784	1.7386262372943506	3.772815694820259	6.931528073930238	8.472159364291006	1.916908259320428	0.5488422499151183	4.429033745073868	7.620722751450443	9.142586684986036	0.9846563910419662	3.1507375160777453	4.463596809561801	7.888171176068169	3.1891531863756524	4.402871120780792	4.367211330831761
188	0.3533049216887098	0.5029003607450692	1.0551960441651098	0.34747525961884884	3.7767581844343288	5.839322075406055	5.064757811156808	2.846029274430678	0.6532074196536052	3.7188081647442126	6.738140089189003	5.811879620183592	2.3208005369719626	1.6946097569596197	4.305342663385426	6.771555406640038	5.833523258739787	2.4377281604255283	2.7642683913058055	3.6902453806213806	6.820294362968401	9.048269249005902	2.503709548350982	1.1392838926161384	4.736268031560139	7.63906238534579	9.746366476247282	1.708379145123708	3.6842968370878153	4.852955805923734	8.502170541278224	3.749918212959735	4.826833235951845	4.82178734515648
192	-0.046024527284531276	0.016185002360607936	0.740747449912019	0.2251611942328532	3.32491230125201	5.410417543102704	4.774942386015718	3.0718235891987367	0.35896599202124924	3.2756912625579218	6.392100794866136	5.762463078255134	2.7679724623413753	2.0028345534302674	3.922881116499486	6.448176844529245	5.832522377547246	2.609806769457624	3.4534470947812506	3.540301552417189	6.489920122927271	9.259749389158001	2.803131096438399	1.605068321943991	4.786803233458917	7.3736953549183655	9.980722402169262	2.3096680582860802	3.9487206836186957	4.953564154516158	8.672677971878008	4.026825894679433	4.939389216350042	4.968705641599511
196	-0.6574138386340739	-0.4620285022514589	0.37848681115912824	0.08382365831430937	2.8561730312715223	4.859507548460903	4.319803227008585	3.0797829550233677	0.09356531477193374	2.8228080201405508	5.861803516847098	5.509785161412616	2.9000880645011016	2.1300921386344855	3.6305298713574747	5.935838207517111	5.624952302082541	2.5876862937444303	3.525361290614089	3.3838128958146036	5.967697128487701	9.056354499839982	2.874996416462645	1.8705141497116098	4.655912387536944	6.833018762502925	9.780480360133321	2.820961468250071	3.949613322776598	4.750514972136962	8.309034326555885	4.018888463364024	4.72946833370133	4.792238223374395
200	-1.3213951554314982	-0.8150614479467453	0.0031467161527550308	-0.10057722751734911	2.450859302054973	4.259354580615792	3.7953300380251345	2.975424759028302	-0.1054930535275628	2.431917661248914	5.246376978026144	5.114779459437497	2.7195568016054588	2.079726929182178	3.464479437664163	5.32466839399669	5.258338914946627	2.5208699639570704	2.9447770044364905	3.2494180120444214	5.345619665000922	8.514677026231999	2.8791625427033476	1.894590253814947	4.4479012377020135	6.118992790031985	9.20819280206893	3.2904426968468496	3.7606317902031936	4.335020531199901	7.502349357736856	3.801604499755509	4.3006782423156595	4.388476837522456
204	-1.8333077384438528	-0.9843646263065273	-0.3395868531236437	-0.3107302777074553	2.1497392600143246	3.6754858401007833	3.3142685806520515	2.8996012137638054	-0.21487078016390906	2.1346766894804547	4.6536388279723715	4.678177821745865	2.3601930081859828	1.9536560724524412	3.3897471342334593	4.719601142411545	4.826086985801141	2.564623349390427	1.9404059599523253	3.1300375382552517	4.732274043533113	7.801864127488466	2.9793207570195643	1.7006829934097405	4.260728825302264	5.38336466383751	8.42797372597483	3.7327299023799623	3.4936299235829966	3.854276170536222	6.481245024529984	3.49687265466917	3.8138101004632183	3.907157888084593
208	-2.05252837616552	-1.0077359650918196	-0.6191083773240781	-0.5025386797614853	1.9363055180299997	3.138374559108226	2.948104374118031	2.9251341745910646	-0.2383196049872138	1.9098674010694667	4.152957905774555	4.289874542849528	1.9919129559770679	1.871247644468364	3.3313000118071714	4.195054520505917	4.419863689707616	2.777706854482936	0.9076617933245241	3.0066637916947925	4.206171501984198	7.102857094951531	3.238953582215495	1.3860076630884965	4.164907444928955	4.76913737046641	7.6364416883309225	4.100525845665234	3.2606086648634576	3.4442195805375797	5.509489522375277	3.230918876120058	3.4118347081828206	3.475913277433269
212	-1.9723086307320694	-1.0013462279787408	-0.8398601987615149	-0.6294503792129451	1.7546884969278695	2.6447665624601795	2.692920678015482	3.0044696255168604	-0.2050854111500329	1.7042539076692185	3.756655445150977	3.9891376394645284	1.720689650005957	1.8861228179995333	3.224814645254732	3.7742628955917517	4.088837613272869	3.074109546529391	0.24155542193461055	2.8807067798362898	3.792895545920075	6.550446493776654	3.573372116603713	1.0942888232259558	4.199678410417339	4.365293968623468	6.988455754755748	4.303083408935564	3.1422452847301674	3.180376760082503	4.7822451470751615	3.096937171746415	3.1671469131615595	3.150526515635773
216	-1.7184337334161937	-1.0951597662932149	-1.0404707167105274	-0.6674146039324633	1.5509095152798866	2.183262819499998	2.4785551962263805	3.000916711860059	-0.15475940665272708	1.4734083376877773	3.4358086499252707	3.75829004292517	1.544060941612485	1.9613635490488877	3.0569560450620794	3.440007201092649	3.8294019602413574	3.265259257655671	0.18127591862210288	2.7891452242050336	3.474232188036268	6.192008002860335	3.7937226199688903	0.9593033766368297	4.376378048337915	4.192104329015564	6.554793818137016	4.265315045078283	3.171290151218726	3.066980115776517	4.3705067524237835	3.1332366387415598	3.0732645910871885	2.914428703579275
220	-1.4807420931624256	-1.3587721551921719	-1.2692749468228546	-0.6266089065943867	1.3131674494967658	1.7664014056431094	2.220315689203202	2.7828364301993553	-0.11759445041530653	1.2179479568248794	3.159210673939043	3.5539557844078615	1.3845750058502924	2.012509102508625	2.876838676818712	3.1679942527895473	3.6113583950417425	3.1754932323390954	0.7294114809693871	2.793554298977227	3.2217354693134097	6.005745872593297	3.7258577252732894	1.047720787264122	4.681981074910091	4.218822468596544	6.329005702251997	3.9936582941314596	3.3321432983193247	3.0608529967276557	4.23206948165514	3.3204836761563796	3.0759293955390787	2.720444672391791
224	-1.4163540565970845	-1.7601720050240715	-1.5498391350717124	-0.5469817505377965	1.0848823758391213	1.4438548051619902	1.8806818676195936	2.3220210016753025	-0.10116010133713604	0.9907987092752071	2.927779190300939	3.351998082281037	1.1718237370469227	1.9833936641208303	2.7718517710321424	2.9580314084710198	3.41860412688216	2.7630410124636895	1.6749820666939284	2.9458324834835086	3.029999963739756	5.9463686792922825	3.334698430225105	1.3317725624792722	5.079639898826754	4.3955049403794675	6.268045409589746	3.600548973529727	3.5723788648056836	3.108820192117414	4.268277634334719	3.595171919328825	3.1178772370774577	2.5421357090663435
228	-1.5761228760026669	-2.1783969347313996	-1.8538145972177613	-0.4767385709170173	0.9424068903971405	1.2865517106952506	1.502944346448045	1.73572158375249	-0.0894573254114825	0.8703052379569568	2.7823359896030846	3.1766688743496774	0.9157338715321409	1.8964698266785487	2.822441570785397	2.8424615788220096	3.276274911238089	2.174072498554574	2.6967828205685973	3.2494907297108635	2.927830211876738	5.987562641285446	2.7759907175548957	1.7049753622877581	5.50700377027584	4.677572715393634	6.335344775417146	3.2635798371887197	3.8193232916724433	3.1735944667799245	4.385717857732058	3.871516694784686	3.1675643840925125	2.398306602144931
232	-1.8865951252035411	-2.46158265446015	-2.100499386252535	-0.44736638552250124	0.952119407634124	1.3514192070219544	1.198759314371495	1.241838094436987	-0.05434170724142625	0.9160929299113614	2.782198898920447	3.0958042066613847	0.7180864792813663	1.83963894379591	3.0636882704631727	2.8690316604657418	3.2459530748430865	1.6854387479190536	3.492470494035753	3.644914379454092	2.962736360699131	6.135099872358262	2.333536619016834	2.035561794863752	5.882954105782955	5.0329379908330925	6.519033415547859	3.1407434861041983	3.9997801679715943	3.2379183687476494	4.529355037697779	4.067311753494453	3.2199883379701646	2.3375322759739086
236	-2.191335672567995	-2.4975459512596103	-2.1880717222283357	-0.45810165885660337	1.1316575975456713	1.6464307266628642	1.0936462851568993	1.0489326688986356	0.0267394948075627	1.1332294912337193	2.967067949433312	3.183026544163948	0.7121993881364092	1.898092980360974	3.46686028558906	3.068368188740542	3.3899381075148374	1.559789176817526	3.8825971982204557	4.02763365682339	3.1679115215428078	6.405621512452849	2.2683896961161283	2.230401987166628	6.127341254976728	5.433288083663858	6.817365629150111	3.2891952908441398	4.061660279509698	3.292442790301883	4.6783265949388495	4.129552830760405	3.2769603646512753	2.394960158977111
240	-2.3282568395959595	-2.261692995083231	-2.0436372705361125	-0.47727832077641813	1.437581893152376	2.1166393703426447	1.2554144827617797	1.24522542639102	0.15820606012932328	1.46544682609594	3.325309029766633	3.4660434635391204	0.9690631603570006	2.0794959015796115	3.9499843020847436	3.426302424363334	3.7234492207932863	1.8960357856563903	3.847808589757263	4.294337261801884	3.5321853071679046	6.789144022013112	2.6670458249466544	2.2714495601525924	6.188524230591298	5.842408642323311	7.206824284477857	3.635693302512041	3.990621079859953	3.322230330662468	4.820363986242837	4.051025380397144	3.3262550746861197	2.552840703240976
244	-2.204503769077107	-1.8222475005872556	-1.6663891034969345	-0.4612675893581774	1.7845100119358905	2.6587586335765865	1.6475393730528873	1.749787326209653	0.3238440445829919	1.8195836498096793	3.7864797019726506	3.89469074219627	1.4347443544403629	2.2904334010470455	4.408316124276566	3.876912345634711	4.186635483661939	2.562066548554597	3.50178598473489	4.388154495604325	3.9903182882652586	7.22340725028682	3.377042285022372	2.2056157533272294	6.0640683021030295	6.21175430636883	7.619865875079315	4.018564214097265	3.8133606814427465	3.3036796963251485	4.92929266638774	3.86955522513937	3.3364677344961504	2.7331762244836706
248	-1.8371201707233507	-1.3071927991288546	-1.141641137101764	-0.3799806823673622	2.082382673728085	3.1552219311207446	2.1335236972348306	2.3535597264949666	0.4938414382387202	2.1055722183472714	4.242138375062336	4.349114883886484	1.9435952852769147	2.3854360520217863	4.7488245844154	4.320194233477324	4.6560788037047365	3.2532863534805774	3.023612491603173	4.319517601551542	4.439599502798657	7.602714042542053	4.075530995569649	2.10179686015673	5.803037628781356	6.488571627447278	7.954174975340002	4.275950421027994	3.5865125565577194	3.2158083834519093	4.964858042579684	3.650890102705606	3.272739402137518	2.8311145234154775
252	-1.3452454771409963	-0.8543272592909376	-0.6162192805944644	-0.23685693681044098	2.269962781897069	3.50922750540702	2.531310551928147	2.826524012105046	0.6363912804748705	2.2690789642265705	4.583353031030685	4.686574447243465	2.2969927729787267	2.259636158006515	4.913706290236907	4.65468930022924	4.992256151946546	3.65063046487362	2.5851621562538547	4.150501717578852	4.774186122284718	7.819993476197577	4.439779747244003	2.0046870657852094	5.484539971809606	6.632465345803463	8.112874010583857	4.330837715658704	3.3717799101577284	3.056514970691855	4.894347178499895	3.4590542229104044	3.121356240974924	2.770668022789892
256	-0.9012615061893466	-0.568190692420742	-0.24240486262632122	-0.07382835429148371	2.3286480844832775	3.666771402638044	2.6965043476689097	3.0266284866211928	0.7265900355114228	2.301690811068062	4.73684309717148	4.805709826733937	2.364040368787231	1.9242246102388458	4.888397681292015	4.80977247931157	5.101589190000585	3.5890476613029056	2.2986774386544053	3.955036868600307	4.920872199032291	7.81893775873198	4.321384895858351	1.913766736920828	5.183930860782683	6.630557997175466	8.05347822063372	4.2247099769740135	3.2073190131272735	2.8504939007316614	4.71904419661217	3.3268070136953463	2.904939167317833	2.5494468147760343
260	-0.6656389219644429	-0.5009874092804775	-0.11900541156286724	0.04258757446384779	2.272665733321519	3.6187522319981724	2.585136883884534	2.95222186296872	0.7500342707770914	2.226723665337536	4.6827587963131565	4.690949428158933	2.1467032378357107	1.5140297374646738	4.696059691970493	4.762544619933738	4.977032172035032	3.1454808632589857	2.1945989076519195	3.779099931712352	4.859024035583706	7.625368099033929	3.8303086660953913	1.7973912908950676	4.943541514313191	6.502212984834711	7.816331366831823	4.084184159457713	3.0917093675756537	2.642931931498625	4.485982883571443	3.24276804105291	2.6776928834067117	2.2460207882441376
264	-0.7325826268773659	-0.6574206335635612	-0.2581321292558871	0.04704576346321206	2.125874990817984	3.3883986387534653	2.2641148510036304	2.713100664918268	0.7011826020657437	2.0729863591308364	4.448487747405123	4.413454998317547	1.7691676572001511	1.21661305120386	4.383728016275901	4.533985603329398	4.695310103959691	2.591720574511222	2.2305459919880417	3.622435083780256	4.617144096161435	7.336812000824475	3.2749576485918785	1.6265671212137474	4.760773646732644	6.289388163899874	7.51148078929339	4.045406808176222	2.98717927178549	2.4794580873831586	4.273286331831839	3.160221091874724	2.5002179082688554	1.9827265689381883
268	-1.1055862875681601	-1.0092688773422829	-0.5906425699580506	-0.10027900312854898	1.903055901491022	3.0165076179638843	1.8661675406069833	2.4456183848623945	0.5804854616768101	1.8552352143177513	4.0866136447726245	4.089735020802341	1.400692459384734	1.162319895670771	4.00548075618352	4.1709680451944156	4.3738593944746444	2.2390706482622953	2.319146627292911	3.450090399614554	4.251559246773169	7.073410493158201	2.9909398480241642	1.403299447331338	4.598558891130233	6.037217124955246	7.267018299828812	4.180286873753651	2.8424129414319954	2.383668178262212	4.15523575687354	3.024862520210246	2.408112043022885	1.8631877852128953
272	-1.7042270855791373	-1.5049240551146166	-1.0024726365528622	-0.3956988741897839	1.6092269379994704	2.553049081078585	1.5181962213332438	2.2283439579970192	0.39521863956804104	1.5746527870476383	3.651470651944253	3.8229114912788624	1.162417766497245	1.3501241173035445	3.60704611821242	3.7260210419995614	4.11267470275126	2.2691161575248167	2.362277978654962	3.2210595526433634	3.820863952526708	6.915983182612063	3.15798281825977	1.16335773174298	4.408324230508235	5.774656281196761	7.164918404609295	4.463373172935167	2.622390978867991	2.3449175298615126	4.1648497476329585	2.806194298334962	2.3924305378592297	1.9186792325215232
276	-2.3956496655061312	-2.073043341171098	-1.3830068076502113	-0.7894137481785832	1.2521125046588493	2.0540151544210437	1.280261394129406	2.0531179853101498	0.16281740326305125	1.2335139481872515	3.1854205051106623	3.65883158713685	1.0769125195970362	1.649797793037725	3.2173597731422063	3.2443706907375844	3.9529180426931814	2.6431264810586805	2.283560985521794	2.9155783579648	3.3684959326574746	6.865649682830695	3.7074580098961603	0.9502931809274615	4.152321805007118	5.504476533343744	7.1991562661561534	4.791820514024863	2.326702827301299	2.322518581248631	4.273344029127836	2.5130953725307767	2.402862304342902	2.091928238355474
280	-3.0361924094791264	-2.62527679734215	-1.6621653991695247	-1.2022470205470766	0.8555563666677476	1.5764704902901194	1.1260234089078576	1.8636574698125394	-0.08605363198249971	0.8504785277828629	2.716188662346995	3.57595323613455	1.0839333506874036	1.8774645281120306	2.8436894345012824	2.7592673232031975	3.8696088693195323	3.1377582470828047	2.0531828351635015	2.5405065949194556	2.917371742512274	6.845178586843562	4.368168343005859	0.78405123751097	3.8122091197085934	5.204658018323125	7.276883106932812	5.038814055118793	1.9858438918520709	2.262574190149366	4.3959364780065515	2.1847212259446804	2.3704192578549885	2.2650446834597786
284	-3.5083343894119605	-3.0666186732115115	-1.820009584600169	-1.5477297266984371	0.463227747701312	1.1699775427843109	0.9775730346793873	1.6307146508053267	-0.30994158904977864	0.46558889629116057	2.263370269782976	3.514523497291232	1.1068607540795297	1.896682257631992	2.4769275125909638	2.295203918384244	3.8019795321794887	3.4845471294164754	1.6931369261909384	2.1168577617605506	2.477211707536535	6.743290407321752	4.820840346562679	0.6418793781287084	3.386342040095328	4.843185889413977	7.265444737210714	5.108836637949816	1.6380748707421882	2.1200432723878837	4.42328118161183	1.8623315048882139	2.238502258371152	2.317259305825508
288	-3.7480258847021832	-3.3214447414463115	-1.877475256948063	-1.758930559485824	0.12421555040707756	0.8610984661296158	0.7634121756352832	1.402772184644986	-0.4682684826949177	0.12647859720245416	1.8431786252216045	3.4207312974395334	1.1169528932981292	1.686896319898711	2.103404516631553	1.870215888069907	3.697113027775062	3.524111262007015	1.264456745769956	1.661479826547049	2.0538699575067376	6.476694567540741	4.870004164797927	0.46931236863855597	2.8829893993068447	4.397164333685825	7.060331803616026	4.9686026447736	1.300059196050857	1.8743436289194706	4.264123905860099	1.5578687151677117	1.9851392457433152	2.180999273515723
292	-3.7553939724521355	-3.363269797416763	-1.8774831247611536	-1.8101379825666817	-0.13036063280571297	0.6406274421730069	0.4669596541059218	1.2910904851741478	-0.5379540310629087	-0.13487578894417748	1.4670491181527465	3.2780671036926705	1.1508636445552862	1.3362702097533783	1.7171620087184767	1.494113560718998	3.539869299534369	3.2850081837685297	0.8363633134706611	1.1760193079820696	1.6539639192784272	6.035154804251224	4.536452758779712	0.21106164104102654	2.315886730069086	3.867141952287797	6.637828333308233	4.645271766378506	0.9511613821810679	1.5317209920357915	3.8803441426536343	1.2404175965462862	1.6259535510019787	1.8675258112486957
296	-3.5886382966036217	-3.2315199293564554	-1.8664295626247545	-1.7231597856885021	-0.3047018341477703	0.46482953311863934	0.13640159334076923	1.3960580790558585	-0.5261007534095773	-0.31974399009085636	1.1361862392349822	3.108294717570401	1.2711216179226235	0.9706100796989507	1.330269214132543	1.1647478312649218	3.3528368388401986	2.9460234567648866	0.4526636887088949	0.6555101854940437	1.2832952705408136	5.486556516146556	4.0229596990104834	-0.1586948778198921	1.7076584057609037	3.2813744462136167	6.066077217045467	4.205368985048968	0.5433752523054776	1.1176608772669836	3.3010427868469425	0.8513551928960059	1.2006731003011113	1.4526029788535872
300	-3.340320817143283	-3.0201244277997237	-1.8818352174930855	-1.5588860472421695	-0.4357159126725061	0.2749241881581933	-0.14633342586764994	1.7221115784081287	-0.46973875046388025	-0.46107718232092315	0.8387341478152611	2.946403019141858	1.497423525844308	0.6741579157974571	0.9720081066386278	0.8675340392144112	3.1714026847877776	2.712610237902294	0.11474793375369675	0.1088652906053448	0.9429633593593587	4.942115294376606	3.5842671303854097	-0.6225414856451833	1.095950958345966	2.688939803010274	5.470908628002469	3.731748809929436	0.03478017440597817	0.6661087853780209	2.612639659007357	0.3431090703884631	0.7537890057605925	1.034402844678423
304	-3.1052555959502666	-2.8376789021373074	-1.9426201532908511	-1.3961415255583334	-0.570414243688474	0.027908259932270692	-0.3150585285815373	2.141793484048668	-0.4203486133929912	-0.602506338028836	0.5551320300391612	2.810188763199145	1.7654881432781666	0.45247763281069825	0.6777545196587684	0.5823392853339339	3.014442197818342	2.690762751461482	-0.20869059808017018	-0.4262491751876335	0.6287985428193271	4.503003109053373	3.385458699261987	-1.130786177641255	0.5332150445827165	2.145281786270696	4.976280199838444	3.304317466022635	-0.5703074917699509	0.2127508366696963	1.9298945616634344	-0.2780925326478747	0.32190111198215393	0.6888937932741381
308	-2.950438253582964	-2.7582719256379615	-2.0424299188545905	-1.3037648168071871	-0.7373001556854931	-0.2783738069658596	-0.3587775221349453	2.440770619905762	-0.41969236625567097	-0.7714498023583067	0.269420414482819	2.683637135405864	1.9447058390155658	0.25777146155126174	0.4728572356683329	0.2944741539672939	2.868723385243742	2.8324115204825153	-0.5477376566409295	-0.8882446266636479	0.334915160287233	4.215797413672541	3.4263327035228035	-1.622499700264544	0.07475381325683285	1.6944334464208193	4.648562896436115	2.9868960305142322	-1.200357434103178	-0.20632666297318536	1.3588693107629104	-0.9325761175452214	-0.0674968360150422	0.4456508744432296
312	-2.8905625270343065	-2.7838025022794355	-2.1443300193053254	-1.3117728200218322	-0.9240682101761073	-0.5958877190803975	-0.3217026583178753	2.428201669284419	-0.47723388551385026	-0.9575802659653684	-0.014320905284189545	2.5304515297898127	1.911814088762916	0.05262142406529431	0.36362209824309055	0.009444134286043739	2.7017612389062475	2.983018152334936	-0.8904250241686715	-1.2110930650651477	0.06502319110904466	4.0629072086752505	3.5697450547689984	-2.0383083768880677	-0.235707103610982	1.3616820539427597	4.476226318502082	2.8168184686114834	-1.728712435172469	-0.5518286214247599	0.9692457889881313	-1.4836889467926808	-0.38754644892121276	0.29463183805464904
316	-2.884911768305287	-2.8434050011371323	-2.185660118306812	-1.3969484532372654	-1.078673836845702	-0.8423743226717932	-0.267650216142104	2.046789879399613	-0.5638966546126748	-1.1128203840769952	-0.26369330220403514	2.327648633802207	1.6324872929364713	-0.14421352707692062	0.33768042836763845	-0.24022471844103727	2.4933702882757682	2.9939858837830755	-1.166543599998181	-1.3531138862779297	-0.1588855530780472	3.987278689807967	3.6451182273387093	-2.324565881582207	-0.3798409690803614	1.1557834119226256	4.390463341118515	2.7933754850433523	-2.0196862169771985	-0.7826502303390616	0.7808157185867963	-1.7888810589448132	-0.6060428604083654	0.21180315262248264
320	-2.8591179775531494	-2.8330104279517063	-2.1003847069162767	-1.4911670647166104	-1.1358996601036255	-0.9377441978620683	-0.23822607039863616	1.4183897936296033	-0.6253281219906868	-1.175321814430669	-0.42744046341742914	2.090943331207692	1.200926777668635	-0.26252433591365154	0.3750386824675776	-0.40468400614608724	2.259356016176778	2.825463764686458	-1.2693799702066837	-1.3162463870195098	-0.3000478140884909	3.9291796585062886	3.5569171815714054	-2.4344613490629263	-0.36932691838478465	1.0743162604864647	4.3085398565231054	2.869141094593273	-1.9908900210660152	-0.8665224291858373	0.7644546608697728	-1.764822120979128	-0.6915138942425596	0.18340268684812522
324	-2.740841620201012	-2.671873562742693	-1.8500918103237791	-1.5075552425469383	-1.051176664559474	-0.840587971472385	-0.22924388887224173	0.7949532846407326	-0.6075233205715588	-1.100733515821379	-0.4578672635916159	1.8757300329534459	0.8049129823389753	-0.22874988557759054	0.4606822121433162	-0.43786877283171294	2.0518083520584516	2.5708696777285382	-1.1104884119606906	-1.1429893941631795	-0.32120215811696	3.8527912996293265	3.3311793720064506	-2.3358542860184284	-0.23779033064410582	1.1099330158820757	4.175188530871016	2.9539139196203315	-1.6613755184189554	-0.7968092540650628	0.8560339190804823	-1.4348746501935128	-0.6309226735398248	0.2118837082996932
328	-2.4967029031660357	-2.3471038282263543	-1.4510893785079824	-1.378204580642072	-0.8245490768595589	-0.5683895931198554	-0.2013133312149459	0.43498223910181816	-0.4822281884892932	-0.8851944185796131	-0.33763709579099616	1.7479425624585123	0.6280045493482789	-0.021633747910477466	0.5899105653174123	-0.3224544517005292	1.9312652300712285	2.389596694635183	-0.6838546974082595	-0.8964900947824785	-0.20595018513657332	3.748009672238845	3.078091375208913	-2.0359222837544437	-0.029404874816802536	1.249255415623399	3.9791760344176574	2.939338915079493	-1.1608394355075777	-0.6078623517901852	0.9746584867665188	-0.9349458194015737	-0.45018634086435005	0.3002751462030903
332	-2.151308054260852	-1.9209366988320469	-0.9799923276000675	-1.087582227822051	-0.50271350018417	-0.1923516238839801	-0.11684713483158007	0.4745640742718116	-0.25911101633456185	-0.5691747651034992	-0.0972739604639787	1.7413365796947342	0.7504941802150171	0.30440905613337277	0.7616240362965361	-0.0867024210886612	1.9264119814872904	2.3974339901476225	-0.09795129274433494	-0.6375690086480139	0.023126533196592157	3.6098678020889627	2.905905000979335	-1.6094537932769128	0.20805178530140278	1.4628837071677798	3.7387456799526646	2.737246983292973	-0.6908967477521134	-0.37742823267058995	1.0385543081765474	-0.470588772300876	-0.22215720955072502	0.42901548634931985
336	-1.7791091158771388	-1.4985122642830264	-0.5491018281424598	-0.6833549124630797	-0.15896339674392732	0.19028426658748765	0.021005749649419193	0.862869260516777	0.020406212606169313	-0.22128897849479634	0.18835754644998765	1.8277052594769796	1.1012710305066062	0.6532177908617699	0.9657967066222667	0.19814413735907863	2.0067963549491954	2.579829924745711	0.4503041494444512	-0.41040879384373075	0.30205675883325095	3.4158379945344075	2.842192642665462	-1.2014023035234525	0.4238784898546449	1.6967340664940513	3.47092031556233	2.31562065493548	-0.4505682874271064	-0.20867145008808444	0.9788857077679616	-0.24006207226701706	-0.0509682594443003	0.544932602460237
340	-1.4659686051549863	-1.1707025736815282	-0.256230681487708	-0.2566829913334441	0.14022530579926257	0.49587198966715673	0.16119445819688205	1.3969787323967349	0.30354258341446055	0.09152293182153912	0.4278147209810289	1.9240837048589525	1.4929424486614078	0.9524596309456429	1.1737765044141237	0.4431770730750399	2.0904333538682813	2.7886803079769593	0.7538897972146532	-0.24173022745613423	0.5455148802335776	3.1243686597142664	2.8139879632475364	-0.9863801573645185	0.5638340697358186	1.8757020187704723	3.169775001152361	1.7158437923979524	-0.5546262846295189	-0.19325096856440296	0.7535973172234788	-0.3530973783161259	-0.03282441190538469	0.5762336835617818
344	-1.2625434366774966	-0.9657275056298571	-0.1361517753739851	0.09704491471584635	0.36066055206793524	0.6847225410339981	0.23345707297987534	1.8335323287447993	0.5481490478981307	0.3284674278549341	0.5498424158519242	1.9349024246955295	1.7217779116075185	1.1967458694760658	1.3406875099665299	0.576124666666763	2.084099287493282	2.8256101536936566	0.6880597454819019	-0.1504120971935263	0.678822575285802	2.697835438592673	2.6954290798798763	-1.0940623255763813	0.5751796946308797	1.9216198872687376	2.8079442907011494	1.0410894129217338	-0.9834645365680467	-0.37177190090729817	0.3582620611682292	-0.7835385779625511	-0.2116212541482486	0.4682525086501583
348	-1.15691888040273	-0.8405970313783679	-0.145691603054329	0.3192819646880464	0.5044952022212977	0.7675653080634571	0.19240537237227062	2.0068886229390746	0.7336381059243837	0.4818955051653193	0.5304807411151937	1.804156775687862	1.6712766843561766	1.440286632716165	1.422179099306987	0.568036554809742	1.9333287428681427	2.5598606998663187	0.27351567080106226	-0.1540226932451633	0.6664467437130441	2.135975832314699	2.3895502030123756	-1.5315958222820791	0.42185640228574506	1.7815059378467955	2.3606131017212992	0.4186203469197698	-1.5889672000821766	-0.7126475554593439	-0.1693493719593663	-1.378804799413445	-0.554237423927986	0.21742655281961915
352	-1.080677625788702	-0.7142781001177027	-0.18918299627223678	0.4111758162130863	0.5948657378436589	0.7895247320268748	0.05289072157499991	1.8940354537827784	0.8576043822570594	0.5675510153746276	0.3989678611219144	1.5502097567519901	1.3659462894285144	1.7350362495485927	1.3980072701443822	0.44128659256147185	1.6560503202588772	2.009982342413686	-0.3269669405311468	-0.26111504369614036	0.5249067531684513	1.498928185493219	1.893882031427514	-2.1512820666357957	0.10697178515606204	1.4553443156691757	1.8376066638327793	-0.04433175537718402	-2.1545369570694723	-1.1197953195910015	-0.7532767038400414	-1.9222730349645372	-0.9586713885898719	-0.11690501839209143
356	-0.9491395926353912	-0.5234859572545274	-0.17437298551880356	0.4242666353004423	0.6513398273235731	0.7996738532857356	-0.11308162630856296	1.596600290082131	0.9234293675950176	0.6050626024228642	0.2172171169995684	1.258580919902833	0.9479597782996858	2.0620572514924143	1.283506747819943	0.25269523199178184	1.3365278210274472	1.3384492363515754	-0.8751569368201347	-0.45957937720614395	0.3104834250717413	0.8971028305292226	1.307108041324198	-2.6946985653553535	-0.3131965986927446	1.0040533517283146	1.2981388536103318	-0.29201096222584744	-2.487415307440583	-1.4717189036405292	-1.2969884839690713	-2.225749963862943	-1.2975145545625306	-0.4354945410223692
360	-0.7168012839339641	-0.2697668068750566	-0.0684731302916758	0.4242466081398483	0.6708219034424459	0.8204783180502565	-0.2186462575637397	1.2621493307672367	0.9291683411980818	0.6000718459237765	0.04331421468646999	1.0346997950179442	0.5953555092085417	2.3082079829113487	1.120606300385768	0.060184981522003446	1.0807832452189774	0.7691856007229405	-1.1590948075594067	-0.7126344424375264	0.08715286828925277	0.4481760252127636	0.7814172486603509	-2.902495615306791	-0.740181444206661	0.5291838036528004	0.8354144671328771	-0.32817420280570186	-2.5020103391420156	-1.675277705731268	-1.7126865343721713	-2.2109169904201686	-1.477043982591318	-0.6483803375086574
364	-0.4133097220953025	-0.027308901702954688	0.07948605696160185	0.4479614782944363	0.6275831445107808	0.8342829921639626	-0.214216261561283	0.9965333317392137	0.8663763978065063	0.5404058085149095	-0.09804442500156135	0.9470127201012407	0.4278329003976395	2.317615741600365	0.9539849734062388	-0.10597308698363005	0.9616375541249855	0.4762538361446053	-1.0788968774258885	-0.967723545969056	-0.10503285351699451	0.22476036789891188	0.45326501016619325	-2.642202132229838	-1.068081733867989	0.133518263360523	0.5382513390302978	-0.20128811845026956	-2.2567005100494493	-1.7074905590816398	-1.9508035133699826	-1.9433264683296563	-1.4815200529840697	-0.72270047482178
368	-0.1384541090807501	0.09476963406716049	0.16450430411290295	0.4800457942286747	0.4916944193346865	0.7936616519917109	-0.12043511092058191	0.8193694332416548	0.7299218159366656	0.4071636189671279	-0.22164359632799222	0.9907377337237558	0.4513047922184141	1.9930185029255705	0.807738361703485	-0.2515107386914735	0.9821000074386488	0.5050995337131496	-0.6734342558070662	-1.1746396988775816	-0.2634966664814176	0.22148542050231887	0.3890352537346536	-1.9861538360041204	-1.2242052524176017	-0.11804681986568724	0.44958984738326635	0.022319292593275936	-1.925053591636289	-1.623449321462708	-2.015443558372798	-1.6011928279504797	-1.3786344493391067	-0.7000367623774746
372	-0.0179312843376672	0.012425842663565946	0.08573813714791953	0.46092107775665053	0.2539075904634524	0.6497120840835117	-0.019668193484359196	0.6800888759608581	0.531403301804698	0.1929350192444075	-0.3621019115842547	1.0939779253995923	0.5690304026542177	1.3830339873681603	0.6777334792192158	-0.4027007212008382	1.078444716591764	0.7667561154080295	-0.08373936989622917	-1.3059109416415515	-0.4119361926645662	0.3624952128318121	0.5724003896566651	-1.1909252375098653	-1.1977860897340595	-0.2175390416851875	0.546381650975713	0.2825651161689159	-1.7120122866321743	-1.523758169141772	-1.9567826936908852	-1.390638109510827	-1.2806509700866744	-0.6712046844702271
376	-0.1392440941394474	-0.2849454574543337	-0.1933469469434102	0.3256159416560787	-0.0578118971020687	0.3832837333538958	-0.008961847029351622	0.5165867196391949	0.3062407366650184	-0.08355384298925358	-0.5410018549611585	1.162249800608692	0.6470860226506276	0.6909627300937131	0.544323204573592	-0.5773736223902332	1.160269853523542	1.1033630343236511	0.5169821964562811	-1.3660347427211377	-0.5722550139284249	0.5461137280981241	0.9312343573900702	-0.5839321598568897	-1.0416514847205467	-0.20339614101555736	0.7530968170225635	0.5379238115080839	-1.7553871825721628	-1.4987939558335237	-1.8429586840829386	-1.4476368390727294	-1.2818820444167571	-0.7218730431450971
380	-0.50441300741636	-0.7257943731103249	-0.6213821157025843	0.048896238084365946	-0.3794772913411826	0.02595936686697023	-0.1413067426690145	0.31106820624015624	0.1070302126089556	-0.3743616929139279	-0.7388975005567959	1.136283990852167	0.5924237355533767	0.18993684601513025	0.4018002440321675	-0.7583612780497688	1.1653035849714044	1.378892656659622	0.9908363198059654	-1.3764482701835545	-0.7350145559827066	0.703355727804123	1.3796038592792863	-0.4077622880177404	-0.8379397371117004	-0.12415751783495464	0.9841068362185246	0.7685061673788612	-2.056148047024301	-1.5768662651304286	-1.7221037105950383	-1.7692905619773678	-1.4035868609277193	-0.8770901538638989
384	-1.0223726008352	-1.1865696877085452	-1.0802731486702775	-0.32723590649001666	-0.6280892475482908	-0.33776456032352653	-0.385317294816886	0.11053947331414968	-0.014090117031524492	-0.6110690220663604	-0.8884511567572732	1.0333836052553371	0.4062103618856418	0.08757518954816193	0.28200659084645824	-0.8852117039265543	1.1011025877808962	1.5459468325684171	1.2684291569156272	-1.3494752611421579	-0.8461840727422832	0.8380506613553474	1.8497847271946717	-0.7026224714659475	-0.6511359198343113	0.001759623405737589	1.1922579973636782	0.9735173558451751	-2.4717950758516025	-1.7037986473935733	-1.594355579165557	-2.208485359338051	-1.5760145147587388	-1.0766903134818746
388	-1.5474563797981873	-1.5460032185622323	-1.441704984839659	-0.7035028916717019	-0.7298692446401064	-0.5929002746871528	-0.6305952652269002	0.002473037916511063	-0.026002807477030918	-0.7252753954695759	-0.8976536370502013	0.9455975270239116	0.1857658470947299	0.41564130678141714	0.2530764036941581	-0.8738919474472604	1.0472680303835513	1.652785654663482	1.3452004160296598	-1.2705377308238779	-0.8231894353110203	1.0223606799062752	2.298960918344241	-1.2883155313389907	-0.4953227924715829	0.20310680516938692	1.3940237725348106	1.1672662467096133	-2.780503265990158	-1.7687541201757435	-1.4129531347840767	-2.5389432843002337	-1.6710189538728186	-1.1995456188433866
392	-1.9425432632992852	-1.7330412820929972	-1.6261681277226283	-0.9677262877827086	-0.645837603368959	-0.6318701489707823	-0.7347946744486853	0.06071355923582738	0.06721767766194146	-0.6714621765350066	-0.6913155299852479	0.9973213051411549	0.07421827297545867	1.0106691096538112	0.3863441338321615	-0.654707191721657	1.1188039751416001	1.7908846094692348	1.2595759598402012	-1.1052386732807076	-0.5927025064762873	1.3510286773903721	2.695883744109075	-1.8541881991302702	-0.3357031336891742	0.5388499484762657	1.6574439960594969	1.3764485086021332	-2.783414595252217	-1.6609990554835046	-1.1139023275862265	-2.5580210621146158	-1.5663763245136026	-1.1233739824542808
396	-2.1353204196424036	-1.7461435750744434	-1.63182484691611	-1.0466977331437803	-0.3857730915343326	-0.3958101858636209	-0.5923085793799613	0.2993362538409588	0.22740007879541496	-0.4446760702827116	-0.2516759329640514	1.2802224126918214	0.18726143193649683	1.5966687162141604	0.7106839996514657	-0.21117535180180969	1.4054155314248113	2.024135822907737	1.0697444650344454	-0.8292956927342631	-0.1328957822543828	1.876897807150937	3.0055947227888002	-2.1104683822753394	-0.12289419739212981	1.0536864969353394	2.055186743315791	1.6318455893324395	-2.398148053790229	-1.3300055231847223	-0.6619840247606884	-2.1805837099333982	-1.2101223438227866	-0.7905235866614989
400	-2.1384651606928133	-1.638087149298981	-1.5213122329449444	-0.9403715109924894	-0.004639411799072143	0.09851151679916441	-0.18655231547939435	0.6592494232699424	0.3981767882784527	-0.085058584594551	0.36399003771436006	1.8020120813649687	0.5512065873534543	1.9290237378054644	1.1821447581008817	0.4017992307532089	1.92046105376794	2.3401725233122135	0.8430445172959556	-0.4605303991134566	0.50356048218429	2.564410680018405	3.187120191156786	-1.9238531540935433	0.1646042312996166	1.7320666269440907	2.608324997992249	1.953388209179497	-1.7004939274769904	-0.8189563134497596	-0.08836010076148555	-1.4810550175467063	-0.6535211785029107	-0.2455785417316965
404	-2.023385758059777	-1.478225108229205	-1.3772542441881725	-0.7183378320677495	0.41516867175186395	0.7580419163638686	0.39948591489067176	1.0322564814254802	0.5280342088719199	0.3322742274955151	1.0380316946524764	2.473584884120399	1.0828661891300393	1.9131116818764002	1.6910543399077442	1.0705426904352622	2.5843989783840775	2.6487052373769933	0.6532587392526272	-0.07080111634737123	1.1990998953108816	3.2871546662307614	3.205317965997926	-1.3728705609945895	0.49594992274000377	2.47970890372774	3.2524270929236647	2.3308322370809127	-0.8938573576293966	-0.2523651414698492	0.5038983809146685	-0.6635932905609161	-0.034465212287909316	0.37621828818702674
408	-1.8679519844577637	-1.3165274825235607	-1.2525010077325143	-0.47921281932004167	0.7913083414126304	1.443423863581352	1.0216013167337539	1.3088718619679383	0.5903885349626593	0.7216761093992564	1.6357686478323614	3.1443884293323006	1.6202827651123652	1.6365882116959538	2.1109077877155142	1.663879271121069	3.254053107629032	2.827981941712571	0.5719745144708202	0.24051925479245123	1.8135678722369772	3.875487794628176	3.053696147838254	-0.6937476379045224	0.8020914176717217	3.1502010742761213	3.8493034742444556	2.710894100974254	-0.21993578914903833	0.2179094696503701	0.9749528145016766	0.02672807679282674	0.48176303384264046	0.9054230428724128
412	-1.7100866989829222	-1.1674990624515182	-1.1441236705503912	-0.29602664634351644	1.0694390508353875	2.0178227373676454	1.5358134469357372	1.4271249735086722	0.5940212592386133	1.0179426644373881	2.057166094354495	3.66381167440455	1.993407602045682	1.309042569670144	2.3622510373555916	2.083696598514196	3.779480686182216	2.792012922867227	0.645288108150162	0.4009856571564013	2.2395431938848818	4.18971489802184	2.7721209456072686	-0.1514216508618606	1.020824429795713	3.6063806919598274	4.241572846194134	3.003470651672947	0.14614778720196567	0.480437366941538	1.2087913721083126	0.40900823370665707	0.7739586810598582	1.2106534212063944
416	-1.5315638741925601	-1.0154088709943834	-1.0029678319404058	-0.17999356939648156	1.2421773640741918	2.3976554810070487	1.8571321917375836	1.3954201901490828	0.5790527448339613	1.202332612816758	2.275332445122037	3.9423127074843616	2.1003701633829883	1.1439528436388964	2.4584209856906667	2.303549760724623	4.064265240898385	2.5408885414822118	0.8672887661017797	0.414913146640357	2.446551555178642	4.183491696285843	2.444948190238232	0.09497658139329816	1.1413651675971508	3.7864677810437257	4.325933922336123	3.111266605151399	0.1676223720848432	0.5130371438424925	1.1711646288866604	0.43951871880189725	0.8150178769515245	1.253036257441246
420	-1.281413313491427	-0.8317037799817538	-0.7667095641805775	-0.08504653700575619	1.352532860202126	2.584886544377109	1.9915343472744105	1.2841280666355128	0.5998947605245959	1.312555786633625	2.3456318319226974	3.98735450691593	1.954066867663196	1.25383805912074	2.501519673707463	2.378377908423884	4.105018128521324	2.1676382963766048	1.170115467931973	0.3743739416683983	2.493845218084139	3.928029288865028	2.1785137598348645	0.06528162939755766	1.2180620401146913	3.739778270816146	4.109651555175885	2.9758970662323097	-0.046517234178161886	0.38986351987636125	0.9347840523960617	0.221056118049408	0.6783581954995295	1.0982567044186358
424	-0.9227494574137813	-0.5922604188271045	-0.3989013721408353	0.05467626438641554	1.4771813116925339	2.6634857587324983	2.020908112192009	1.1975707977576744	0.7037238460893265	1.4282164537610433	2.3802697598442784	3.893214692776779	1.6792268710655356	1.6171066720188827	2.628578417817213	2.419539445490371	3.98756741470653	1.8227070523973137	1.4452613555658484	0.4197022308243564	2.503911965724128	3.5839657693021865	2.0674347825304733	-0.06788985414053765	1.342540618367918	3.60962032360448	3.718898048548307	2.6175086432174757	-0.3006401948490955	0.24362705586435485	0.6549444182072641	-0.053833223743421484	0.49923393004257977	0.8821138121268196
428	-0.4727128136144067	-0.2871972315212956	0.08624786116759055	0.27655032207284996	1.693568106190155	2.760713093463219	2.057239288858094	1.2330480782848632	0.9101724601654143	1.6349027115552508	2.500391000156846	3.794099559741498	1.4528946839843815	2.1146774238601713	2.9369163439033583	2.5468366081786202	3.8457236192882838	1.6490998226491673	1.5998581607480389	0.6650045497317	2.609044545262161	3.334245673344534	2.1601548140346587	-0.08119942972424758	1.5877220590559624	3.56908058219072	3.3511967574386996	2.1430158561006354	-0.4079042066765923	0.202287479724373	0.5038595782910177	-0.19645793686380125	0.4110240925901936	0.7474090438092321
432	-0.011007918948454987	0.07749369720920868	0.6255288704337835	0.559122799415377	2.042320007889902	2.987860672082842	2.1859483663682178	1.4452867471444588	1.200479146787502	1.9806470820965147	2.7847332884098983	3.802232494291277	1.4192188942363357	2.6018428736800017	3.424775830205201	2.836806528558577	3.8013627433169104	1.7218452648559446	1.6160314042298494	1.1264394493273395	2.8931450770766145	3.30870079158835	2.4387376246868957	0.17722770526962986	1.9549744079822549	3.7393526936535246	3.191251269866449	1.7137483315115192	-0.2753106348716189	0.33101928150526005	0.5945111498127854	-0.10664672377601955	0.48725154872899085	0.7830889205235009
436	0.35107710868888714	0.4815158831837033	1.1279573412073574	0.8298152068168138	2.5010998185907254	3.3861319933276697	2.42547153814202	1.8243682338430096	1.520852919553465	2.444811099555595	3.235754481729187	3.9593949217967017	1.6166298348618835	2.969063989772511	3.9838201899082515	3.289005509655654	3.912626495019639	2.017564291628552	1.5708774288570968	1.6988624291443173	3.3542587672423703	3.5338003546186614	2.8201410699214544	0.7013714295799154	2.360253089667765	4.131530274450481	3.329105607210661	1.4805926047137064	0.0604196077549888	0.6064257606454359	0.9298245883354019	0.18960967612078414	0.714876649959026	0.99135601270245
440	0.5237038122306314	0.8902025796349313	1.5060082636003436	1.0058479283686812	2.9842252655978796	3.903161515871783	2.724999420915448	2.295698636934631	1.7988123848322146	2.936827890610735	3.777198305130239	4.224163521592092	1.9570621202648868	3.1611115852654206	4.4489927179543844	3.8246719740625035	4.1540117158915235	2.4262466369407223	1.5993407924326948	2.1980953161056163	3.9043617149959498	3.929281463239308	3.180253497677419	1.3242350783292962	2.6698491505926527	4.641494262420758	3.7211325074660055	1.516842480644523	0.45954510453548464	0.9331682896895698	1.4018202984703265	0.5632529244507258	1.008273956614204	1.2947568860743148
444	0.4815506028891973	1.2522382704590078	1.7020273165646105	1.0401291820968266	3.3724968348232767	4.4129252322361205	2.996490947787371	2.740075819726871	1.9673199603955434	3.3296198760844846	4.28378485551749	4.498749244775783	2.2684044780679953	3.1607160488436894	4.677601325623053	4.317957390373841	4.435805309540414	2.7972929407066793	1.8120515300777196	2.448729032056079	4.405939091048925	4.351404179077237	3.396805993087097	1.7957776739557822	2.7667887140991247	5.100387560364947	4.213880528301404	1.7841999485745519	0.7519711833088222	1.1925020187787727	1.8431611014560847	0.8505949952584599	1.254364368132778	1.5779730041718238
448	0.277314245000685	1.5065967998613699	1.7050156550275246	0.9498491859296506	3.564167252125	4.772675025334187	3.165656797045937	3.033134214372712	1.98992311452091	3.516044846240638	4.631924140679783	4.681653010946076	2.3843376576306388	2.9686963483244644	4.620090472954534	4.647611129470744	4.652444827731245	2.9992754383656677	2.2128441277901807	2.372424834937327	4.730408656574933	4.6613983990282195	3.3957319173909566	1.8955357026879873	2.6125569277606173	5.355985627956929	4.61970804955462	2.151566738418524	0.8185420611696165	1.2980766263613435	2.105679029870439	0.931330201658627	1.3658342326966195	1.7424747899884914
452	0.017192581625089035	1.6028294522825903	1.5558389385996554	0.8082791546441668	3.5240082651811035	4.891931998299694	3.2168888964496696	3.0967519205109206	1.876112813981227	3.4617586048463256	4.751050460264272	4.7210321307197	2.2381520214793365	2.6024322444060526	4.343067158224263	4.748014914922815	4.737235057314534	2.97103451932381	2.669552319462421	2.026939386972314	4.813111769922036	4.7872772095929745	3.1817903438344275	1.528657074883493	2.267776245113649	5.343770967343236	4.806938636087524	2.4611620840876767	0.642702577875623	1.2328568665849065	2.1266388839434973	0.7796871046408238	1.31788623000243	1.74880420720121
456	-0.18811646056364106	1.5283217391528332	1.340131637050758	0.7042033058506891	3.306451073881628	4.7805566667022275	3.205044499888387	2.9377601072526685	1.6802155929105733	3.2281408228433803	4.65355967300431	4.640234458651966	1.9070595454704768	2.1174771732274924	3.994374741959851	4.637371528361342	4.694396960804037	2.740476124520172	2.9675478860318316	1.5759586056020807	4.6805958629690085	4.749179351260207	2.838542454228633	0.768163142649045	1.8614634228438969	5.113242136443332	4.75820778599083	2.607645266624947	0.3114383808855992	1.0517080995709496	1.951420183023272	0.468543111095027	1.1540143460701584	1.6298339325763491
460	-0.27140617302082	1.3276454176761547	1.1666955918419744	0.6932902914663156	3.0384082717477017	4.550522792771289	3.225560418568279	2.6526124410414447	1.4836207590792299	2.950908891856922	4.430071819564655	4.521665084866852	1.5764505823388146	1.6283681351557335	3.7332806492962964	4.410500992129936	4.591641414493646	2.40232705463417	2.9236037657356753	1.2096208303429126	4.438293922662793	4.637379634593011	2.4921758111974848	-0.1756467218732766	1.5295085868366043	4.798610198303375	4.567012775334636	2.586887829925035	-0.030549894941208088	0.8508135058856549	1.7022913651402989	0.12938822773214112	0.9606604551856495	1.470225211246229
464	-0.2294163251091416	1.0993975373167564	1.135082361216529	0.7737991194261973	2.867589466484398	4.368466366228984	3.361143818952282	2.3930084644935126	1.3661354745705538	2.7831082273788446	4.212878693434549	4.460782516661191	1.4418805801227241	1.291440841275253	3.662757149031846	4.200323571090759	4.520473468811511	2.0701794572061605	2.4992372926554864	1.0577399703977006	4.225640763104476	4.556362140595901	2.2548327389054834	-1.0395287249068754	1.3556271757231835	4.551422107649389	4.376875866329822	2.485682958049205	-0.24951629277651843	0.7203372102670472	1.5107315740589995	-0.11047749193432035	0.8241242745573172	1.3618071044871827
468	-0.10644847872799712	0.9676423048384322	1.3038071361048709	0.8962256885789225	2.9001648352833787	4.382107246779261	3.6307926086309816	2.304351323985539	1.3789911235325423	2.8296899724089424	4.1234731570086645	4.51452111058069	1.6050763089663707	1.2479772536240628	3.7937929534495476	4.125021447257441	4.545598495450958	1.8279033853157127	1.8485462618886555	1.1395589084464377	4.159539212215458	4.565325725473172	2.1755723898319146	-1.5986859758068455	1.3449646200555236	4.471242893374283	4.297753323194626	2.4184117256140683	-0.27904030610205527	0.7042646986346528	1.4504556619263305	-0.18080872251637173	0.7917052487411876	1.3587081398038445
472	0.046376559766266534	1.0362075541083757	1.669083114224691	1.003708002417358	3.158819905888882	4.655166614223397	3.9742002386843707	2.463376992681938	1.5306105575064295	3.1063380162966547	4.227148999032065	4.672203529005822	2.0173518606751086	1.5507444104142756	4.058722962622583	4.244021881832483	4.670721042284711	1.7020597414912864	1.2622357575019427	1.3750054801557643	4.29136942733672	4.645923602772124	2.221126550788679	-1.7313711599506074	1.4415962659678632	4.568902004150666	4.344936836716856	2.446978086015578	-0.14050519430925995	0.7852550129138145	1.504983421340663	-0.08960224665430738	0.8542939998992368	1.452331420092676
476	0.2101353550612332	1.3459252085082987	2.165413612620625	1.0772445174675969	3.5821051507155754	5.143187033065726	4.285094727187768	2.8432314324119847	1.7890957548747521	3.543083420391122	4.5151553039994985	4.867387759317473	2.502926343320611	2.119792456043302	4.360328186470477	4.5425600890865585	4.841861235791833	1.6657887655162724	1.0313274834343564	1.6465271669778672	4.596574294882803	4.715758311763288	2.2988929690493687	-1.4414249622192112	1.5750020702651402	4.778186309194784	4.436106670623638	2.5336673195766157	0.0778544543208009	0.8999032355476344	1.5864995677947056	0.09266611910312245	0.9569197272936352	1.577904816458373
480	0.41201782122538	1.8575119925331334	2.6921021870354926	1.1538597316220016	4.06186484265005	5.71981380925881	4.473375785977541	3.3245673095689208	2.0993516392156377	4.026679028835078	4.918230044345358	5.020836340625609	2.851463310671841	2.761511795701193	4.623420703659016	4.947483050252947	4.983293043906432	1.6676841932153446	1.2993727889633566	1.8651934815045232	4.996465193531378	4.679292667018929	2.309138769041811	-0.8413609245038807	1.7004510121328604	5.003032671694728	4.446104038457284	2.555711024507533	0.26649478010605027	0.9729344820253881	1.5921422202920559	0.2710870199511759	1.028453109051965	1.6481908518186374
484	0.7053039652183326	2.4681506094606576	3.1538219372277947	1.3065479960833024	4.496151912781609	6.238336547360066	4.5216445808691015	3.748432388378525	2.404981368668606	4.456156719401141	5.342168317658562	5.089909540677046	2.9294052050063066	3.2487504400246223	4.826055991385936	5.364027009772563	5.045346724169683	1.669400449352674	1.9829533050063415	2.009039635354298	5.398293958385999	4.487455833549413	2.198735946826045	-0.11003629090422624	1.81186556358649	5.171244131383561	4.286399353649317	2.3756909310441934	0.34099453601575	0.9522985791958665	1.4649158679216212	0.3663531830598036	1.0149078343516664	1.596715803883414
488	1.1242992849574376	3.0515880507671604	3.4954802901707325	1.5965036113485493	4.828439700333775	6.595099432506689	4.496960628599879	3.9861497778387713	2.6648905209970177	4.78102968916197	5.705106243988325	5.0910625329226695	2.746872179725581	3.4279913815734253	4.9942326419623075	5.712902054668105	5.032315241506051	1.6647685724188728	2.8054256368378794	2.1140866226226493	5.730986580684458	4.171737183528656	1.985690707915385	0.556240914847763	1.925310368445333	5.264449106276415	3.9621646304231315	1.931394214522197	0.2704704695071759	0.8300163128877782	1.2255104749255978	0.3410858503313154	0.9019631124612264	1.409793254153932
492	1.6413428741976823	3.500953665477348	3.712226143047574	2.0221838900055604	5.052946554777937	6.7618145771968585	4.507459629122688	3.986777057118804	2.85741447680977	5.002458559757701	5.957479938724679	5.080594526815066	2.4386842189253115	3.2894513523974482	5.1670818198401145	5.949013695002157	4.992248999389191	1.6687077241728432	3.4260287198352164	2.2280092183128057	5.9588227121587884	3.830187311038935	1.7394155219984737	0.9886412595583641	2.0462825246645657	5.309832082693816	3.5720066934046457	1.2914997306641423	0.07760995606854955	0.6388465746009041	0.9571763252887454	0.20287668653765134	0.7155892234855167	1.1311401100210379
496	2.1539905016875514	3.7561273479996	3.8317217730101585	2.5001654561815854	5.189043031942871	6.774940473617576	4.626607883216399	3.786532392478499	2.9748015328641038	5.1430730689852036	6.079902633575503	5.106961714248495	2.176971668469129	2.963284246592523	5.356864438837278	6.057725891077783	4.976459490609476	1.6914633469791605	3.5937852768762713	2.361451858280461	6.072000488209712	3.573426476039611	1.5344129762056304	1.081550833832457	2.1471679156452064	5.343541608670719	3.251187793152624	0.6388486011588214	-0.18236064864847035	0.430609523162846	0.7543308715848775	-0.010027039770798126	0.5044344054837803	0.837896583348992
500	2.515740865077808	3.8079762362659113	3.8805622956529615	2.8930978701980714	5.247378336055842	6.6957340071427485	4.833566176608675	3.477152100367153	3.0147268696010707	5.211083399013689	6.068834289487237	5.166640268632733	2.066751236465915	2.643806212425983	5.53099678550457	6.0392393913380795	4.995871054433757	1.7137151913291078	3.2546715654216603	2.472137444930328	6.06804560082956	3.4622716816272567	1.406581636692253	0.8198356607719108	2.1773457472187947	5.374861226816742	3.093397847948588	0.1888939435481283	-0.44762089735504956	0.2512638562534371	0.6671287996614869	-0.24751937326881146	0.31683495560761565	0.6031937583952951
504	2.5991227561179	3.6859700586717254	3.860418309955529	3.0716502588921673	5.214567648119883	6.569786532027385	5.012520777444699	3.156739703791473	2.977399818532593	5.186251150388641	5.926074489890395	5.196332918399075	2.084338659746096	2.4819700655262307	5.624835953816232	5.897065147770033	5.005602823970954	1.6815791087610126	2.5573279793069172	2.4880936082964147	5.942045673626927	3.4744930179611466	1.3363620009061006	0.2898290150000636	2.0963854736805243	5.376132474677303	3.0985748689621286	0.08712172486243625	-0.6673037988981056	0.12530098823859995	0.6752929074404045	-0.4610121834559597	0.18418973637807476	0.4656382787392323
508	2.3601407945172914	3.441200009240882	3.7493328953495184	2.981489889246754	5.068856226521216	6.4114737348807	5.016989695280096	2.889252416945451	2.8709244655604502	5.039544569643317	5.663186535842209	5.110966192692975	2.098679775661426	2.5094208653989405	5.582053170415948	5.641892418922095	4.9317173833310815	1.5343702992800792	1.7643543437281117	2.358190053708008	5.69571732036701	3.52180003230704	1.269509431494809	-0.33754831467282737	1.910486454908541	5.3061890468143424	3.1785001674511326	0.3395160726081516	-0.805350659244456	0.05597856999211535	0.7061551791482209	-0.60775273884872	0.11794369637990558	0.4204886843078597
512	1.8704129410250367	3.137238256163097	3.5323927313311994	2.6764368943351755	4.816067683458273	6.220447524578083	4.766839015369674	2.697405569895638	2.72123145370084	4.7735109208704065	5.31770037262146	4.8675594206939925	1.9604724596117453	2.6397433214297714	5.399654851632074	5.307864652584038	4.726613986479533	1.2456936804791934	1.1295274467560665	2.097567314574147	5.359117494404099	3.507782450402734	1.1589785785023883	-0.8544445016269147	1.688487763910196	5.1524405349344535	3.216503135189657	0.8129936436154181	-0.8361938574659924	0.03728488823298644	0.6855305415965333	-0.651208279872886	0.11760874807943593	0.435139029119504
516	1.2957158055970404	2.844939463108356	3.238320342471	2.2966389598082335	4.517018783609052	6.01283882530366	4.316590298244724	2.5807304317167037	2.5761074954795964	4.451719749655264	4.964654433113646	4.512123573355297	1.6013228852850512	2.737385266068503	5.14975403439192	4.9648356312333055	4.415730942067904	0.8490012266658347	0.805252788417982	1.7989765360235115	5.005221354245355	3.390443793319835	0.9957979296338316	-1.0848385068206774	1.5428006610065361	4.960480200641275	3.1425249497227474	1.3039776053884982	-0.7419149260862871	0.06662144495117797	0.5885863289277807	-0.5643858299311113	0.1805901820868545	0.47619268177922014
520	0.8257676342142705	2.633247607258549	2.9517390653472577	2.001606220913837	4.279712666196717	5.838026508850488	3.8456160925093807	2.5421256954860465	2.495608323472144	4.1897997750357865	4.705573070089785	4.174592961261924	1.088028428191713	2.710193150353465	4.958890425559839	4.708912837537407	4.102328290118691	0.43251177559372744	0.8162892440213737	1.5964615304694443	4.738519656615489	3.210316173077592	0.8093845823833803	-0.9495007371771734	1.5800416429681758	4.826982009144829	2.9772798939876073	1.6355205733014326	-0.5164904581381257	0.14902061186359677	0.4589347231722033	-0.3382780245346477	0.3058731548216166	0.5301988707507626
524	0.5869468435727281	2.549661629915262	2.7842380930223545	1.8904869508696795	4.212616432998199	5.763236984960944	3.567151299053501	2.5999216967744516	2.529815429022376	4.104900349743545	4.63160990499332	4.0064525503094846	0.5972773417651825	2.5714504653857633	4.953332411657856	4.627839553592928	3.919740666983489	0.10244426850441843	1.0952980490687447	1.6022608239728688	4.655347335505899	3.0656590384330507	0.6403443797156834	-0.49943274133472615	1.8471741629693903	4.854035842084337	2.818013660945502	1.7297677950101975	-0.1760927285278436	0.2901629500215746	0.38311040304732663	0.007467378843348848	0.4889207469993889	0.6057774409258507
