time	FP1	FPZ	FP2	F7	F3	FZ	F4	F8	FT7	FC3	FCZ	FC4	FT8	T7	C3	CZ	C4	T8	TP7	CP3	CPZ	CP4	TP8	P7	P3	PZ	P4	P8	PO3	POZ	PO4	O1	OZ	O2
-200	0.2884030334820574	0.6020606741009756	-0.1855037654723142	0.4207843829498438	1.2088690965649034	1.249850985232491	1.4648688994616568	0.41572281613294165	0.7099416238026625	1.192709800569935	2.031955475445367	1.7523246959313352	1.195522901377652	1.219297286769898	1.3734011615410404	2.0463151880098205	1.6892964797284666	0.1703208382597853	0.4849532532368992	0.8390647151743509	2.0890600628561233	1.3446361984636404	0.46021628263628334	0.3034136585681369	0.3731986274833622	2.248978370710425	1.2581069437687757	1.1633664340210952	0.5799441322943267	0.8190817216220504	1.6641417699759973	0.6198369844999729	0.7240766268568798	0.7509977202528083
-196	0.2057164008191933	0.5991184100283565	0.01129188106338346	0.6073158368036194	1.6824650721987173	1.867233867699323	1.819927926237033	0.8880990125168292	0.9691585873930451	1.6997649626732276	2.790551893818181	2.490299456984693	1.7182455019484681	1.5425106248057914	1.983488912342941	2.806686155862407	2.4238159595329187	0.8392503240377128	1.1132280798462297	1.727662082124889	2.8697419094110925	2.3575642049394463	1.0383468840132528	0.39572441478000564	1.3614323104817811	3.249216548345589	2.2158045712794103	1.7131006674430251	0.858885524488627	1.0432506773358328	2.2693867626114135	0.8007087091257132	0.9443889832494972	0.8914728142165327
-192	0.36428216007766673	0.8531247355856301	0.5442183600036968	0.8389638045110009	2.2184672299640944	2.6367819242662276	2.2710988464236195	1.3779604400176884	1.2419298855897092	2.260914081587273	3.522334328341458	3.0873298567071945	2.073077673446402	1.5020549259409521	2.5347585614104085	3.5309002310297917	2.9971203728346096	1.1525952786909288	1.6129409034060482	2.5421614582728216	3.597145548321645	3.1577443996812704	1.4536168538586567	0.46537634612842815	2.2945764006856333	4.042964448258072	2.941790811740783	1.962140674405507	1.0432274315244292	1.1337449522004355	2.5756087238133754	0.9119033194406769	1.0412369940218251	0.8958347417148277
-188	0.7494829874189556	1.3640294040573775	1.3402386869925043	1.0738666030474144	2.7272744109914915	3.4037027273073557	2.8110814023570474	1.909288639970159	1.4727593623171016	2.777279608390265	4.114220131977095	3.5219664484748328	2.3578228890971182	1.2138247459283071	2.900692455597598	4.108627785799808	3.3940722856660206	1.2218887775088996	1.85620951183879	3.0640702170259293	4.158256043425974	3.649799337708971	1.7306344465430437	0.56316882229716	2.902928583445346	4.47042177978993	3.3450505649035582	1.9252948712377305	1.135341522211358	1.103762385442638	2.564018719875352	0.9709389781279909	1.0278868649280284	0.79764950074034
-184	1.2337502209985445	1.9849766442727785	2.173758024449533	1.235926982620246	3.064309350860164	3.9378552337407324	3.296675435325987	2.433522456700795	1.5971147973745332	3.104955665378514	4.407361019451097	3.7421934510163473	2.5906376773276767	0.8737252332562445	2.9790410920269843	4.387721527465769	3.5759866147355397	1.2264418571025066	1.796829338305544	3.15681170620218	4.406285274824906	3.7872896098838136	1.9189882229992588	0.6898547393547808	3.0185456199728993	4.430959213513831	3.3927030477696976	1.6825872617201982	1.1587474316905328	0.9985169147076859	2.2953886927825815	1.0031510566179829	0.9462264156293491	0.6635872108871644
-180	1.6377223688738765	2.4871797498850254	2.763762943919386	1.2563030688038477	3.0957062166256213	4.0385408299525904	3.5263886362688437	2.8260493207152533	1.569383855672086	3.119789115658446	4.268047321987888	3.683939209220066	2.693744891041355	0.652267037175358	2.7505412032301115	4.241358269473484	3.4929025084999945	1.2953135934551114	1.4766194783122994	2.82765316249282	4.226260174571418	3.576033821614083	2.0435380884074568	0.7987903932431053	2.6470284395144055	3.9240724941362486	3.10879229714373	1.3487544025700642	1.1436424226496897	0.8736218191978203	1.8784646940488365	1.0276135180277788	0.8453623035068397	0.5642237052977316
-176	1.8147838069873252	2.667874091088362	2.9054880068855393	1.1116058798381183	2.768593304319788	3.633051147825108	3.3573822890392937	2.9431710168917173	1.387118336036437	2.7816009451255703	3.6638352778438215	3.312193862181948	2.5562462742162646	0.617096184126186	2.2957789839955853	3.64043520961982	3.1183333318181274	1.4332133495385275	1.0028599475336348	2.2218191567592203	3.602474918806847	3.0694961470354234	2.0786993451088445	0.8324717262231011	1.9596230934258403	3.061841718572693	2.562683098998597	1.042777893294668	1.113808509875587	0.7729197721040462	1.4284179174598757	1.0493940088480325	0.7616693954310956	0.5444541559778329
-172	1.7156538920001774	2.4462234912146266	2.5679783756270735	0.8374118187742576	2.144617552110996	2.8133053708572917	2.7914125848865647	2.70620703013953	1.0973116131734633	2.1602139418421267	2.6968731812098485	2.6558701924980634	2.1275556033778282	0.7197871786064486	1.7556168988725471	2.684970848933991	2.48063062995222	1.526533599814086	0.5095809685239175	1.5475772580174867	2.6437008314142862	2.3537151754081482	1.9616135309284444	0.7629134039690619	1.2071835964242004	2.036761278732184	1.8479076577261442	0.8536699988746587	1.0755925151371732	0.7107178550896126	1.0269894573985558	1.056639787867214	0.7046966534942495	0.6023671611836369
-168	1.4021290505294834	1.8983905267469416	1.903982157668493	0.5099022971630904	1.376451250415786	1.7927290155925077	1.977762574924537	2.1643583719921855	0.7791381458638285	1.407154794954966	1.572535749279851	1.813699956129466	1.4780764542455107	0.8422865846349054	1.2558019129518414	1.573575611909977	1.6701828199180204	1.420835729826431	0.11669508338314194	0.9748218630974357	1.5483233889589012	1.5258038005452987	1.6336708027601434	0.6106644257386465	0.6031825527221055	1.0546003553467285	1.059197065540201	0.8092083314492244	1.0135215495269805	0.6659643037194501	0.6990438086026682	1.0234956715492227	0.6541018469508465	0.6865733248542459
-164	1.0067003939961066	1.2161551683238514	1.170121309187146	0.2063810522114056	0.6405051334422367	0.8100307563357588	1.1387034625867811	1.4884648285478959	0.5090619908831685	0.6891327482944394	0.5187730180040363	0.9289410686881271	0.7825494984896455	0.8678719379447898	0.8419427254400643	0.5264192806304527	0.818492887337801	1.017452595049282	-0.10126967702569835	0.562330125342643	0.5271226154370267	0.6756919009315236	1.085134145858017	0.43174895535181795	0.23616507589795743	0.26275631719053166	0.2766738825011574	0.8593441822290157	0.8955529309550412	0.5919537529305092	0.4147731353301331	0.9187227464368567	0.5693226442268136	0.7154414635714915
-160	0.6600539071584447	0.6112865194145967	0.6000181421389694	-0.030344346461573964	0.06279404445529847	0.03144971273349765	0.46147182467298464	0.8928672648775323	0.32729026592591454	0.11972647875121702	-0.30162027402066277	0.1438654657546335	0.23431712329832924	0.7348577957673431	0.46799749017813064	-0.29822722002074553	0.05795038104327409	0.33579599772549984	-0.13638481463330732	0.2545432143937324	-0.27572771837238164	-0.1231735792626479	0.3771273186222011	0.2804097228123124	0.055688306548662934	-0.2910188131137436	-0.4381345201397731	0.8869388677138501	0.6888289434207862	0.43981560953677384	0.11697601497442027	0.7189424615828245	0.40980434314258957	0.6125994905263941
-156	0.4284386624009624	0.2175772333612309	0.30078074260112103	-0.20136713930788103	-0.3210451296806957	-0.49739593141860394	0.019654892335382118	0.5319144712370011	0.22516682687177025	-0.27317848732641914	-0.8381491282282677	-0.44189545400631525	-0.05219905437761138	0.456021337549905	0.04969086112947313	-0.8487150647669904	-0.5163050280886975	-0.48792508121325223	-0.05296104387978643	-0.05261526243515621	-0.8202261307988485	-0.8103926757379213	-0.369809298773734	0.17557655230539193	-0.06719747168741362	-0.6476880295613392	-1.0339068148258546	0.7556964139932341	0.3836608519404376	0.189331814168704	-0.23467805922385532	0.425384013770903	0.16093394119638776	0.3483156255034153
-152	0.2947126023481158	0.04241468374153268	0.22633899691180245	-0.33345401202889813	-0.5533345923758526	-0.8299491384532859	-0.2317512923588387	0.42709356438571217	0.1592774238141336	-0.5302811251603449	-1.138019558894355	-0.7897180298893934	-0.09154017991557745	0.10219004724451264	-0.45225456242818957	-1.1655676335470928	-0.8642969705694773	-1.2584228483852877	0.03629402807132263	-0.42270305646031947	-1.1500986785461702	-1.3281708922231679	-1.0131964657951964	0.09659253036430449	-0.24500642655026436	-0.8816162325534909	-1.4579235278513845	0.37950029873400776	0.01474410291763922	-0.12736788359909657	-0.6235385521404687	0.07755286972016004	-0.14584472738637036	-0.033499814485371204
-148	0.19022428941383385	-0.010314684335177331	0.23378056228741584	-0.44615310317883905	-0.7036120873806547	-1.0507854196721562	-0.39739993114273403	0.4719633448128932	0.08452593513844113	-0.710948048227154	-1.2870197263648453	-0.9165063477264797	0.0022741511872363448	-0.23196470678891817	-0.9763458942558498	-1.3253850903426891	-0.9976323221768076	-1.7971401169226182	0.020349806123257565	-0.8240173438248601	-1.3350013460786032	-1.617464776723789	-1.4339468442952816	0.009413568279222032	-0.5012051450472923	-1.0370230648561336	-1.6550416904625347	-0.21936069373537495	-0.3350130013113848	-0.425015359043898	-0.9632803773401372	-0.24691267249233573	-0.43236216793571897	-0.4197145689857938
-144	0.05680869505367724	-0.06279864891409574	0.1863397802178231	-0.5279670344374277	-0.812883553836796	-1.2052930563059876	-0.5534939751955796	0.5095467554579028	-0.0156066920214251	-0.8433127978014123	-1.3442822660838578	-0.8669743516013834	0.1018488330057768	-0.46070501091988525	-1.3723601068180218	-1.3800507749046838	-0.9550397371975211	-1.999119753558665	-0.15059493444091318	-1.1412757606302133	-1.4133783543188307	-1.627295728389642	-1.5681787689670599	-0.0958976147137839	-0.7595071773426826	-1.094659206487655	-1.5818663795587227	-0.8979160763004848	-0.5561767802501465	-0.5925440773308743	-1.1239532203907454	-0.4516042459530096	-0.5973235353647668	-0.6672425253234312
-140	-0.10271903101497808	-0.18102879776548803	0.03848945339737227	-0.5401481972408406	-0.870985326952127	-1.272524949675672	-0.6927985531481602	0.4347468901625167	-0.12029749124672359	-0.908833263009982	-1.3140730824671965	-0.6888231021656129	0.14964713118441028	-0.5342045412881345	-1.4825234375716854	-1.3321384157879799	-0.7798387984613941	-1.84939252863304	-0.4249191869497957	-1.2502676216984192	-1.3751972879021672	-1.3401267494698987	-1.415686722995864	-0.18381366087281392	-0.9000909901782028	-0.9930729840955149	-1.2346054284396226	-1.4432986938276398	-0.5580233917452706	-0.5430603013632795	-0.9929700468742477	-0.4588593530990751	-0.5605756030234644	-0.6660509688727347
-136	-0.2195196742237507	-0.3379945150424894	-0.14728517793185925	-0.4456105817034632	-0.8392503240377128	-1.1963256567314602	-0.7382468562560704	0.2556326978905087	-0.19013398837722711	-0.8692287184703865	-1.1706094712266242	-0.4253528405417642	0.17934235885163216	-0.4520808744937526	-1.2485312191912066	-1.1606855363151563	-0.5133613931092521	-1.4122357332813713	-0.6628242714359657	-1.1104307146646937	-1.1947280138369343	-0.802298424602504	-1.0336146328579032	-0.18894182097892326	-0.8465685227001138	-0.6938806754713253	-0.6761708838557293	-1.6676608281946514	-0.3192233137177355	-0.2651028924447695	-0.5450066910335057	-0.2517486506304938	-0.3099355391783492	-0.39801973003986607
-132	-0.2053094650091779	-0.4421025503440645	-0.25708657438219934	-0.24509504375566044	-0.6981361490743202	-0.9479798650649244	-0.6098601802687227	0.07433402519532023	-0.20040005394884197	-0.7130825501558163	-0.9102964974308788	-0.12095919220902696	0.2678802006633892	-0.2639803283702264	-0.7712221722204843	-0.8711904861389259	-0.1997678721867891	-0.8063172081616935	-0.7082196456194491	-0.8077713230719626	-0.8834089614498741	-0.13516664470878587	-0.5203392492508448	-0.06321468933357757	-0.6257346852716732	-0.24409964619042457	-0.038729064068764384	-1.4995936117458115	0.08496519901758494	0.1543304171242005	0.11898631572484554	0.10321000937391456	0.07630986701057173	0.04103163246881758
-128	-0.02291259908851737	-0.4095842231899898	-0.21289865618836604	0.0036458491721342605	-0.48476409789718206	-0.5764815196741322	-0.30129656119570497	0.006135886985218147	-0.16569216507563264	-0.4878695594867841	-0.5914208874075626	0.16784767764152533	0.45414915566223674	-0.05849706366790283	-0.27901899744160186	-0.5310469256344856	0.10404077891069646	-0.1798316235770357	-0.4853979932927679	-0.518963276029679	-0.5222202526259175	0.4855219411512654	0.0032729655421592247	0.17502140954651674	-0.36278101710278854	0.20889763481327478	0.5064446913330444	-1.0229059431953038	0.4987044619843768	0.5526143298502053	0.7895781377884588	0.4691922056749922	0.4485073972345558	0.47297060370240945
-124	0.26452457838029636	-0.23330004454361103	-0.03444972625617771	0.2010461384942536	-0.29182857201329526	-0.21051181799668411	0.08725254960680734	0.08863662905964222	-0.13896891439637538	-0.29255071208524824	-0.32998475349082795	0.371319769875496	0.6835513097671188	0.06436280889950362	-0.01810270729560842	-0.26133203440489733	0.32790008104507196	0.3140458754716825	-0.06473082287657893	-0.4179360855994759	-0.24603767630924214	0.8808950759581742	0.41571420326179337	0.4227552999313332	-0.21593783741314523	0.46747293950310914	0.8041243532859432	-0.4419349718857016	0.7440354209234625	0.7562218289356025	1.2241331307976056	0.6887210590140151	0.6444444640101412	0.7131117564316826
-120	0.5034316765472555	-0.0018846673144873088	0.16546790260023145	0.2520441406562217	-0.22385467532383646	-0.00440481676539296	0.38659179113057796	0.24802875456177587	-0.18186341180184823	-0.23029613436728863	-0.24686530170102008	0.42433097851431484	0.8253791311406053	0.03220367796039008	-0.11970706998881103	-0.1819073702272591	0.40584453837925644	0.5535252080293631	0.34995371014931925	-0.5746423587595862	-0.18110640301278966	0.9348304844142244	0.6240987165906535	0.524310885536136	-0.28578901218738767	0.380645572178153	0.7749809603198199	0.010875041569134632	0.6997589451288778	0.6603904349819969	1.2501629559424579	0.6520022137392897	0.5637601003718391	0.6560735685950383
-116	0.5221183882882536	0.14441555701987674	0.24814011093909635	0.11867538064557916	-0.3382127574487835	-0.060114316490510335	0.4428525555873796	0.349259494853373	-0.324605106487885	-0.35113590867080957	-0.39948689836730805	0.2925232939487208	0.7534728627255021	-0.1652466203570615	-0.5265586362895858	-0.3441277733697473	0.3017086677086415	0.49002063150665226	0.5217366205394312	-0.910881218994649	-0.37397634888642795	0.6410477741269018	0.592516301566479	0.34781643660468176	-0.5536638484327606	-0.06842018646608773	0.4482263017305047	0.17859226420135008	0.3612681618152415	0.28262606191804485	0.8443849661489251	0.3504862180443981	0.2195976370989201	0.3273517779191675
-112	0.22851781489374348	0.0948660371292607	0.13358741964944904	-0.15273334047379852	-0.6068387612280418	-0.3702737083623289	0.2037351126295392	0.2897268228368542	-0.5412656055136237	-0.6190962179765747	-0.741166649377666	-0.005277263452944969	0.43479651102916694	-0.4664547133589819	-1.0230637762942705	-0.6938312036162866	0.03098247378692818	0.17670224562377787	0.3141840390379231	-1.2419381110306675	-0.7567222695318733	0.1062611264287799	0.3589842906471491	-0.13532695140050452	-0.8876193739415327	-0.7377928476779626	-0.05132321627891247	0.04104150448808358	-0.15059189460403732	-0.23914922713458667	0.1463964875816631	-0.11251776637041137	-0.26092323594973743	-0.1282321062426742
-108	-0.3220362655138409	-0.16422277647517838	-0.15129055044600812	-0.4468195427103901	-0.9252234077935826	-0.8171345570914441	-0.24980774458757304	0.07421310227253745	-0.7572004179910542	-0.927001652761322	-1.1369703979396675	-0.3968048681731213	-0.036383561698129806	-0.7621326427291204	-1.3537212576066575	-1.0914260121446218	-0.3387426427394989	-0.24272060333006049	-0.2211941177028758	-1.3815395797181247	-1.1741380661884184	-0.4963695692404854	0.022246278766255574	-0.8142204860157325	-1.1139150829801763	-1.3855628932303057	-0.5587683305937927	-0.2943482987601684	-0.6406798942602769	-0.7072232943798992	-0.6028066858331009	-0.5644896612220479	-0.6924579722087735	-0.517695842866375
-104	-0.9333235001841731	-0.5373038039946956	-0.4909427749636442	-0.6333408339722572	-1.1659023732313063	-1.2300600974498168	-0.7455347757590021	-0.1842938507910733	-0.8876186586857971	-1.1523486346714709	-1.4308071100350201	-0.7818605880070709	-0.48795786376779593	-0.9447287893285037	-1.3648704255930348	-1.3815307582307201	-0.7122423034805391	-0.5928145036035375	-0.8565489032100415	-1.2493787972377726	-1.4615019522960853	-1.0024503444157724	-0.30174201650730914	-1.46843421088454	-1.1124249668645536	-1.785473699830186	-0.9408957338419655	-0.6615257246481675	-0.9288642383012056	-0.9558334922499909	-1.1697921723395275	-0.8421310165124344	-0.9182374454203208	-0.695164023074744
-100	-1.3537967170867526	-0.8700750448194154	-0.7527856211729769	-0.6347441657253059	-1.243745085437116	-1.4681708775645872	-1.1097805472011253	-0.346346615870554	-0.8839884378049174	-1.2199814288809026	-1.524724479640431	-1.0737724277089071	-0.7746828178874061	-0.9588848328222737	-1.0853468152300385	-1.4718331061396306	-1.006292579017583	-0.7512409668075225	-1.3048686948256405	-0.9184343791661614	-1.5280580482050126	-1.3235193457566405	-0.534637807449913	-1.8600631905323686	-0.8834696985827469	-1.836165900362906	-1.147955533944037	-0.9206095910671027	-0.9316142177902647	-0.925917444275595	-1.428265448778925	-0.8653312899676533	-0.8820830561301931	-0.6297095402077741
-96	-1.3994461262656273	-1.0324360106150903	-0.8659440853190419	-0.4665629851959431	-1.1552823752799086	-1.4823596440082563	-1.255378839184294	-0.35099720866276746	-0.7603582720632817	-1.1354664535464918	-1.4228323662120759	-1.2332714764929174	-0.8676288105993648	-0.8231374004562627	-0.699214039467717	-1.3735811675678076	-1.1818277806007664	-0.7150685769147181	-1.376063820225724	-0.5713754281876953	-1.3963754141838416	-1.4704560004302167	-0.673770366398106	-1.8390365792573307	-0.5447857962205259	-1.601423378715889	-1.2182204692601044	-1.0132251952339055	-0.6944690329184177	-0.6840893012895032	-1.3980350459087774	-0.6692091209681853	-0.6476091726165004	-0.40902486340250743
-92	-1.0495349142279256	-0.9848763917852768	-0.857085285407021	-0.22997713030925615	-0.9704928969676182	-1.3243375983180512	-1.2168886630806055	-0.2736359529739153	-0.5842086061986601	-0.9711084937373041	-1.2157400815786836	-1.278174516311799	-0.8654571749771011	-0.6119668468283453	-0.4306541372393477	-1.1815621823043179	-1.2525896994437162	-0.6035224780104014	-1.0803157063865398	-0.39408916135472144	-1.1762355536327687	-1.5229500493699477	-0.7866357545065504	-1.4103510344183319	-0.26278206639700963	-1.2600548235551177	-1.2353947131437455	-0.9647551750620911	-0.3602570882284693	-0.37767890000355997	-1.2069444625899652	-0.3786424388862439	-0.3556193998418171	-0.17877520575686506
-88	-0.46190646174158945	-0.7895018438433389	-0.820391474083038	-0.0604691392146721	-0.7833967189083438	-1.1005201311936217	-1.114470955895948	-0.2866860918913148	-0.43640613445726245	-0.8144873956143629	-1.0164601777162776	-1.2636225191637858	-0.9200407839434472	-0.40654966132516906	-0.40929800168650105	-1.006793138823143	-1.2655330864425924	-0.5829507097784962	-0.6148626788828017	-0.4687255907145461	-0.9897644494816759	-1.5639419516178323	-0.9573291515975636	-0.731436429561229	-0.15895278711718408	-0.9949259136829693	-1.264144179013543	-0.840889392160253	-0.08974464215031627	-0.15049795768410848	-1.0007128690249565	-0.1383116092766131	-0.14315147661783295	-0.053240809455204284
-84	0.10484947237722542	-0.5626208767991233	-0.844196675076555	-0.05292658494461266	-0.6523349864702305	-0.9013084150446664	-1.0704182359372854	-0.539280055591879	-0.36422049907280224	-0.7116076928292178	-0.8868252612611951	-1.241250750268853	-1.121646639853051	-0.24910616811801561	-0.595886526987505	-0.9027620531177786	-1.2623385159092761	-0.7508422117349819	-0.2433617853934517	-0.7253189664647967	-0.8926379062050156	-1.6162513453685152	-1.21339046648757	-0.03840117146810221	-0.24360378025062882	-0.8850036837168134	-1.300797459179181	-0.6917410475432251	0.022137636262910675	-0.06745178235428634	-0.8543363788015651	-0.03597427150465175	-0.07063280028153107	-0.050642184785299194
-80	0.4241188455840948	-0.39879882234975816	-0.9417710280482822	-0.20506393857680677	-0.5664582834247193	-0.7485654335195998	-1.1298979492270549	-1.0321817372011206	-0.35518506079643547	-0.6395717247074106	-0.7999216297934414	-1.2226989238386412	-1.4170803987964835	-0.12881739405056844	-0.8095526674812225	-0.8313652256002844	-1.2463018862729458	-1.0504797670545196	-0.13436362113407685	-0.9796332692208471	-0.8399953224908795	-1.6204328496075309	-1.478326316915778	0.4630478310815117	-0.41457837715382123	-0.8642064907189367	-1.269204017295751	-0.5210032449919663	-0.012793171187228069	-0.08998507238557198	-0.7370164375770786	-0.06290178730103857	-0.09842599158470824	-0.09093797928977089
-76	0.41439273848813696	-0.31673845568796793	-1.0329111788420402	-0.4126346398902808	-0.45629697922897283	-0.589292465152652	-1.230535980932502	-1.575440045193844	-0.34742271812461195	-0.5231917487286589	-0.6595111472644903	-1.1668004960165144	-1.6261402327489438	-0.007010428217235177	-0.8373283126671381	-0.6879193169391655	-1.1733790606437648	-1.278699514021655	-0.2593210929045423	-1.0303683254930525	-0.7158899885222939	-1.4668372832457495	-1.5895154436034364	0.6833121163282391	-0.516755758411351	-0.7689662556307209	-1.0643779012509975	-0.2944290332513128	-0.09623919403096806	-0.11263966531924988	-0.5478763566489717	-0.12998887863718744	-0.12309085546648911	-0.05616042003757563
-72	0.17196407870744926	-0.25976520711164247	-0.9932148431497222	-0.5200973139983124	-0.2434952699950892	-0.3404290667521936	-1.2405322758825446	-1.8751254034383709	-0.2718925767232815	-0.28723847793537605	-0.3665802767558245	-1.002509233804662	-1.554523702511362	0.13566103543362712	-0.5614538178573677	-0.3724916567934662	-0.9773758625149681	-1.1967794864956343	-0.41879379643562825	-0.7666799406721989	-0.41064676538739564	-1.0669238540415058	-1.3824291194345066	0.6709815246807513	-0.43110483775967895	-0.4479603160038661	-0.6221427901772874	0.02252465667104075	-0.11204449059092848	-0.03790560355152961	-0.1989600057347043	-0.13005168703146092	-0.05068364726621639	0.12428125707719594
-68	-0.09325557178555985	-0.14675743840835034	-0.7399365883265419	-0.4031983007741669	0.10265395019362826	0.04622452694427985	-1.0420871946727548	-1.7046267943259918	-0.09940450613435413	0.08916414506573377	0.10925783934426385	-0.6772837621755209	-1.1310689420753557	0.27026635340165794	-0.028053870353799044	0.13731746340891435	-0.6170719846404683	-0.6829218251152351	-0.3755762865597719	-0.22395092192374452	0.1020402458714091	-0.42250269544741287	-0.7944259623497361	0.5679979310000252	-0.14040790462807096	0.13238313760712517	0.02586673379864255	0.4245266009579738	-0.0017281667052908318	0.15636034270386853	0.30728349012040873	-0.008699065983684152	0.13804349268392913	0.41718673600725165
-64	-0.18030460133329546	0.062172639958051834	-0.2985268525692749	-0.04000544165405235	0.5362565503886361	0.5382039533378209	-0.608853636634942	-1.0583931180935002	0.1367921527746739	0.549005328222812	0.6961733085221775	-0.2038229996780386	-0.4817887234444738	0.33191698705795575	0.5785220846828658	0.7556152324672549	-0.1188456413129502	0.16185425181055743	-0.013834696228145624	0.43733698019236955	0.7337220888686602	0.34757319004996756	0.06841975433241419	0.5186709748524384	0.2634242468381984	0.8486704208881665	0.7433924656218938	0.8495292642125667	0.19771690616756848	0.39745500583436744	0.8541889169107632	0.19856402227813877	0.36997762229015474	0.6931393725061253
-60	-0.010769271264602597	0.3272659770332299	0.190050422665463	0.466706244959299	0.9475198364177094	1.02039587240086	-0.036783005949373886	-0.19362385522117637	0.3546541324244391	0.975385126989141	1.24110185786658	0.3197856835397715	0.11278717191353536	0.2661399238542759	1.0333654854433711	1.315219637411201	0.4093733121549846	1.0280377838882186	0.570793567646867	1.0069719527570176	1.3110073771755593	1.0396990749812134	0.9485276317490273	0.585156796885353	0.6269061549571311	1.4676223956247487	1.3329683508597372	1.1962128847438298	0.3747476627901965	0.5563939795751597	1.2553042141692234	0.3841247250872309	0.5191051350838862	0.7950375656082321
-56	0.3309293380965211	0.5436547384841237	0.5317690359041164	0.9285219884317694	1.2104872434571803	1.3415950502855887	0.4921944426984448	0.4791336345496575	0.4658465373675517	1.2417191235663156	1.5746114214242686	0.7332339864338269	0.360986351055455	0.07995391616900445	1.183538791529369	1.6388246971715694	0.8065547922751684	1.5389252862223142	1.1112647028522853	1.3151382174666435	1.6506111580182763	1.4440996610421093	1.5401183327891264	0.7190615516627851	0.8104174712700852	1.7542002156791023	1.6123278100314364	1.3622307743011763	0.4100475598949815	0.5215429054444002	1.3435573543959296	0.43068098913175124	0.47956913588560934	0.6280487759945905
-52	0.651219068313563	0.6003798231225533	0.579697309460935	1.1570590705268877	1.239749905317198	1.3839983905181912	0.791502592949463	0.6104988440358786	0.4234603334702789	1.2671340671972173	1.5850405653035773	0.8749297835194693	0.12475688724014151	-0.14079062605120746	1.012503859824655	1.6166939694595	0.9206607318521909	1.4490884505879245	1.3144394126130612	1.2924201455864401	1.6396264988510636	1.4325193130565153	1.6294351775038085	0.7976503948100094	0.7501897196902731	1.582326646624516	1.4880621395688098	1.283583280183641	0.2491727912095451	0.2637421482103053	1.0552309724868598	0.28172039914529173	0.2285035097790335	0.21693618540829007
-48	0.7595801334277035	0.4451345492091664	0.31201153914831226	1.0539405319307307	1.0260988447985706	1.1180545063400866	0.7526213507723907	0.10650816532900838	0.24691884157305438	1.048270461296853	1.2633628813317996	0.6524696333624381	-0.4962646352636233	-0.2690950029254893	0.628637908302063	1.2505900828258398	0.6751491410375693	0.7887826542012948	1.0257869932978931	0.9797541474401464	1.2796981302377006	1.0109397147404082	1.19980728323329	0.7025269848252583	0.4769409584878412	0.9894869898609469	0.9908086632508595	0.9592502688984689	-0.06149806439250949	-0.14437662028577553	0.4621091175333141	-0.021801790167481367	-0.15789186914634426	-0.3029651634196568
-44	0.5737310037432715	0.11653178900861144	-0.15473061760937326	0.6570625884632993	0.6351885183509846	0.6154516323763403	0.3900601257966565	-0.8116171935570953	0.010764481472613443	0.6541103108103833	0.6995199901085766	0.09063278115754965	-1.214664217743204	-0.211544319453199	0.19441215644866303	0.6451984031600015	0.10903724255450707	-0.13930572534198954	0.3205485335840033	0.49543401473845294	0.6767790300448372	0.31259095589871094	0.4378117013844846	0.3967666019912721	0.08883398003799527	0.15086816213187373	0.2574174695668345	0.4507888842168632	-0.3981714834650811	-0.5654039368659494	-0.263882904578587	-0.3617148986267052	-0.5441364036173375	-0.7558472733487797
-40	0.15809519549032097	-0.27655342151437046	-0.6258427484923782	0.120068661565428	0.17418590144048715	0.016096122522246483	-0.17136414305813846	-1.7184126333719965	-0.19487608920010097	0.19102258932045632	0.03907391791611262	-0.6667801124904312	-1.706669326287998	0.024874461751959183	-0.15756416281019653	-0.0415422393822871	-0.6286020263059988	-0.909865198222373	-0.5332554565317722	-0.0165456607520075	-0.010448281626846046	-0.46056288364477715	-0.36091345457507873	-0.045527249459716	-0.29884385987171247	-0.7047060114234556	-0.5256662951549064	-0.1377678361037001	-0.6268916710284872	-0.8664457776128497	-0.9296118593587357	-0.6061270817712204	-0.8051384667095914	-1.0147414181838739
-36	-0.3207586995609507	-0.6131223424690437	-0.9267922616447547	-0.3612000337064353	-0.2546581321485692	-0.5330080376519342	-0.7565231900188261	-2.2076563779406078	-0.3098048261926868	-0.2422361516797104	-0.5751987681171596	-1.4067504370458308	-1.7823891594708472	0.31917449751378774	-0.3744817366682025	-0.6616941673738774	-1.3315100636243442	-1.1932650774392606	-1.2101271121943564	-0.4314660419061058	-0.6343465431410131	-1.1183131904977586	-0.9340935325880821	-0.4706614899673184	-0.59809928981456	-1.3894422019210728	-1.1899315088746791	-0.6900310498935812	-0.6756446344483361	-0.9803209876105292	-1.3993923628761757	-0.6795546395310851	-0.8846328236179573	-1.0577214929578669
-32	-0.6917594057737696	-0.8196976760196042	-0.9854919885549628	-0.6401558502247348	-0.5892518743896624	-0.9335753298077133	-1.2109112708990417	-2.104295963696563	-0.33042040383839133	-0.5866258129567784	-1.0482521030663086	-1.9259960602770978	-1.4765762053403018	0.4920410203431803	-0.48084801314068126	-1.1233367891560349	-1.8120323373821505	-0.9180170870491425	-1.4837454519957851	-0.6720160824975059	-1.1032206984322868	-1.5454521140180304	-1.1650083035619327	-0.7233685832833806	-0.7691757063519328	-1.8149460508299942	-1.632423635176012	-1.1063127489768483	-0.5705739245314242	-0.9265843606443029	-1.6337972838160373	-0.6001874193297042	-0.811479149200144	-0.9616172885458131
-28	-0.8722742177874959	-0.8999148584533362	-0.8547617175456085	-0.6823996288236763	-0.8199083784383532	-1.1639595002351129	-1.4525706731362005	-1.5411524733733684	-0.30487117094314964	-0.8323599079097848	-1.3502628769162313	-2.1066813415744514	-1.0071752045951885	0.403696774417165	-0.5404040799802153	-1.405258890418737	-1.9682065198796943	-0.2855588786544909	-1.3205479350127998	-0.7213665824797193	-1.3944587672312831	-1.7214958624291534	-1.1056191893319929	-0.7290010433865001	-0.817221639477241	-1.9941697070318558	-1.8265427304882154	-1.3248736824918075	-0.41607153310631967	-0.7838872055289622	-1.6741472440413119	-0.4631712723005299	-0.6673752648670108	-0.839871464039349
-24	-0.9033602453312342	-0.920877454340047	-0.6699472648872201	-0.5696419463080692	-0.9792668794703379	-1.2719463077856537	-1.4880093298536723	-0.8689370729442368	-0.302549599837332	-1.0082759831721213	-1.5093562564889245	-1.9575006912400368	-0.6374295933842363	0.03784172599894316	-0.6126355513363921	-1.5451323947042623	-1.8158868505407537	0.36007127074885115	-0.8657471515732013	-0.6242302640413407	-1.5421270093129855	-1.6983610348737328	-0.9104940868278103	-0.53151738509451	-0.7760030607658478	-2.0017352053648056	-1.8031640007269896	-1.3347878422415569	-0.3348397604117825	-0.6375904663200789	-1.5939084251215812	-0.38434383176087206	-0.5327122794053054	-0.768511770215456
-20	-0.9094219184802975	-0.9667597388654712	-0.5683485851243534	-0.4438484597920948	-1.1173903913896759	-1.338923808532079	-1.391539570156134	-0.45311137919467254	-0.3755155792292214	-1.1585897178008553	-1.5878012140240243	-1.6022174317915818	-0.5259541259838	-0.48170360801194945	-0.7284831982339989	-1.6116675097782818	-1.4730467759134827	0.7305141072903032	-0.3477497390073465	-0.47385212659408943	-1.6103982884756392	-1.555823083764185	-0.727669117997712	-0.2692434482929277	-0.6900860053759255	-1.9226025294400237	-1.6197751719587397	-1.1761611670362768	-0.4018824388371052	-0.5347616659014435	-1.4504094087221016	-0.4367997635303653	-0.4439018059490341	-0.7453804593340682
-16	-1.0095897887489433	-1.0886156531505575	-0.6173266156823058	-0.42327019465392546	-1.275103685020724	-1.4353785478591718	-1.2636249033495708	-0.47686767457727486	-0.5327021466157192	-1.3192359175753163	-1.6534640747286027	-1.221579310194007	-0.6528197510449648	-0.9543747877820857	-0.8908474422851281	-1.6744004445716785	-1.1049165697811547	0.743044910939086	0.035416223019351094	-0.3856383850374803	-1.6659862953085594	-1.3601082529060837	-0.6121437534135921	-0.10416752073691074	-0.6068255886015796	-1.8182599498618495	-1.3352888788842738	-0.9259018278587032	-0.6108039006070688	-0.4723334598536915	-1.2650682894238074	-0.6178982242242587	-0.38696795604280576	-0.7055808287926153
-12	-1.2372541396374641	-1.278747674574512	-0.7902262190894653	-0.5384901152366651	-1.4655578099442315	-1.5899538953692973	-1.189468619204522	-0.8613556005665276	-0.7377778273075171	-1.501994129203435	-1.7557797387616623	-0.9769794320235679	-0.858896491743238	-1.2094854085903248	-1.0885430546934045	-1.7807778075080576	-0.8568749406161398	0.5344802723741693	0.18822154355211476	-0.45797639969592413	-1.7576622918574953	-1.1467293471948137	-0.5162612186748983	-0.1407024111771626	-0.5733927473850251	-1.7216026739523214	-1.0020379994842574	-0.6740167719989854	-0.8895489551019746	-0.4210147549013191	-1.0389943096631684	-0.8637447931416723	-0.3273913554031984	-0.580956159555413
-8	-1.5137947759555626	-1.4782649241318147	-0.9951182578711739	-0.719885645479369	-1.669151421147431	-1.7818330481364968	-1.2101428478205376	-1.3387266363676598	-0.9289966798215621	-1.6901173548942408	-1.909419889397623	-0.9469713544778711	-0.9620830988435567	-1.1963467567756574	-1.304366466090031	-1.9422923277454143	-0.8009501079364441	0.34120491060895364	0.12302668361596981	-0.7283333521574119	-1.9027260493876679	-0.928282258551088	-0.3539295783643788	-0.3786692609763251	-0.6290029867503906	-1.6488890606257736	-0.669796643950253	-0.49632629626848773	-1.1510735721136551	-0.3632824709780178	-0.7841823081245001	-1.0969742508848863	-0.2510405772546722	-0.36116257218728853
-4	-1.6929168658429834	-1.6117361743288896	-1.136824128141758	-0.8431255200080009	-1.8430062485893492	-1.9578087280434584	-1.3158239092984083	-1.6234486062069724	-1.0494809124198954	-1.846425409423612	-2.0895991272621113	-1.105520007203337	-0.872330782595245	-1.004740235652972	-1.513823147766404	-2.131669039112682	-0.9186245775871595	0.3319946817122243	-0.08697003104186588	-1.1491572827889645	-2.0818586296925425	-0.7146589141922112	-0.08839760698411578	-0.7236707192269842	-0.7924069146177121	-1.611696239216991	-0.3899101009061356	-0.43104341517339295	-1.3450748886480797	-0.3173768214319006	-0.5431494103069938	-1.275115605949649	-0.18616144312110539	-0.11478514940368444
0	-1.6503703552539917	-1.628437634171366	-1.1756800383448647	-0.8065020421646752	-1.9415240238761993	-2.0639455266341313	-1.4574434720435756	-1.576872106385602	-1.0738804313249675	-1.9313757370823632	-2.2421276512758173	-1.3453421558745777	-0.6372771843079305	-0.8083751777266576	-1.682667370362574	-2.2932279052056397	-1.120602485688512	0.502503274602578	-0.36738178041209557	-1.602051850088814	-2.2455491962958654	-0.527241407493764	0.21896569375544572	-1.045528886062686	-1.0513244840781437	-1.6180814463770783	-0.2091904873334781	-0.46911528588110374	-1.4785151444299498	-0.3295182875419934	-0.37980919980477634	-1.408178802749622	-0.1897393609263268	0.04456557322217665
4	-1.3636621202371988	-1.5271519383974248	-1.1473081082941214	-0.5965394958693708	-1.9401167582166052	-2.0742604680143386	-1.5686712225409507	-1.2700546947838376	-1.0189568970703256	-1.9244568299343043	-2.3073637427248817	-1.5314720830398378	-0.3938315202783303	-0.7626837472733222	-1.7728689864220684	-2.365836852776226	-1.2904138532483658	0.6950741988752943	-0.6702126247650901	-1.9463299463723052	-2.333481067488043	-0.3966344584941387	0.4345070708748684	-1.2469271389950611	-1.3598796094893024	-1.664878960220718	-0.15395592114202222	-0.5629469738098661	-1.5955990512617217	-0.4403600681631	-0.3468329599683709	-1.5372352561286198	-0.30771267336403035	0.02609099999933404
8	-0.9359475350591399	-1.3559141124824077	-1.135418412202924	-0.30367827338794917	-1.8518871022198813	-2.0043921420036055	-1.593486543446926	-0.9157212353474805	-0.9347447133306093	-1.8396551562592478	-2.2510900440601964	-1.5610300263093273	-0.2667281322897567	-0.9158345437769124	-1.7624306634274876	-2.312889331700189	-1.3334354128550179	0.7252767067717576	-0.9627736782561808	-2.0846354908763276	-2.3036079348577774	-0.3471987536724339	0.43528911361466943	-1.3037047353254052	-1.6523684221511077	-1.7332135395159631	-0.21489952450377942	-0.6482660754049114	-1.7331939891925263	-0.6494069679076767	-0.4529144752511542	-1.6906182723276686	-0.5361574278646248	-0.17941541924478116
12	-0.5483475909693762	-1.1881327599091887	-1.2147769897308345	-0.07607262562380346	-1.7265539125720228	-1.9028198670983074	-1.5076146087729847	-0.7229823451862112	-0.8812075831099425	-1.7248386101090072	-2.087638849709687	-1.4018046820534347	-0.28565353083015527	-1.185720083104062	-1.666562553012793	-2.145882124251358	-1.2107050388286396	0.527357100108981	-1.2055469720920897	-2.011327261615002	-2.158157343183989	-0.38157704376202867	0.19543869744071543	-1.2607129780410657	-1.8700913143626408	-1.7966860487398657	-0.34669694216933683	-0.6688699705402695	-1.886275405889773	-0.9041941143095366	-0.6552816612865519	-1.8524801684338992	-0.8123390654081475	-0.48926716919394886
16	-0.3630152633561644	-1.0861054631468243	-1.395404096895034	-0.03628016626615704	-1.6281582075973646	-1.8228131486647459	-1.3231511082621479	-0.765871403667862	-0.9001138187570942	-1.6408582884368819	-1.8797715854868822	-1.0952311726574755	-0.3726297607550621	-1.4146113359975414	-1.5394604167217565	-1.9261827420240631	-0.9459943151431797	0.21907909159184458	-1.3485105003642592	-1.8106522514405055	-1.9499466369988552	-0.4760210502050227	-0.1812741006804418	-1.1910821169345183	-1.9831861207482464	-1.8385050250365658	-0.48639589425307805	-0.5949809536217189	-2.0068278262015573	-1.1227316828038028	-0.8833907224286189	-1.9662191818186108	-1.043043610800406	-0.7743029574872117
20	-0.4329429257906217	-1.0703879567778158	-1.6035124023007026	-0.2087361807321471	-1.6014970500566452	-1.7904932453726277	-1.0787160369340967	-0.9493736600748331	-0.9956906412735068	-1.6295713145121318	-1.7115980343520312	-0.7296892386133392	-0.4055866588842868	-1.4669760428584364	-1.4507544004051904	-1.740102882760288	-0.6095080956329234	0.036278813985782116	-1.3551448549388787	-1.6064538915129414	-1.7618536904675186	-0.5918895587282482	-0.5102019297116198	-1.1496927709162745	-1.998268480024132	-1.8653442812554242	-0.5841631278548113	-0.4292391229759525	-2.037018055541228	-1.2367508380182515	-1.0798982354555868	-1.9719277570529161	-1.1541621655888283	-0.9322596168822631
24	-0.6674649698571713	-1.1069946261113572	-1.7085136132019818	-0.4981493043243404	-1.6431066948414226	-1.7862451031409214	-0.8210532048476638	-1.0831533643078421	-1.13030075741543	-1.6859496789327784	-1.6466045338065904	-0.4026234139767597	-0.3134907774162908	-1.3101297583881022	-1.447932001272912	-1.657484646427131	-0.2905307106789103	0.17705991819501074	-1.2348800866420542	-1.493262764021622	-1.667091246210616	-0.6983306390297312	-0.6280435307858635	-1.1502903670832838	-1.9493645380394482	-1.9062458228620576	-0.6313441379819675	-0.2025915677200881	-1.9563497255523299	-1.2305930821820525	-1.2333319156025668	-1.8557300520774274	-1.132521745683443	-0.9458514428100138
28	-0.8754378535102519	-1.1212866277995166	-1.5865381916044226	-0.7337945681165241	-1.6960430102442703	-1.750764127125766	-0.5860972985728894	-1.012795922583317	-1.2386705844123302	-1.7529824927894158	-1.6929537015133616	-0.18934985947486419	-0.13578668202449642	-1.0355560753426256	-1.5212454757429645	-1.6950457053304064	-0.07014713418654679	0.6564605815525878	-1.0615274879357455	-1.4846729002661487	-1.6907145934333823	-0.7907563427987592	-0.48850360389398156	-1.1794470518851585	-1.8758299303378372	-1.9926129529235426	-0.6668781025261945	0.03632995104558	-1.8069606973803067	-1.1480954856496164	-1.3767447436859188	-1.673116083689301	-1.030856725951109	-0.8868875481148281
32	-0.8680400230426321	-1.0365651819761252	-1.1928683489246372	-0.7599709014778644	-1.679680462411131	-1.6214905936310444	-0.3954382528811615	-0.7263746243257483	-1.2575786081988205	-1.7507623389864273	-1.8015638544373893	-0.13323168422916645	-0.008123521672540941	-0.8082997182465624	-1.6049766500005578	-1.8103465988228689	-0.00603421496566536	1.264908668185502	-0.950293121322817	-1.5148097238442353	-1.7990167095539888	-0.8946440793338006	-0.19288492154060027	-1.2289428679909675	-1.8035966112376771	-2.132964128831092	-0.7572237830117472	0.2330528491811904	-1.677402730521435	-1.063538191017522	-1.552791353119984	-1.527156825978284	-0.93315553429562	-0.8648636319259263
36	-0.5679661021197954	-0.8228461125579808	-0.605141459367703	-0.5233014212747688	-1.5433158835546739	-1.3822072709472129	-0.2707814865428287	-0.37048849369923476	-1.1595814198781245	-1.6291019875403552	-1.9020845842022147	-0.25399666960484435	-0.08509587475034446	-0.7787229995140159	-1.6217384297433948	-1.9334913443386794	-0.12963223424607434	1.6672881799564565	-1.0002026532669674	-1.4934453926527527	-1.9264535855292386	-1.05178272458602	0.0654601304070481	-1.3156961169403327	-1.7410855249315742	-2.301608795077058	-0.9588665938010184	0.3388953796413502	-1.6540113645755485	-1.0357181999760052	-1.7690870717206182	-1.512960430140103	-0.9031103826609665	-0.9531142091529136
40	-0.06827911717342174	-0.534324763856343	-0.015963461209762893	-0.11086211325550428	-1.3147811856453404	-1.097966191380734	-0.25571402842809937	-0.1739211823125468	-0.9749528741063211	-1.4153284990816684	-1.957182998484186	-0.5615445957311315	-0.4491458523854554	-1.0082726453120223	-1.5421258172200931	-2.0197586962250624	-0.4503506708695809	1.5868120153418293	-1.2338999478658423	-1.3785692418578872	-2.0259895273555713	-1.2967680659932483	0.10816817703355368	-1.4740889035201046	-1.6896499352710923	-2.4525432524749156	-1.2838898864755917	0.32513978995249265	-1.7675847962574922	-1.0740809413494856	-1.9760837505040323	-1.6597591596660173	-0.9479275321869438	-1.1393799753032738
44	0.3963862349515983	-0.30755788010193946	0.3325138381669072	0.28523987459645844	-1.1115220757077757	-0.9115518308513239	-0.42332208049707143	-0.3243111661829173	-0.7871834615860086	-1.225010988003641	-2.0024318644511814	-1.061664220990515	-1.0595080825758538	-1.4455105029803808	-1.4246789181025554	-2.091939444028663	-0.9599626636110258	0.9632837152002361	-1.5759216507224132	-1.223951455840789	-2.112793678671446	-1.63789820257552	-0.13187812235437954	-1.7244455770823506	-1.6630876022311611	-2.5544342930196677	-1.689995761419206	0.19501452098724228	-1.972465986993879	-1.1410447330276472	-2.0903065151845195	-1.9099953126368319	-1.0228166554376557	-1.3351795639660318
48	0.5571053610087578	-0.31181266825152126	0.2496218973056326	0.462490259433368	-1.0969343157729876	-0.9906157230162087	-0.8550780393946328	-0.8651843645186529	-0.699087379597889	-1.2188041179402715	-2.1402804797495096	-1.7464855865253013	-1.7685756638697365	-1.9576357553647568	-1.4013403618718068	-2.2400131169031043	-1.6313822228251256	-0.0032483714085015172	-1.8849480104539764	-1.1645934552353434	-2.268299335474877	-2.051742310112207	-0.5779624566744825	-2.0377471395542797	-1.6962468581288874	-2.6226744585578268	-2.1004090256112837	-0.013392136398418578	-2.17262386727161	-1.1880265444324671	-2.0531411119122644	-2.150284761721932	-1.0721863481154383	-1.4378546440061795
52	0.24514682529067833	-0.6684417111686396	-0.3134136192038239	0.3115726701499391	-1.3958699667974224	-1.4440655671853837	-1.5905762870684705	-1.6760324197415084	-0.7837299684764417	-1.5191032848151456	-2.482932322909055	-2.572102301779381	-2.3986642300126806	-2.3983325897699874	-1.6081649024415439	-2.5703542167618223	-2.4102859436216444	-0.9566740369484913	-2.0262806364399193	-1.3414690460668517	-2.5942170554466917	-2.4924552377714866	-1.0602561208658963	-2.328201049648591	-1.830072994380059	-2.7229492595589297	-2.4424889026010086	-0.2395617955835191	-2.277524227114184	-1.2001805275179311	-1.8890916061390104	-2.2754309119949574	-1.0789357396541839	-1.4055682385243404
56	-0.5149648772589512	-1.3762686217846551	-1.2263890473873689	-0.1271147426733746	-2.0132439085675604	-2.249629968685465	-2.575593465024351	-2.533414119046249	-1.0418285105150826	-2.1296994632356965	-3.0738449019072562	-3.443511954196593	-2.824127190135389	-2.6677875451443667	-2.096040720416014	-3.1306376378173355	-3.210131875516412	-1.5747369488058487	-1.9445974777716377	-1.808371062481421	-3.140035144507476	-2.9098806307758163	-1.4165600502489082	-2.48361801474082	-2.080627197734592	-2.9376397058705264	-2.683345072647202	-0.42755475532349735	-2.253171438250498	-1.2172074287200596	-1.7219054655470158	-2.24620794682826	-1.0861128541227578	-1.2955865827274935
60	-1.5021203718407503	-2.2851879539014757	-2.2191441003084544	-0.6808520538306354	-2.802683823185134	-3.234803906856709	-3.644243946411351	-3.2143073000816758	-1.3892191613408864	-2.9050896094408665	-3.835230817648516	-4.225117672743248	-3.017148010265734	-2.738543503522854	-2.7755663324851665	-3.855771531860572	-3.9218177696393774	-1.7345484451369826	-1.6954102473369324	-2.474923604438674	-3.8477523229727373	-3.2669234193335983	-1.5823349912747635	-2.4202778278279844	-2.411160462967581	-3.3102915203440997	-2.842253677821558	-0.5559175000460282	-2.136657709449208	-1.3120773997558655	-1.7271220640445872	-2.1057355350735434	-1.1724976271590517	-1.2369370429280595
64	-2.391859048526566	-3.143787376095903	-2.989490739904044	-1.1305738658971012	-3.5139791876765174	-4.132151593266051	-4.558206546719174	-3.5919651894480054	-1.6886969762128294	-3.5978453068495413	-4.5789208296563775	-4.778722274159251	-3.041888467738061	-2.6461498670526344	-3.4355525883719618	-4.572720516103916	-4.4391732103803	-1.5627596338870529	-1.4185072147795144	-3.1247203271175534	-4.552394855449667	-3.545452585805673	-1.6185551840925572	-2.134506935452563	-2.7278551986487165	-3.8001077079196883	-2.970240347038828	-0.6516203267811779	-2.0038165995551074	-1.5360021552406198	-2.03493451558372	-1.943564410070999	-1.3928160632254207	-1.3476530279466854
68	-2.9073054717094418	-3.709550132922494	-3.336165419738613	-1.3231490817042306	-3.9067313572476574	-4.692335116937173	-5.098402964117516	-3.674332132599424	-1.815905566399166	-3.9712862868179486	-5.085623728309937	-5.015750872346212	-3.00681351856209	-2.45739554738454	-3.8374500177771904	-5.072157846996278	-4.693023192954723	-1.343106624073276	-1.2643011776474848	-3.510390034395784	-5.048836218484603	-3.738994588948618	-1.6609265762356407	-1.714896793804152	-2.9110288546498704	-4.279051769897117	-3.1081957738603236	-0.7745142559524069	-1.9127348613130817	-1.8633590889615472	-2.6331577234544548	-1.831566090727913	-1.7197350220176446	-1.6448718267873443
72	-2.953879825763606	-3.8718032739160426	-3.2571880735177237	-1.2517117230283914	-3.876693715798227	-4.8045143959813394	-5.172692762666524	-3.581418266790918	-1.7289431051471673	-3.924463739023566	-5.217946516214379	-4.942767130770224	-3.012566320442707	-2.243500465450818	-3.843288411927489	-5.216338144483821	-4.683433044053154	-1.3456865515112204	-1.3168662753236087	-3.481260529311858	-5.196992384187205	-3.8425173662446213	-1.8281987859344737	-1.3048309054809482	-2.8749310897721365	-4.584106910575901	-3.2515029825134003	-0.9740707253658726	-1.8630619002034474	-2.1765136663798312	-3.3317978297990787	-1.7760015681249748	-2.0297510572685598	-2.005865568818733
76	-2.6688127450319152	-3.71936320319496	-2.958924524466079	-1.0619641515622675	-3.52338432376117	-4.556795585571613	-4.872932898616217	-3.4784593494330664	-1.5043065509963025	-3.5586662202632784	-5.000379549753185	-4.667980659143437	-3.119927160015397	-2.0686461873278295	-3.503352633214211	-5.019214140617497	-4.4863686448314555	-1.6755279260294031	-1.5561195572665494	-3.0721294802349517	-5.003293978456764	-3.8420383833204155	-2.141714567499185	-1.0366711590342683	-2.6222133570270088	-4.596828449087483	-3.3374769603389396	-1.2344287602729545	-1.7966854526934195	-2.304046386623638	-3.815033187770921	-1.7149522261236532	-2.146153683012269	-2.205382579957457
80	-2.3597938954855744	-3.5110261351632213	-2.7655270029817047	-0.9814836954132272	-3.1174600045650833	-4.200892914656216	-4.444772709114941	-3.505035391541261	-1.315496799008707	-3.144529573130772	-4.619729507226685	-4.360101211983746	-3.3456373130252457	-1.9892915437064644	-3.051113359377368	-4.652346599276903	-4.22707175141263	-2.2252044621553364	-1.8785821151987476	-2.5047891076744286	-4.631166923274469	-3.712061872646988	-2.5017621454017975	-0.9744510029985795	-2.262753242501819	-4.309039581863641	-3.266384354927611	-1.4460598193852439	-1.641579385427554	-2.099704737130396	-3.766276111630593	-1.5650180538718903	-1.9230862807357993	-2.0177204557974693
84	-2.3628838002629298	-3.5571157842472956	-2.969933979165456	-1.2107841937967014	-2.979683868514619	-4.036523808778484	-4.18192385571363	-3.7330438996478463	-1.3593183721555144	-3.0016336365256073	-4.342852581503613	-4.180140007909296	-3.673329582476833	-2.0536932893400692	-2.804297678542998	-4.37051676600408	-4.033062924692984	-2.751765482630707	-2.163399929306617	-2.0987095779837386	-4.331789482624074	-3.4271378430623964	-2.7391366889461612	-1.096429583642304	-1.9831875512597175	-3.8387920759555647	-2.950054638090158	-1.4328731262270087	-1.3717725242313095	-1.522431608171	-3.0121021194703683	-1.2884411779298601	-1.3272825445996783	-1.3329207863533263
88	-2.882458917969683	-4.0631546871597335	-3.691056003788279	-1.8258955432568782	-3.323740473938684	-4.264488686285203	-4.284105290086994	-4.155582417486679	-1.7604159072298766	-3.3424489413749705	-4.384874332801327	-4.210667599537543	-4.061326970336955	-2.290541166244527	-3.0104844494152485	-4.386383045566072	-3.9804835219021495	-3.020928613665003	-2.3447513521122985	-2.1235046333105414	-4.321473110732396	-2.9771683140928697	-2.7065651348444364	-1.3236339058836095	-1.9677337358385294	-3.378184786850542	-2.359530681374911	-1.0300134394389557	-1.0394458744508468	-0.6692838651925449	-1.610303755509264	-0.932256934673255	-0.46763631583402604	-0.22139552179706337
92	-3.890923013400241	-5.017747389522568	-4.807887065192795	-2.7420601775557234	-4.14356898215324	-4.884376036709884	-4.755510795030843	-4.7034134746057354	-2.500452035312942	-4.160732258782271	-4.798546302124337	-4.4191508181579024	-4.442204941024501	-2.6867444447394493	-3.717836609036827	-4.76132391681182	-4.060860146760253	-2.9330069944717003	-2.4446687636642306	-2.6662728719151585	-4.670927512773692	-2.3803870617849	-2.358287566906614	-1.5719962080367063	-2.3073756636538065	-3.099081270022862	-1.5491396149623946	-0.18232232286197653	-0.7563759665466026	0.2588394575736508	0.16217301745001142	-0.6132349356427401	0.4458940613932992	1.0872952910628266
96	-5.1375517715443095	-6.186011775611069	-6.007501110168211	-3.751410474842564	-5.20668171521743	-5.692693695954478	-5.403914914792706	-5.273096071281439	-3.4101359758110106	-5.225087152640443	-5.444553838335122	-4.677175033204696	-4.724848735324322	-3.1788108268589177	-4.74035023446121	-5.371348367481129	-4.188349713241352	-2.560945504398492	-2.5532693798451183	-3.58132099201089	-5.266107545908458	-1.6892113642959423	-1.778704042712268	-1.7954261257617845	-2.943157188614164	-3.0672435683057593	-0.6465511901744084	0.9894378756337759	-0.6342095716676651	1.041705128900709	1.9149810027411265	-0.45563423518538854	1.1928969591540572	2.298523181834116
100	-6.252619250723663	-7.20784090129658	-6.918826085742093	-4.606045711332278	-6.153107150755181	-6.376090033645572	-5.933179363529684	-5.74851511457575	-4.229108322910174	-6.177082523009102	-6.053037628150166	-4.819332587472247	-4.8088621971788585	-3.665145626351255	-5.730225071744731	-5.960692867488539	-4.238579262522493	-2.0859982914710313	-2.7678060461735825	-4.546690929377642	-5.856096729752131	-0.9818216537482505	-1.1432700128300735	-1.9943666407776965	-3.6759180929836033	-3.207040063390429	0.18969657969264725	2.200792307065604	-0.7170845252052217	1.532983060781079	3.2944242871077933	-0.5169782029450912	1.6373431641247729	3.1724867740642155
104	-6.89709137128891	-7.752622584796627	-7.266683560144599	-5.108583914256607	-6.64862964858858	-6.648922426602977	-6.081763252162114	-6.017630085057188	-4.70664166215862	-6.683297617251052	-6.34250591584096	-4.713642585297682	-4.617839801573497	-4.038938512141527	-6.322053416502949	-6.253432734913504	-4.101547230855526	-1.6812598662844016	-3.1219575326299	-5.198581682431484	-6.1618647419806285	-0.3419607273051197	-0.6372275932436025	-2.1908729021071274	-4.243211258665584	-3.3357660686196264	0.8258200266968957	3.0998542230543578	-0.9505319571338289	1.7133551792755735	4.106166829232535	-0.7497295718337689	1.7762992337202317	3.6092133430909814
108	-6.88459680726406	-7.649342994450693	-6.970016938731745	-5.165932642291747	-6.515234930755203	-6.364212020064722	-5.733829483814488	-5.987849697253959	-4.695876109665049	-6.564737780209078	-6.134303554306073	-4.309986103620284	-4.137634743734385	-4.228023518378001	-6.2796034654382495	-6.0652446593693465	-3.723950138226714	-1.4189456665453752	-3.5496780782724215	-5.282178388610803	-5.989759906904898	0.1653519119617914	-0.3777636876105389	-2.3930628239294105	-4.431581962840872	-3.2499394334755998	1.1966378658600054	3.406129113180746	-1.2088950841899597	1.6771506028746717	4.3557214626967085	-1.025154707227712	1.7182733969221526	3.65901755362808
112	-6.22402809478999	-6.928093415888372	-6.139541133638553	-4.790213095968618	-5.777237400727598	-5.545996175115137	-4.946207034020817	-5.601193413897897	-4.197631825339498	-5.842747196704781	-5.407449708637541	-3.645313015317343	-3.433515301618683	-4.217198361239805	-5.574599251977736	-5.361508355909294	-3.1216432969434376	-1.251007196128925	-3.904942979490332	-4.750117289948025	-5.295052991849782	0.5131368028083054	-0.37605753446047335	-2.578153126883123	-4.173501957846709	-2.81778358701725	1.3203583922428925	3.02358912658248	-1.3676834071914625	1.5643773039421727	4.198987473376847	-1.207969424058935	1.6077389676510543	3.46273993571543
116	-5.076519476471351	-5.765474304901584	-4.989102827827311	-4.058144559151143	-4.6101703527403215	-4.338328350558005	-3.8869507214638586	-4.851890551714997	-3.3378429328569363	-4.688806045138221	-4.275762070350979	-2.8111553121163824	-2.6324984960849034	-4.035181035344374	-4.37004803507875	-4.241906632204033	-2.361817830798458	-1.066025492837719	-4.026431073513438	-3.765136470825365	-4.172699917748637	0.718399880502804	-0.5547220096887865	-2.70884799273357	-3.5786733536966517	-2.031917805309964	1.2806322542282622	2.06923245861236	-1.3777400220418656	1.4794791899521131	3.841414441900482	-1.2372676102871494	1.5414613446418146	3.163368217110919
120	-3.6628293898611313	-4.378474224480083	-3.7195286656884385	-3.0622982901505202	-3.233298770370641	-2.912530414857261	-2.731419794815864	-3.8012516402593297	-2.2971246184526373	-3.3184587871691824	-2.9123237059497016	-1.9056144904661907	-1.8762155723885603	-3.715653410113506	-2.927291385889329	-2.872687570948455	-1.5279414615201263	-0.7795028666842883	-3.817502965825599	-2.6125154429279585	-2.792703383070562	0.8326953032450891	-0.8039717057910589	-2.768958084744893	-2.883069269530642	-1.000822899198934	1.1868844002321648	0.8000889400309035	-1.294504043171816	1.443791743447977	3.4444098385632227	-1.1625692815038817	1.5250772199273213	2.8407998013298674
124	-2.1741106455271337	-2.930878631821434	-2.436576121854218	-1.8840579939004374	-1.812062258913752	-1.3935917580705692	-1.583017702874297	-2.572104924383745	-1.2315895526308918	-1.8951656770541558	-1.4714360199971395	-1.0001058553240965	-1.2645467487833395	-3.2642478860456756	-1.492783661888127	-1.41265546918882	-0.6904411298486006	-0.3990831663069413	-3.296774379036064	-1.5698212345543436	-1.324065085882826	0.9194812751443533	-1.043529865491256	-2.7879793573561704	-2.3400881231354247	0.10845991196667026	1.1298609943473874	-0.5217366801440757	-1.246357318592447	1.4039999211149699	3.08276366409177	-1.1151295872190532	1.4898580275113582	2.5004002984814075
128	-0.7276468258606222	-1.502261515639222	-1.1445547313403186	-0.5960618838519914	-0.42092648042262965	0.1544245775615467	-0.46119969966794966	-1.3231465783091563	-0.2258538896103615	-0.4939749228403576	-0.050547342619830106	-0.13588798011803643	-0.8220120647657445	-2.6535501413106837	-0.22389168980814853	0.02701152854298561	0.10259387616242693	-0.0283976829825115	-2.5971858435861686	-0.8012058118618849	0.11144319893595246	1.0267952654663681	-1.2582024304094648	-2.835501902097027	-2.1079978889649262	1.14025771330002	1.149952051120393	-1.7502562955535619	-1.3603233064638902	1.285173293683655	2.761405461015182	-1.2309167354023658	1.3535766567387975	2.111066097651638
132	0.6212007983736354	-0.1242172416888688	0.1892534191598611	0.716253874877729	0.9239261127033216	1.6880994992551093	0.6479385478826977	-0.21229755824848506	0.701899526731292	0.8657786824302078	1.297980424464919	0.6576341970052522	-0.5092902170674373	-1.8581156683738944	0.8232139924246057	1.378202196456287	0.8170813897484387	0.18384772492721704	-1.914464349681518	-0.32131150283752435	1.4412507974476174	1.167712685497854	-1.4938603601886313	-2.9837932511336382	-2.189103120998925	1.9967125603808435	1.230003473037423	-2.8937687800779694	-1.6878519015613376	1.0530438396569937	2.465165608857842	-1.569639559597527	1.0859870883225993	1.660522933582241
136	1.8395756436633182	1.1617023915524571	1.5558848341760165	1.939425225129667	2.2013714257927792	3.135577432345269	1.7286905006632471	0.6465032084354854	1.557459469677717	2.1580724661700432	2.5324513848262677	1.3468599285453065	-0.26382350855021824	-0.9073310471515006	1.6564587312838472	2.5899717742379273	1.423883196096813	0.11963038861350109	-1.4221323692656012	-0.03249316281817208	2.6192598276765553	1.3217604126937594	-1.8169071628474427	-3.257060996415383	-2.4459185538527253	2.6466085843976677	1.3168786730896906	-4.050367821957642	-2.172761673209983	0.7471533994884358	2.202896351020863	-2.0762991852790886	0.7390014510570218	1.1893274754060503
140	2.883819811215759	2.272583240493358	2.864404194275643	2.9416706487772193	3.3416659747631776	4.382001865767563	2.707949869948362	1.21673857858544	2.323971265647429	3.3079113876749378	3.597317686535322	1.8942286920406524	-0.0403001530941099	0.08164565244565135	2.2970769347369373	3.6094300655788376	1.898491854642804	-0.24528425870002218	-1.1987771957648825	0.19165895830879412	3.604528894860621	1.454734083317506	-2.2599098625346326	-3.605935087636612	-2.684041493314999	3.102232925212048	1.3587099279431833	-5.283679948818194	-2.6794755391181533	0.46401104213865013	2.0155010172502164	-2.6076488429036244	0.4230060864735925	0.7806442956288551
144	3.6963274385589058	3.105609885957917	3.9645776648561264	3.608159532974013	4.235189904010543	5.3073196277135875	3.4860272319518013	1.5418759545498255	2.9413659498338967	4.2015185250061995	4.430032242080625	2.27781247517559	0.168725639155689	0.9193273759519317	2.7504129340348786	4.387979496367706	2.232929939354459	-0.8274191001028927	-1.2006732195104006	0.42826700102444265	4.360950458960362	1.5469191035315384	-2.7852911878835873	-3.922109593979461	-2.7544319560126467	3.387475958854672	1.3398436274079304	-6.518854124776827	-3.0624990385936166	0.3029302350979066	1.9479703854016717	-3.0057017727305464	0.24595735905061009	0.5152025209770708
148	4.232811440271431	3.5985722450953865	4.719712245469126	3.8874015709958014	4.789588916130107	5.855457767961751	4.004736413381444	1.7205725864839136	3.3269660388872055	4.7446946977986295	4.995731341146756	2.5160143311873475	0.3463860443429733	1.411409493697581	3.012151710534696	4.909409987452343	2.4514176783658193	-1.4651961289606474	-1.2927802768492638	0.6758227331264753	4.87838600834366	1.616157646867165	-3.28351759081575	-4.091968049208568	-2.6186506682084887	3.5213103205468017	1.29843628078701	-7.5288958359413165	-3.2352361597395287	0.31052821796217694	2.0131812044814152	-3.1743521610223966	0.25471684272352474	0.42454284322363406
152	4.4938325768499645	3.7819313907506134	5.080047117758831	3.8170165919254595	4.99258278539909	6.083762630361411	4.299590099923387	1.864493842185916	3.421745530072471	4.926446425397612	5.319899545589541	2.674406521720673	0.48270401236733385	1.4468767606444728	3.0947317998952935	5.213645445058246	2.6135122710046654	-1.970550055297056	-1.3185688223926744	0.8799654819206042	5.192867265942005	1.720433826871227	-3.6061558632403026	-4.056022633802496	-2.3470385015358453	3.522589197801874	1.3167964186801084	-8.026892641782384	-3.1991212287241426	0.45738845948134405	2.177131170498145	-3.115012876275363	0.413345067649565	0.4730823028064365
156	4.532355773926775	3.7771453762058123	5.107202040175623	3.5120906741162217	4.9345970029221995	6.150059684484799	4.491272438154035	2.0500531144835374	3.2313434996083656	4.8416280624220605	5.488806233853278	2.8410146164690953	0.5937959536819312	1.0614151927852722	3.044914237917799	5.390192495088582	2.7932987142610752	-2.185213560309282	-1.1783090800099798	0.9890101527039477	5.382051454307134	1.9351487110871195	-3.62336563149214	-3.835283746572943	-2.0570118375342057	3.4243075761170276	1.4867749176634906	-7.815540770825518	-3.0215566082007705	0.6593509895843832	2.37819575662991	-2.905838720614512	0.6292072518675201	0.5811628088583275
160	4.427635658529547	3.734319439042819	4.936404692584384	3.1196601312074774	4.770417678232953	6.235253795140066	4.715258586422753	2.288601631108433	2.8359372544213675	4.651505458531957	5.610655293604233	3.0813360136437145	0.7163394671474104	0.4336755562800287	2.936804764008621	5.537843213404765	3.04314707941396	-2.023166174548979	-0.8775455929534778	1.0039750312252775	5.53153370414335	2.316244357936835	-3.2802870190770803	-3.515752306644819	-1.8300560666609857	3.2804729855683097	1.8666102839072571	-6.908697110853115	-2.7812001634951122	0.8291199186372643	2.567805045320504	-2.6422228746461673	0.8090903142528671	0.6739042980345782
164	4.238016117840077	3.7436132336513124	4.700459945255282	2.754889242846209	4.637748706552529	6.441064341495444	5.0323586336873385	2.524747126880631	2.358330005413587	4.500312793813584	5.755775913965377	3.398743859293142	0.8758707024395179	-0.19017432582047702	2.8369169163604226	5.7100214814026735	3.3619398985858924	-1.4935761652430597	-0.5177882896701883	0.9843910907687408	5.687404141371886	2.866900436792534	-2.627252810520755	-3.197320453200735	-1.6624964433657714	3.152801744130395	2.449161284938899	-5.549176678952322	-2.5184047158553846	0.9253728366376572	2.7432808806776414	-2.378374570563785	0.9102292037870973	0.723819015582811
168	3.9606704611916745	3.774122228630437	4.460729587736764	2.4536371169130717	4.581122386810243	6.724421484182136	5.377226339115459	2.6647624902203635	1.9078845929613748	4.436779011015006	5.913069710107555	3.725516548287456	1.0553456518231181	-0.6043114050866566	2.766519777942577	5.879994377549461	3.688323250041517	-0.7014779430798601	-0.24260279474995936	1.0083171103769124	5.825473770692483	3.526313772835195	-1.8067699625175069	-2.941654913151038	-1.4776489697342607	3.083330146634285	3.158540240896302	-4.104993332989159	-2.2209615651323573	0.970327196055561	2.949573509398746	-2.1057474560024683	0.9568561291378204	0.7626692633446783
172	3.530103436140446	3.6836719419935675	4.186304081837825	2.1647248213473396	4.527605522168749	6.911976796818956	5.582510934086667	2.62132643991499	1.5320290288392129	4.388163555510308	5.991089805735768	3.9523618121495416	1.190828558776284	-0.7299370747256896	2.6881997517426113	5.949876770256325	3.9253706832961788	0.1734861429125908	-0.1613481338718862	1.1165169449273427	5.858928188790392	4.188018788254394	-1.003021714539147	-2.7464187075892745	-1.187166091782662	3.0700223368381723	3.877538909659008	-2.898745052648413	-1.8492079926532812	1.0276575062555118	3.2457408823082217	-1.7764323904963237	1.015538451491798	0.8559551813449329
176	2.860679619242322	3.300101033461869	3.7936291598861183	1.7832248165884883	4.330870617422536	6.792092782991995	5.473127351293987	2.3552164971969605	1.2013149231144322	4.204218853826286	5.866280540914163	3.9843928713338075	1.2017846077140766	-0.6401669962932796	2.5254130299703808	5.801841721191601	3.9879140753196682	0.9227688289232844	-0.29406943843029076	1.2744932142504757	5.683764920189668	4.739551532223236	-0.3721101870678668	-2.5583491260786313	-0.7647926788094406	3.061703197378585	4.49299429712796	-2.0638794846878867	-1.3805692161036311	1.1561579675094484	3.6564867404173063	-1.352093335552662	1.1469765872607176	1.0564552518874555
180	1.9112706136132263	2.528053754145842	3.216146460996222	1.2117055623933133	3.858785619529964	6.232913001536357	4.9715547436125815	1.8952085923982858	0.8371606448018083	3.7465972805798136	5.451481328552006	3.7895600700068655	1.040218112226607	-0.5105593191607908	2.2061579171747376	5.363382802773457	3.8444197080824694	1.374882694587837	-0.5677168951006187	1.3818186486642585	5.237365709433172	5.101889597409494	0.01643534186803253	-2.3170659483583447	-0.2822300188568347	2.979479782211423	4.93431566899957	-1.508128281600362	-0.8423782565783385	1.3686954940571934	4.139297474900841	-0.8448173382410342	1.3647203410978694	1.3661791051704193
184	0.7352936249288404	1.4178054296937008	2.457713120931101	0.4200665046099815	3.074884406909515	5.260292039941696	4.150200833332785	1.323278542992356	0.3662858894160221	2.973293535355094	4.746222484049655	3.4103970441544678	0.722468016707743	-0.52195131646937	1.7065120892354775	4.649827468576476	3.5277767092328682	1.4531096183328989	-0.8578630068100868	1.3248097863127697	4.536895263661408	5.248383508782797	0.19468577156981365	-1.9946858832543075	0.11646669328610047	2.7540883948410286	5.184918390534828	-0.9998334024935162	-0.31031069081161833	1.6212583739355857	4.588021266797708	-0.32222708978360753	1.6253232914897149	1.728931899473978
188	-0.5142588006387246	0.1571180667486626	1.6008897979372068	-0.5265139328061171	2.068783754847624	4.053441514271659	3.2024409690111715	0.7362335305699305	-0.2290621245084581	1.9716917226602015	3.8425402544281573	2.9378449842666146	0.32077678957059436	-0.7730049471412151	1.0694347593009743	3.762067546882918	3.1138591687740034	1.2037121027119566	-1.055933472828409	1.044881341203481	3.677482834114296	5.197405325165167	0.264575570153773	-1.609768386591243	0.290708094101314	2.3608968198297138	5.264860139905748	-0.32575145281563345	0.12709987131454067	1.8374197436672355	4.8737797614070475	0.1258432116907527	1.8535972786834591	2.0568134732768937
192	-1.629922266659683	-1.0078037951774028	0.7698863725297955	-1.480708476142857	1.021482465072372	2.862778894826011	2.3477322995992793	0.2078206086872251	-0.8901597238954461	0.9247648692624831	2.8854334281550442	2.4627861914444162	-0.07902831564262433	-1.239857312886812	0.3908800174857943	2.842741959070325	2.6803142956773147	0.775027511547272	-1.1216860981277927	0.5830950722277777	2.7923705507349763	4.986209379958639	0.334567873825326	-1.2110195129336805	0.18662305129140297	1.835129375592879	5.197812067260087	0.5708003029717096	0.41460594430196024	1.9515201996169524	4.900319087054153	0.43625149020678317	1.985087151283913	2.272706741317021
196	-2.4280738769263435	-1.8798077059015248	0.07252179067898351	-2.264143699651629	0.1276244368907233	1.8983002853149795	1.7275867418540831	-0.23586711227947751	-1.5008850059762546	0.031911995181337534	2.0138876387295093	2.0358736463644296	-0.4284636665493825	-1.794743890999408	-0.21561287289065026	2.0187098928982428	2.2715847434866014	0.350347994873513	-1.0881656380836395	0.07547314445990792	2.0002677390141406	4.645609367085661	0.45702275518424795	-0.8433144667314618	-0.12051199346156746	1.2614555327038028	4.986492621229896	1.5491919478403753	0.5584319815841744	1.9441384027987367	4.64437006731462	0.6061211809114025	1.9995828816474004	2.3439910352654634
200	-2.8236715722318766	-2.3896903931365334	-0.4443538177715471	-2.7346453597643854	-0.4838895785512455	1.2488132683695716	1.3505151237722839	-0.6139922126526995	-1.9371931503977537	-0.5736057147802699	1.3138215508668794	1.657981987581881	-0.7415167670601926	-2.2698719444186604	-0.6574966890901025	1.3601300682060162	1.8904415321304753	0.0681667251654009	-1.0222554181038677	-0.3028871409398428	1.3674650157735568	4.192689408207201	0.6022351368957928	-0.5238370882160127	-0.4517224121609784	0.7440157513907364	4.615264880925701	2.347220176492662	0.6201874002057227	1.8502386761681349	4.161721219045886	0.6905392390936532	1.9277701329197134	2.29029440301578
204	-2.8633260654636676	-2.605069869139994	-0.8009871224207561	-2.8401801514443465	-0.7898703793610546	0.8712187387404782	1.1153743238898832	-0.9649008488135543	-2.120514387498999	-0.8676115252524236	0.8054743984866973	1.3046315875493226	-1.0731838914478808	-2.5271229680153797	-0.8872163869392237	0.8753451086832156	1.5196459254998107	-0.03058197714117744	-0.9651937460372412	-0.414681940223857	0.9025214887720725	3.646403541895401	0.6851512176381405	-0.23917715191059344	-0.6046422108643248	0.37303239012950334	4.0808920757257905	2.7248690059530087	0.6805707199080059	1.7363516048461751	3.560603132795009	0.7667869906139452	1.829049821050428	2.163953060408736
208	-2.7029271057551107	-2.673361056253952	-1.0557929250763836	-2.639260762226888	-0.8601207115391889	0.6462340934650039	0.8900653101383602	-1.3150045838533946	-2.0497078843818697	-0.9233779883913509	0.4644561398223866	0.9634303426260133	-1.4636989794969593	-2.5042877134038437	-0.9043216682490338	0.5368242250240437	1.1557751864816674	0.00030485822858619357	-0.8943494535754197	-0.21830588524060918	0.5799084887168411	3.054824582970293	0.6310116036696052	0.036038175134270226	-0.44721031076055096	0.2027555102951289	3.4327640446778305	2.5938625270204625	0.7977596501236068	1.6638539987517482	2.9616577550499987	0.8913804270173641	1.7579978660067335	2.0191020914598745
212	-2.5420422489835715	-2.7384557654859663	-1.2656923500530302	-2.2787637653038035	-0.8076829293839839	0.4590192425582814	0.5940543398163801	-1.6578285652266167	-1.79787718795805	-0.8601872899272349	0.2559566789363673	0.6571345908740062	-1.8858388614725403	-2.2212133351512526	-0.7421994786597264	0.3155065766951827	0.8299999216105063	0.06824700517113007	-0.7311621289866652	0.22070971075600923	0.3720598807478034	2.51116728148645	0.44016289599868086	0.31542238513465004	0.0248926504817955	0.24633450743947416	2.792674057585406	2.0660295434287965	0.9844626759469353	1.6614710050596446	2.465968602630229	1.0756145688556844	1.7410045818241735	1.8902114582022231
216	-2.5443630154266867	-2.878487341289037	-1.4617391787816922	-1.9370258997649363	-0.7340143900459007	0.2551923983806645	0.23555453062190337	-1.954725856614169	-1.4795157872039129	-0.7849985937326381	0.15846307535694587	0.4357415426696948	-2.2379426899674137	-1.7604659751313616	-0.4524929512043669	0.2005325699750043	0.5997359141466705	0.11193159194342833	-0.3955416371372634	0.7677454332995136	0.26836565069153673	2.1402168219890503	0.208528622458402	0.5913901910155808	0.6947056037529339	0.48337837931662	2.3321540296801144	1.3982287610038082	1.2146058051914719	1.7202264027079324	2.1416845267582936	1.2926688161638151	1.7738004878082665	1.7897434189432464
220	-2.778615467685598	-3.092108241857484	-1.6488215881680583	-1.756021495200261	-0.6951863748164784	0.04788919898697676	-0.11264141620568574	-2.1551439707703324	-1.204334971248287	-0.7552775721554549	0.16590428310469152	0.3440001598256054	-2.3911673962303386	-1.2348760335262197	-0.09556800102900818	0.1957141305035271	0.5162569867451299	0.14372970127533913	0.12981013920911852	1.28334986839529	0.272679715660198	2.056367392116521	0.08872701950321588	0.845554528485755	1.3870341742782266	0.8728584029094646	2.211036914965154	0.8703352786978478	1.4515207969257775	1.8103007032465077	2.025459999692724	1.5085208377898618	1.8372594071731945	1.7211826996262942
224	-3.202134839556378	-3.327289811316808	-1.820397610836677	-1.7878609850567027	-0.6971261483711513	-0.11519458860877405	-0.37146401311548827	-2.2239625397799316	-1.037779090168556	-0.7728103975811594	0.27491733362406146	0.389532714098693	-2.2652592601804282	-0.7528017144270256	0.26858961514371477	0.3024364404195116	0.591316102442312	0.23551919996880197	0.7711303214631172	1.683214183372363	0.38767239353530514	2.312111371878544	0.20775560982226163	1.0692373487179767	1.9545695732359625	1.3655661310050968	2.504994624489095	0.6663337333068353	1.6763116078969316	1.9062608432325032	2.126692766542238	1.712086554019377	1.9178323697306927	1.6937776761206562
228	-3.688931932672426	-3.5253777414960052	-1.9716620395471784	-1.9777578065529673	-0.7115695458566579	-0.19326506506285676	-0.5050874339702908	-2.1606004183578746	-0.9846054886754565	-0.8009973744196316	0.4727685737594533	0.5351321087677873	-1.8902492475469153	-0.39445990224428834	0.5924990162195379	0.5066634999834624	0.7866994718716545	0.4530034649855792	1.3891560996268733	1.964811558531149	0.6019299015106686	2.865047447600435	0.5853885397436547	1.275130864738673	2.3399722517062735	1.9132777404163253	3.1610491195978536	0.8170625546807372	1.8951233577564721	2.001824612331743	2.4258034168032916	1.9207806538724188	2.016328806554767	1.725652094298848
232	-4.085755337890026	-3.6505970862726302	-2.0987315124929604	-2.192638391680917	-0.6965733152922553	-0.1723254467666489	-0.5296474085786929	-1.9998465725952208	-0.9987318490562033	-0.7890612463102715	0.7373490314940856	0.7224522810815619	-1.410957094444878	-0.19806978056490906	0.8541964270959859	0.7814818004904797	1.035640356310125	0.7873302082210751	1.849630231955804	2.1920685712783032	0.890698251859632	3.584625235090316	1.105626818726505	1.4892940483639174	2.584700339467301	2.474778884361525	4.008516301524977	1.2207899062805947	2.1214261001431813	2.1049866623184763	2.867247812661408	2.157182449616504	2.1390669291849465	1.8308141185313251
236	-4.269963253684711	-3.690664520482383	-2.1858055536396965	-2.28270673175503	-0.6097780450684296	-0.052569880948854925	-0.4782948481881735	-1.7983285143271497	-1.0119047139368853	-0.6895372850175085	1.0505255434215914	0.9127757526240516	-1.0277154419700874	-0.1566594686129186	1.0653490993305157	1.1039369078420997	1.284114834404406	1.13245868396943	2.09740471310361	2.4501609740385475	1.2301902739936774	4.300234306922493	1.5650043448036266	1.7258455709753004	2.7847392488743608	3.020518772128562	4.825556742882559	1.7164297060546152	2.347461217675525	2.21957063114539	3.3592710410181676	2.413916343316458	2.2797903957028227	1.9999190518430847
240	-4.190800179391171	-3.641815414770754	-2.1985168401524033	-2.1508037989673254	-0.41573804511964335	0.17745332375069625	-0.35796815066558374	-1.612007375461933	-0.9666297411355443	-0.4677835095039272	1.4122848475085423	1.1151115866163765	-0.8990809894750338	-0.2235955143290074	1.268078800814522	1.471687790016035	1.5245944223058594	1.3315474953411686	2.183245891780925	2.7973203588432067	1.613095875482073	4.8701405402248295	1.7775239899579842	1.9627108524359889	3.0232911033593552	3.5357139021296993	5.43223570405836	2.1630055849777787	2.527480834301708	2.328782075724394	3.792443265876661	2.6337506704591833	2.4080963073967037	2.1914856378538716
244	-3.8781428239183473	-3.494619122265192	-2.09236740537707	-1.796483869785298	-0.09055513120676456	0.5536913261739327	-0.13109098341746306	-1.4737340174660079	-0.8376702645133512	-0.10607560697238488	1.842817182656599	1.3822762931256884	-1.0599057647647911	-0.3249959639450128	1.5168018302768889	1.9054673862032565	1.8000653936715194	1.2701977459309375	2.223560327638003	3.2383885301844506	2.0527098127037586	5.237789617665745	1.6820920663326546	2.1391537135475205	3.321567050177082	4.020431508404074	5.7636585090077315	2.4873521265172807	2.5894069606254617	2.3948743282888505	4.076112736901187	2.7246527603023094	2.475808137364908	2.342353099631171
248	-3.421446076337875	-3.237091533117413	-1.836948032509674	-1.3139104809966597	0.3702810695359401	1.1193380327574391	0.2609405212966786	-1.3815233672547866	-0.6353998168161799	0.39146548410762244	2.36747764943346	1.7738816693342456	-1.4032629692888277	-0.38228133224291655	1.8511910391799518	2.432323688088099	2.173009866950201	0.9587777232758826	2.319815629824181	3.72630094541072	2.5701961452442768	5.446496472912736	1.3887189591631943	2.179966205815084	3.6302041915792445	4.484695423247545	5.886174663941328	2.685984127892614	2.4726831850565136	2.377549403863598	4.1766829385210515	2.607261651132141	2.440250867404633	2.3942596851934788
252	-2.930934660187382	-2.871928207775934	-1.4422190152949041	-0.8425949194615501	0.9433138942743977	1.885226960190821	0.8455904700864638	-1.3034503427021462	-0.3923908462154241	0.9940341089900915	2.992708198620896	2.308125490083188	-1.7335934595208022	-0.33745494399702247	2.2751226367729576	3.0593645495420825	2.677246325409182	0.5522569404010343	2.487243884482642	4.189079274091561	3.172596685028904	5.606911168247475	1.1333357067104408	2.036844963653237	3.863906612177557	4.939873206064396	5.95022247719515	2.7942163873697203	2.1711285059472605	2.259759181993021	4.13508509545591	2.2686388435306606	2.2907464446406154	2.3219165743379193
256	-2.498012059580577	-2.4326045451735716	-0.9670134758376394	-0.49710056060216523	1.5753568371099476	2.794675343133332	1.5760592182422075	-1.1965733736345212	-0.14257481658224816	1.6448566872076098	3.688921919092129	2.9356923029213413	-1.8611534786918473	-0.16925032394116088	2.753393643103281	3.7557661438531733	3.284414283089487	0.2893635027255431	2.6435105733886437	4.564291465679641	3.836444845050236	5.834843143990361	1.1620384425388524	1.7240042642935478	3.9564523597008594	5.390641198853318	6.105676158748468	2.850772373631349	1.753472681386811	2.0649492688496145	4.049558629302214	1.7883148148208767	2.0623145051386156	2.1466183608217646
260	-2.1687457506737355	-1.9822013328097539	-0.5000879751930877	-0.31092774789509764	2.19414591235277	3.719720115806974	2.32787703880041	-1.0290945742374182	0.09655228232802153	2.272330755218727	4.391434658407322	3.551994314762545	-1.6864374833443885	0.10901291640891954	3.2293994345192796	4.454600799757853	3.90515779462956	0.37835797571977153	2.6699213914219384	4.8242335197718855	4.506956565922054	6.190240844356496	1.6024410684182144	1.3235723938903565	3.90294431654677	5.829657539907995	6.423082335467846	2.8765845226140314	1.3425559963662312	1.851232762431189	4.026617516841824	1.3135257926202506	1.8239145232881249	1.9254405449891938
264	-1.9396947573326608	-1.5914323289745733	-0.12293558536724124	-0.2269028270476317	2.7276463439739507	4.497625339596736	2.9429109022225743	-0.801675198438306	0.3268240980003032	2.8080508638057387	5.019341932975573	4.042285908983662	-1.2371727196929065	0.4604465651807917	3.6510720160810015	5.073769556586936	4.4256024248921015	0.889261601110238	2.50591706596931	4.980504977049457	5.113038050140136	6.646825773623651	2.3900859295582646	0.9540961956731089	3.764359941515192	6.23565195416616	6.859837514724032	2.8724448608355426	1.0597130033440743	1.6830778079454611	4.123606194575467	0.9917043422456379	1.645317311901271	1.7214000181605966
268	-1.7753022864342354	-1.3087567057945229	0.1235860881069357	-0.14014661276719653	3.1224894444785325	4.991976248535387	3.298493615405625	-0.5552876577662769	0.5558552131923952	3.2029030242163037	5.5009069303864475	4.3353490720010734	-0.6450139863895321	0.8344524481686313	3.9862410921543368	5.543163285565405	4.759907710455533	1.7118405060463653	2.214783186089118	5.066398607814042	5.588375077443444	7.105425816716286	3.290928593909832	0.7156631332448515	3.631939640412143	6.574640734285637	7.285870533667934	2.8297066617094373	0.9627671813499167	1.5969127376292547	4.31507490975978	0.8949466921145612	1.5612146814983754	1.572132941091476
272	-1.6386122662181264	-1.1434249849060982	0.24641668734325073	0.029665976687872214	3.350368014459835	5.143565641768384	3.359311810595091	-0.3649807861173152	0.7748742680059413	3.431493988910163	5.789248928712409	4.431357372539925	-0.08347112664367537	1.1712151736253025	4.216749180637912	5.820352539626311	4.885748850884885	2.5990166598504674	1.9664481828632596	5.106255995256136	5.884551987096059	7.439541797928388	4.007266988173639	0.6407254322087703	3.569942942189153	6.80136726569563	7.5501313018911205	2.741925947896028	1.0112159226636	1.5792401989165494	4.501792896348909	0.9776753162495636	1.5515446623730096	1.4742572270365253
276	-1.5210207662327286	-1.074554917483543	0.2757208638382498	0.278139203084616	3.3986604127906674	4.981105791867276	3.1808395305433708	-0.3168128124821375	0.9426004266782376	3.4819817455118196	5.860105022893866	4.386780250917853	0.2955772869276893	1.4014475310228423	4.316839207240677	5.886362060944029	4.841801631147208	3.271310082759413	1.9381425331773392	5.089390741850231	5.969669803806206	7.54756019594058	4.309806812849253	0.6793228370681389	3.5701320081219032	6.861782056650275	7.550683479318925	2.6126420431931416	1.0812295647979289	1.5715371330638053	4.5589866523080245	1.0944303246522953	1.5506896933505099	1.3920501435419907
280	-1.4546005689135462	-1.0793462964463603	0.22877310158667194	0.5069441186503565	3.256054870014115	4.5910940054374105	2.866611235056814	-0.47330722093292854	0.9891663168728649	3.341923228409379	5.699601635847927	4.269380081841701	0.4018388380395621	1.447905775229277	4.2375216377082685	5.730669960812211	4.693293082785583	3.530516138699829	2.1894481126820136	4.963973509653451	5.820359692183667	7.389463882863173	4.132583607730292	0.7241259198979846	3.544352284065897	6.701824171311943	7.275295716037162	2.459382766236334	1.0252499554498227	1.5008052549617465	4.400458324766376	1.071491357959112	1.4816385470175841	1.2848012414919066
284	-1.5014228782893497	-1.160205838135215	0.08659232385945843	0.5723496661040893	2.90902351598611	4.067598809462966	2.508452885970232	-0.8459542372326095	0.843049226062881	2.9956934376422897	5.298076139425158	4.114070405109797	0.2138185346688622	1.2454721896197671	3.9175181289947156	5.34309815011471	4.489931572068554	3.328105441273855	2.5952262812894804	4.659553516067789	5.420940385483363	6.9954285445025475	3.587877264501051	0.6680291874231907	3.365977755631362	6.2864999612399295	6.79749153328354	2.311005824930042	0.7480728607364197	1.3202199902580736	4.024906148285354	0.7970646003626358	1.29799770981186	1.1355216474474146
288	-1.7243673757886029	-1.3514593805524315	-0.1985599989646266	0.36975061800110076	2.35467314125656	3.470440140545232	2.1424198096543865	-1.3832048142796551	0.4710846829441552	2.4384593902057867	4.658408153216677	3.9043624302516853	-0.232400491246932	0.7770038823537445	3.321931353765029	4.722202765940133	4.240135182165782	2.762704842268005	2.890562765452885	4.13024805933531	4.7752961991862115	6.446747286732561	2.900909654922611	0.4634461987238622	2.940206043449496	5.623385892021798	6.235445006840022	2.2000329438930826	0.25921943718313456	1.0373165581262667	3.5192935377912735	0.28182640600575715	1.0110172007784206	0.9640975570179445
292	-2.148718351661189	-1.6956417517766553	-0.6626482589203883	-0.09222458279690232	1.6261019665670946	2.8177847791101427	1.750728364338991	-1.9835207412231706	-0.0895356533651002	1.7025027232101388	3.8174917601524094	3.5940382389880594	-0.8594561793562658	0.10344713900197415	2.4876415666715794	3.898811807325636	3.9193234344711145	2.0202279039875495	2.8118927407796814	3.3950285825843824	3.927763452150001	5.844489082839298	2.3044073523514865	0.14919096193793474	2.263960594183341	4.779689776750803	5.700138554486707	2.148702139197851	-0.3280209890666936	0.7132571321599227	3.018039218912166	-0.3437925866506992	0.6864193660571799	0.8163293579472063
296	-2.734192364465236	-2.201966280146136	-1.2829433647189483	-0.6746692044390495	0.812591967915291	2.1129951423702784	1.3020812240151123	-2.527981274897978	-0.7258934956343361	0.878012893367337	2.8654351162090754	3.1532802502174437	-1.5584994515171324	-0.6296823604898252	1.5444552859413234	2.9582359716113724	3.504096022341973	1.2933647599944555	2.2553660812655867	2.5529167587675174	2.9778997822917064	5.279675470373714	1.9440103720220825	-0.17002575056540856	1.4446082078700488	3.8801524541165207	5.257644163208878	2.1529738848688287	-0.85230958246574	0.43276929746082937	2.6397283010593258	-0.8957247711454948	0.4120183278648593	0.735495982697342
300	-3.3756225023874067	-2.8165764737543064	-1.9583923767236253	-1.165041920581501	0.05243251086944597	1.3820611203585926	0.7986826280456235	-2.92343782640504	-1.2816059557028547	0.10588588538854381	1.9418291996566788	2.608242505164088	-2.1993892137311337	-1.2288107840984788	0.6868402344528763	2.0385611005812776	3.007676832234837	0.7182034235941204	1.3590077127477294	1.7576606229274458	2.0707995839288382	4.813227641351187	1.8365468932513485	-0.38097146057263964	0.660984097242461	3.07693027673162	4.918432223299925	2.175001854173565	-1.1854692667594802	0.2611053877437111	2.4346597133202383	-1.230049249404495	0.253691702440621	0.7346588950682298
304	-3.931151141731902	-3.4231724652647912	-2.5336713726924502	-1.376872655253284	-0.5071995245525742	0.692696569601207	0.29976239724770454	-3.133677236274627	-1.615849371645165	-0.46316620590573676	1.1997833221661507	2.0461349435644745	-2.654453032467462	-1.5257388314826577	0.09731302385794974	1.294757482120761	2.4908513959939196	0.3489519646894308	0.45472377423874316	1.1561652392760928	1.357085820586444	4.466542709517741	1.8902964544254584	-0.4235804964338427	0.08240645358022419	2.4976701673390087	4.6501769902125565	2.1511359160471755	-1.299380656776447	0.2092605674943958	2.3675880372353055	-1.317415114891315	0.22096690479756567	0.7841584662666502
308	-4.273255337416634	-3.883414497107552	-2.863874666612795	-1.244845983223338	-0.7717779259269668	0.13493239845541	-0.10211973611559698	-3.189624063068189	-1.6637941556885447	-0.7313482146871841	0.7458923440221068	1.5752012689874766	-2.84033059356738	-1.4546073638430335	-0.14422471784894894	0.8368049838873316	2.0351428934213285	0.16151080984822874	-0.09650498604251166	0.8169561007854371	0.9332948303501085	4.217746723970354	1.9620300481850832	-0.32728972948411295	-0.2156233484069431	2.1906764451984437	4.398626793246342	2.0190119692372015	-1.283167955019895	0.22559001984860708	2.3410782754919333	-1.2586951224019343	0.2594395571357343	0.8219491818656652
312	-4.341657627588173	-4.099775780817274	-2.8879411147637035	-0.8607529380047252	-0.7499221544405519	-0.22667466046800758	-0.33612123046889564	-3.176434985724169	-1.4683054648521503	-0.7056481224363969	0.5876889213983082	1.2659764257893125	-2.7607843806181904	-1.0935074063349233	-0.10954454513549021	0.6749470216876462	1.697560425287131	0.07699679563871259	-0.0980337557701735	0.6914307457633079	0.7945290783849371	4.007116784469185	1.9195336054975767	-0.20328560420210048	-0.2921168796793459	2.0982258266879628	4.1077618495226975	1.7524727538685836	-1.2989624705897587	0.21909289006707525	2.246456140568478	-1.2324881522532567	0.2747049622752629	0.7824548463139812
316	-4.1709356202677395	-4.065420617329794	-2.6674885682469283	-0.4268743385027818	-0.5613387212885971	-0.399976580325224	-0.4069437374331066	-3.2002673068309906	-1.162955996438208	-0.5068784939366244	0.618562398779314	1.1052327128162451	-2.5236730511844905	-0.641876278687188	0.0038453480131695997	0.7031314951310441	1.471566196541	-0.00848526226076948	0.37284430767338944	0.6319872720974702	0.8261806347968764	3.7503895664894285	1.6847268300436538	-0.19348463367249374	-0.31445130626442114	2.0748650975294134	3.730955591318768	1.3810120786131943	-1.5016154012914882	0.10059943769805246	2.0122106024483433	-1.4052600825116297	0.17408452884114134	0.6263532622735904
320	-3.882790794106197	-3.8753130338101354	-2.368105643969228	-0.15619172116422467	-0.39392805000030034	-0.48139321682506525	-0.4130180467668305	-3.354595175856633	-0.914316115455093	-0.3268390289637817	0.6522361619694425	0.9898797248643804	-2.3185007513637554	-0.3376464835225246	-0.0349754243206082	0.7335385065632155	1.278195973983864	-0.1966854179900122	1.003645059912634	0.46181815746057764	0.843026516693279	3.3592462454860037	1.2478368250813263	-0.4026865650977398	-0.4762051391499467	1.9456748913278774	3.2339610971817128	0.9789213513454472	-1.96231340866563	-0.1776531334206401	1.6265345770777822	-1.8495483351740893	-0.09324572211803558	0.35664120226462187
324	-3.6385028270410804	-3.6869289781944508	-2.187864298065041	-0.16617169934280115	-0.422644345885364	-0.6221828444984753	-0.5104403482901194	-3.69062208197541	-0.846808133371506	-0.34584966214599383	0.49900579326527794	0.7705234865761912	-2.347134345804402	-0.3477848759453529	-0.37211188580023863	0.574500976542536	0.9986389850198777	-0.5539560304007118	1.410548087373462	0.06780214590597211	0.6652696115863469	2.7704298426299707	0.659902749779676	-0.8506664016227206	-0.8983474947182798	1.5830138881770413	2.599174969786591	0.624196527812483	-2.633281939533853	-0.6019208416046856	1.1292716236213363	-2.5102336343330456	-0.5153238164288824	0.01442199010486052
328	-3.568942776252347	-3.64729188951889	-2.264780992511958	-0.4242591847198641	-0.7296062093433767	-0.9583939885737875	-0.8394065478112747	-4.199159611590524	-0.9868183707118007	-0.6508106572885932	0.04802984732184008	0.3219781509853316	-2.732334606901567	-0.6882269365100747	-0.9918190215818963	0.1146388870563555	0.5309488759940777	-1.0813276740429814	1.341632362793124	-0.5351238237221844	0.19567982803054546	1.971966380862633	0.010565994280722225	-1.4620094262404217	-1.5655888279488184	0.9637004112708089	1.8314958764565448	0.3512477567864482	-3.3694071684645004	-1.1043963404428685	0.5818632230373147	-3.2326338209552055	-1.0236879561327825	-0.341313301655204
332	-3.717672577054819	-3.8241536520728454	-2.6111354761956025	-0.7749783377154564	-1.2664785353156327	-1.5400052031736282	-1.4494632445933258	-4.8126921532238764	-1.2552138535279722	-1.1956232755992002	-0.6845175010564885	-0.39513537187950004	-3.454672804693317	-1.2181293933631177	-1.7232958034875363	-0.628430543743413	-0.15874569077943484	-1.705054398046531	0.8027610758540825	-1.203890678227253	-0.539748190470763	1.0130556796245922	-0.6017119869299199	-2.097420448729791	-2.3319601953757942	0.176777228266716	0.9621392464187933	0.12883119252579908	-3.9940235513937212	-1.5921677310799554	0.03459621584621428	-3.8347318075637165	-1.5216243228642006	-0.6582209451269397
336	-4.020480145794088	-4.172746647790023	-3.1066017072444754	-1.0285835240144043	-1.8772149038603414	-2.295677656099723	-2.260496133819163	-5.42444466175015	-1.5109295806884433	-1.8229681207407706	-1.5631153544061742	-1.3083329167712399	-4.349961746677314	-1.706399198038558	-2.3291032255496336	-1.5168209037631688	-1.0125206683344392	-2.297059291762128	0.04104291264781284	-1.7372194484719137	-1.4051055872727618	-0.006176453068159541	-1.0997934313663549	-2.611251109206175	-2.9930581970941335	-0.6201139672835448	0.048656709369360195	-0.11863867908565137	-4.376484859861082	-1.9828387448793725	-0.48877996082878494	-4.18740605250765	-1.920559282222282	-0.9072115994436722
340	-4.333630074050091	-4.557467449125825	-3.5552785306813774	-1.0600160333573472	-2.373804324832526	-3.058124534515306	-3.0910305898826653	-5.91869257386289	-1.623683686925373	-2.3406255186113625	-2.3956415592744627	-2.261769289028351	-5.171660410221621	-1.9410139273274993	-2.6302575998655855	-2.3568072259527098	-1.9021633815424088	-2.7227172782820497	-0.5977368935752405	-1.9811855504560563	-2.2175607625286387	-0.965462324565921	-1.4512563907222213	-2.903181783975713	-3.3881237421324553	-1.2754207817301284	-0.8345259406954537	-0.4539412546617851	-4.483496654634849	-2.2324252072237756	-0.985300478831783	-4.263430584633822	-2.1703422014753686	-1.0856420966395104
344	-4.500061500631845	-4.814596163991774	-3.7766876125350928	-0.86876892824175	-2.6233720713185167	-3.6352736858138814	-3.729640474439764	-6.206927283828526	-1.539324637341301	-2.6104559832468786	-3.0162672920367566	-3.0756254118514916	-5.695121750757918	-1.8282345487212486	-2.59682964622989	-2.9829127713232393	-2.6765971116199276	-2.8988983557943886	-0.8538338520427325	-1.9113614510916346	-2.8251228261192036	-1.7614088014000382	-1.6751650529529267	-2.946039907646803	-3.4771342189737657	-1.709336872553541	-1.6113561351147612	-0.8704488255458582	-4.383001793285791	-2.344572776597002	-1.4543176852701565	-4.1364192858211934	-2.271721357332082	-1.2091319530476992
348	-4.4229621775537975	-4.827268111439029	-3.6879608538021973	-0.5684179053260522	-2.604531996826899	-3.89373253792928	-4.021287907938044	-6.255912288129901	-1.305067893547977	-2.60703133878531	-3.347439995897281	-3.608486404845136	-5.808044895767004	-1.433822866634462	-2.355805152667276	-3.319440356456865	-3.211982957359883	-2.82971739054547	-0.6733345372366087	-1.6466623503118765	-3.1608290592498984	-2.3318018854396705	-1.8241562797267235	-2.779668800965409	-3.3519039069425296	-1.9358094881774313	-2.2167789880097386	-1.2736331192285384	-4.203429211494295	-2.3599920213243077	-1.8792048645257886	-3.9367606540468407	-2.2681388797715467	-1.2986278501148345
352	-4.112140645135421	-4.576469886669401	-3.3365139877003793	-0.3181430689408761	-2.406438106183239	-3.813253631501	-3.927010526279099	-6.095943912374113	-1.0425009701157408	-2.4181036888106466	-3.413428297961512	-3.7962117099284263	-5.544784531899202	-0.9484781598939886	-2.112312073142877	-3.3921756658740563	-3.4435288819156664	-2.5991156035605445	-0.20942266232545326	-1.384793397268198	-3.2501768983797854	-2.6572439603473783	-1.9467294167005813	-2.4835505422831043	-3.1773433605082526	-2.0325205274764113	-2.6022775107486065	-1.5193270406510675	-4.071828831882707	-2.3332149923544376	-2.2215290013491864	-3.7898354434650328	-2.222150320164756	-1.3692942823170953
356	-3.6820347216150107	-4.145581711792934	-2.8715882228829934	-0.24129456220740966	-2.1739511434981176	-3.485131970189535	-3.527928343448794	-5.809516415233504	-0.8850207306451762	-2.189899200632535	-3.3052663719650632	-3.65519737274478	-5.057239042865244	-0.5959548339102452	-2.0329163023167207	-3.2914934075222977	-3.3698553953920793	-2.3246583879906653	0.28632110284995416	-1.2954137292580812	-3.1752240577639697	-2.7460989882755067	-2.050582642146385	-2.1463174765756983	-3.1000652234963297	-2.0812118000890734	-2.737270825150823	-1.4935069046460057	-4.0602617161282195	-2.3078250826742783	-2.4332468448240494	-3.765674104719882	-2.1874232236948163	-1.42597961065756
360	-3.302111617334356	-3.6817619707612073	-2.475059741446998	-0.372219800009332	-2.0324101396745657	-3.0611078661880717	-2.982978813269484	-5.499157414857417	-0.912280378422574	-2.0506651349745457	-3.1230993192023346	-3.2609081185980533	-4.539261329634438	-0.5351048098405491	-2.158250326429604	-3.113984815364873	-3.0394232196363746	-2.0948374218503263	0.6076800211822776	-1.4292192423022128	-3.021489374161634	-2.6169409685820684	-2.089658731906736	-1.8444055272265634	-3.1723072448746055	-2.114666218186982	-2.611519330106987	-1.187184211594628	-4.1620483293355885	-2.299484723961205	-2.480413669045785	-3.858969440253987	-2.186907047472365	-1.4647610150548858
364	-3.117423049685416	-3.328595868289829	-2.279714101757703	-0.6509016139762909	-2.0268523641911615	-2.677154772675038	-2.4573037562318176	-5.245052324404	-1.1124863596485173	-2.0481617399003	-2.9246234819959183	-2.7131688526317186	-4.139204491655226	-0.7922557572389433	-2.3885621964230737	-2.9125339911359385	-2.527325385388526	-1.9265121172902604	0.6883571726585801	-1.6927975373444442	-2.8341705727546853	-2.2899680079818143	-1.9880857417457027	-1.6299841362808039	-3.3319399272718644	-2.098311418957644	-2.24005031020135	-0.71599548874328	-4.303807724577045	-2.291572803433695	-2.3616735875584656	-4.001675595670666	-2.2042350713391383	-1.4757615290575685
368	-3.179878942090596	-3.1650547901352257	-2.3160312117276565	-0.9630122160439697	-2.105257505823652	-2.391671651523865	-2.0568675942942134	-5.076617704925693	-1.3903492654029745	-2.1316702312055744	-2.7058613232007054	-2.105900282311287	-3.906806935937042	-1.2525348631706612	-2.545577996502721	-2.680324786094769	-1.9150254678060168	-1.7693577960165046	0.6049248560891362	-1.8979188155893802	-2.60546302137594	-1.7931066706208512	-1.6930103259257552	-1.5252820214862524	-3.442716589818718	-1.954998845886551	-1.669699664668691	-0.268601178444772	-4.3813824543006215	-2.2430424633615202	-2.1105592197537475	-4.095769871861323	-2.1907114927294833	-1.4455704652528734
372	-3.42707537739483	-3.1820790687329903	-2.51442646345454	-1.1970937221820968	-2.1535258238780557	-2.170834297421392	-1.8008085443807027	-4.97570561106426	-1.616624828071735	-2.1864502374759596	-2.4211683212186808	-1.5106744728094488	-3.798680295890211	-1.7146842436414196	-2.4748272833329605	-2.373488897053171	-1.2781604496156675	-1.555753465539263	0.4975910472227836	-1.8625712347688952	-2.2960290850844314	-1.1751723259819498	-1.2264833419351655	-1.5194555482648788	-3.371237507891642	-1.617025609702193	-0.9799710487419364	-0.008540375136628352	-4.302591312989541	-2.1050324386855483	-1.7799092486265835	-4.0506386654628175	-2.085058445434586	-1.3585571016343652
376	-3.715044727482596	-3.3000736153253416	-2.750817291944014	-1.2840677467351524	-2.0567436166333932	-1.9209284733910885	-1.6353582102494744	-4.9028057928279045	-1.6903258519411388	-2.0953900761152884	-2.02164840187825	-0.9711168383875517	-3.7260296250683873	-1.974512214443852	-2.124510044456074	-1.9498979996088412	-0.6777063591059115	-1.2577718464566945	0.4752881514947149	-1.5024940929625485	-1.869553680468124	-0.5085046874559257	-0.6944006067863883	-1.5621943434374301	-3.0535228175316846	-1.070637104192348	-0.2682999365708378	0.015647491400670847	-4.019403447493583	-1.8404195262219176	-1.4149414265194742	-3.8117058180893806	-1.8388197375601851	-1.1985564201611918
380	-3.8900787732137734	-3.4170787248169194	-2.910937540334305	-1.208074328233475	-1.7547532275719322	-1.547538276579902	-1.475975986568929	-4.830493914806128	-1.5819790323370637	-1.795628185507063	-1.488122340259881	-0.5026527630512974	-3.6145720390613385	-1.905316348033777	-1.5625166853555617	-1.399400111479977	-0.15130333564228016	-0.9131926871132028	0.5634745345194412	-0.8664652683316421	-1.3185527291386256	0.1279071864236627	-0.23812156855544755	-1.5678412874691936	-2.517071240745836	-0.36726477649469685	0.3797852089353148	-0.10494677695957556	-3.540381899478143	-1.4394414388553838	-1.030659196158822	-3.3735742483795166	-1.437756534761127	-0.9535750722651534
384	-3.862449159407189	-3.4596683891686193	-2.9403760358959663	-0.9938738917053398	-1.2671688763096782	-1.0088435385982397	-1.250872608841362	-4.765277373680501	-1.3411811556333133	-1.3047095504244919	-0.8421527722077224	-0.09333503222742542	-3.4452557476797394	-1.5093883237877326	-0.9311267114018776	-0.7501115183965252	0.2954165332011359	-0.6057805999720158	0.7166694980646985	-0.1057377082420063	-0.6690918786322081	0.6788965446497816	0.045455109213268424	-1.4409633838512361	-1.8580669117745914	0.4012411822679082	0.9231014228402914	-0.19513571213092587	-2.9241626188836785	-0.9257427430621994	-0.6075585469165321	-2.7789039541655827	-0.9103459096812728	-0.6218471511399478
388	-3.642277708394465	-3.4076139840876416	-2.8522374557962293	-0.6864028555706188	-0.6757740361318167	-0.3319649687968788	-0.9238633490125315	-4.738155829864699	-1.0652748319433132	-0.7039397937168025	-0.13088020649290824	0.2926845543147535	-3.256319276217671	-0.9137527323540984	-0.3690975001076234	-0.04952418046606988	0.6912984830568852	-0.40882271425026206	0.8782774187801823	0.6041840299610932	0.035811889826242074	1.1404325933273496	0.16884186821270758	-1.1150084705811756	-1.190581914756826	1.1468945712697138	1.3819047177710968	-0.09948831771527733	-2.2598149719403895	-0.35149773866600503	-0.1091498431787841	-2.106545204566128	-0.32069793262575563	-0.21719309632778455
392	-3.32185339088986	-3.2831032193263177	-2.6937572888074373	-0.33787768993902456	-0.07968120256810378	0.41006916657865805	-0.4946943509009802	-4.766044604666113	-0.8471879937717005	-0.09395246183993364	0.5985824450638894	0.7034249287965325	-3.111429445040514	-0.3175510160058169	0.05051666112900943	0.6616353971942773	1.0884020301042219	-0.3322283319191539	1.034945008525931	1.1409621209901972	0.7579885106022847	1.5623280962599686	0.25760117108156844	-0.5911166056967525	-0.6016086324761404	1.8205696298410645	1.8248192025842418	0.2236770385816931	-1.6432838398452478	0.21569457595726985	0.48642536874984504	-1.4535689317243783	0.25052720245051796	0.22839976789506386
396	-3.0156268997349067	-3.1159644048221553	-2.497692340266809	-0.002570846810034099	0.44993016010175224	1.1412744493280316	0.014296851084793108	-4.8144788620511525	-0.7308224421169479	0.4507501113955347	1.3155662980243397	1.1768105000348206	-3.0561978739824505	0.08431991913487573	0.3343633106849733	1.36252259864126	1.5351510009153762	-0.30873492282166975	1.2235118119820356	1.4719996415167125	1.4740892611479723	2.016666168843344	0.48004996655379845	0.043860901036389024	-0.1358131017832264	2.4168524681106804	2.324950927586484	0.6766912920079494	-1.155522581997747	0.7098821383673268	1.15696656411843	-0.913555917817547	0.7298948746372951	0.667705116970365
400	-2.791126005755208	-2.908401958751962	-2.2490086498698947	0.2699140899519248	0.8937777854288222	1.8187915040826144	0.5729973301725835	-4.793687808331672	-0.6948491317371907	0.9066598988530241	2.0042877146662224	1.717400665715555	-3.0895874422270073	0.1775551284837156	0.5376720414891882	2.0448398538460646	2.046437973577748	-0.23357471764720375	1.4886825047100658	1.6392703014947854	2.1686723177515574	2.5467586453034508	0.934748885655733	0.6372466667298825	0.19058331799073194	2.950072757902124	2.9064323828749763	1.0784460278939458	-0.8458470680815741	1.0827203961692868	1.827075596011162	-0.5547724352181391	1.071025130428856	1.0472133133197856
404	-2.631777279884942	-2.6252412729739536	-1.89096676825891	0.44670459515323097	1.2773715225394122	2.4405150351896103	1.1491283149316767	-4.599417674849989	-0.6709204895246554	1.2955752578450148	2.6484396390805447	2.284067148163949	-3.1640732208475426	-0.029679885059166407	0.715601084809797	2.6927473477089126	2.5867190295714573	-0.03618626659913109	1.8224129630807344	1.7136251883157243	2.8179387975118533	3.1261484544027662	1.5623296459807288	1.0249729130616063	0.3689939668399099	3.421745053235314	3.512341728879382	1.2661857573012352	-0.7240531426268976	1.3121910062085205	2.387051814728278	-0.40384650128446276	1.2626082865308483	1.3188708987316335
408	-2.4530208048876503	-2.219935411570495	-1.3728098834663613	0.5253387080280479	1.6404753881998115	3.0219850463863347	1.7034017996696609	-4.185719002646187	-0.5858743772019922	1.6555679994745727	3.2169852175553832	2.7971179414700607	-3.2133121409350185	-0.41574045910775065	0.8890813566648923	3.2679490960583037	3.076615564208	0.26367425852007753	2.1378157084849803	1.752812261924367	3.380085936595498	3.6565565970608067	2.1454505866242735	1.0998208495028823	0.39412584801348804	3.805226077962918	4.018060674059473	1.1868805855349087	-0.7597157935988698	1.4055218661108222	2.7357706954549035	-0.437784938899048	1.3265420164948585	1.4542496167659948
412	-2.1604778712085255	-1.6781144099782563	-0.7062839251806107	0.5410649762798163	2.0043103644311797	3.5635542779596774	2.1855354253902566	-3.621211519635396	-0.40340042012408994	2.0091307112512853	3.665854683203713	3.1667799869692486	-3.186246625485164	-0.7996565679387944	1.0429416868580974	3.715396633304462	3.4243605050414545	0.5542503581358696	2.304810041330572	1.783120150832527	3.804116954735738	4.011204232578982	2.409132474538863	0.8584769346497233	0.27773603726837315	4.058955659155198	4.288503636023155	0.923418817572919	-0.8904163814952009	1.395264264398744	2.827432625307708	-0.5894949421304427	1.307273146189809	1.4545154534810218
416	-1.7152758793439662	-1.0500258180810564	0.005930656086581165	0.5563130364677591	2.3567440450294077	4.032680024455913	2.543559067979986	-3.08550476248878	-0.14380110763959977	2.348124974998068	3.958522309799393	3.33260964505887	-3.069191924929258	-1.0156991456137068	1.151270625068785	3.990562428889642	3.5691687970647648	0.6942120772954398	2.226960414985986	1.8097287370766872	4.055798997175863	4.104393471845655	2.175477499237672	0.4018701900826348	0.06849331391446191	4.160154332147987	4.253311623325141	0.6431126578306423	-1.0381791565432783	1.3305120434547448	2.6988274982978098	-0.7671962957085844	1.2577966419888584	1.3530898060015013
420	-1.1695361107862188	-0.44829267150229457	0.5924786910357208	0.6321385486855282	2.6613352231544316	4.375403393189008	2.7447702815375283	-2.798681967345018	0.1261809316071974	2.641051762588577	4.093236436046187	3.2937281048585745	-2.8878874705835407	-0.9769863461623444	1.206953999333105	4.091958035628272	3.513495197962163	0.599507807171691	1.9149113845162047	1.839180941706612	4.145000924135709	3.948486556574609	1.4831623993620644	-0.11143082352161221	-0.1430319097007154	4.134482373289463	3.9586079020690743	0.5026424514477772	-1.1316966981925451	1.2651915518288916	2.461006635174495	-0.8840442277522863	1.2265639274146984	1.2083208530436436
424	-0.6476040466170627	-0.0023955451264100398	0.887958583974093	0.796634433642378	2.884535543788415	4.552891719767261	2.798231594650232	-2.9075782225632456	0.3286851040171042	2.857764713701586	4.118819703193509	3.1142127435259184	-2.6871600083217744	-0.7016006690431428	1.2324342696545159	4.077830304340699	3.3268673335957066	0.3030254833200172	1.5059237442142654	1.892346377363398	4.136051644373147	3.660828581150363	0.5955506548150437	-0.5354610071968274	-0.24833206769711086	4.058962334875396	3.5610728173946535	0.5651282057799145	-1.1286193103905615	1.2446384398507542	2.2554995956695465	-0.8881637431608919	1.246542927455809	1.0857697697882969
428	-0.2854698889200659	0.2058642054367019	0.820903477980366	1.0285066340228382	3.0221090240471544	4.577845561867344	2.761809580505739	-3.3931374464197237	0.4149611879839247	2.9939010067691294	4.123093117794537	2.898751251531454	-2.5075435575118346	-0.292905508732378	1.2664108244393388	4.050199021604064	3.1177003304922106	-0.05122215287866066	1.2037920921450433	1.994818324774664	4.1280279055323215	3.412417164770095	-0.11426533729791065	-0.7947293499908767	-0.1705358471141085	4.03060196812571	3.2621796048771916	0.7749135474667491	-1.029425141596508	1.2931944099201176	2.1939356271665336	-0.7808614949538683	1.3279470171779568	1.0353944275464029
432	-0.1601601089963838	0.19037949990843708	0.4657863664788029	1.2695673672093843	3.107814542553303	4.525330055255548	2.72404884604297	-4.05390070845385	0.3903662850537723	3.0794587057566085	4.196014870540114	2.7497661044314095	-2.368632310609134	0.11487170279826037	1.337948914964594	4.110504616849757	2.98711728295508	-0.2807401709621129	1.170061108496075	2.1530907099722936	4.211476315355814	3.344688645501396	-0.34887546212805476	-0.9006029940755307	0.0876287145190351	4.116982926464748	3.214097014895439	0.9991139744328935	-0.8771478511598958	1.406252380635345	2.309822791943527	-0.6154641493517116	1.4553872310133056	1.0717478963495777
436	-0.24992914434751282	0.06015203505468703	0.025257950584895234	1.4603182040538347	3.195999375857269	4.50352476890313	2.7638490130262245	-4.585402477131468	0.310957729031344	3.163427821755544	4.38319109763712	2.724697821413646	-2.2673122825598884	0.41499650373586494	1.445441957639062	4.3069362531641175	2.9859402104330273	-0.2660240226228028	1.4325491153788277	2.3374812543981096	4.42134093122	3.4969911487026843	-0.04264344264231277	-0.9193978286418784	0.43042582164811205	4.317070950098978	3.4441504391498152	1.1052119703999157	-0.7410527449017877	1.5504026373819964	2.545657389889361	-0.4749962377476645	1.5911657770038108	1.1667232483970804
440	-0.44922008997033575	-0.037640016430951904	-0.2603554421050406	1.5765892227422122	3.3260693466134685	4.594899165950264	2.9061231539786623	-4.7248639941133455	0.2525615983785328	3.2815258420109643	4.653827655486543	2.8119416165882742	-2.193160528367831	0.5619545564768615	1.555392619020704	4.601262557810419	3.0936937254045063	-0.021300347468122923	1.8611555052497646	2.4868843492662647	4.710822093514032	3.7857675456786724	0.6006490573023241	-0.9165533161864441	0.7033461314563384	4.556663024841967	3.839261760555209	1.030593869468313	-0.6887781602635658	1.6737384753884743	2.7818047930101875	-0.436451016754665	1.6861568646774945	1.260250684417355
444	-0.6299397929499602	-0.0007797087290196292	-0.23223966301457286	1.6395468670458448	3.491098871953645	4.802258956228733	3.1011192720318768	-4.382060993575031	0.27043583920864883	3.4276091965920905	4.905498015416322	2.9393837377722507	-2.1440896933781977	0.5731781706643755	1.6222556788494495	4.877948271833534	3.2318537153663547	0.30821001451878055	2.2298042717903295	2.5369479592167705	4.96512888608486	4.049649705199202	1.2110254733981431	-0.9106415487186124	0.765050826525311	4.724439132206459	4.2019634140736795	0.8076903799645619	-0.7571670989947089	1.7258552269277296	2.894740574203934	-0.5355807529278789	1.6979895787284303	1.287421819297485
448	-0.7124487739695198	0.16659468370338176	0.10229910884301505	1.6929670529537575	3.6309358981966597	5.033427225756173	3.2433504976401846	-3.6895530130694176	0.37075096275184055	3.547382345780049	5.0064730517824785	3.0103216095261334	-2.132516617159248	0.5060256110766868	1.6150239665263992	4.993984209803512	3.3030502712779093	0.5243278728598542	2.335804933372679	2.4562823710415254	5.0510692468908305	4.134025563293058	1.4435173236641239	-0.8661048986502399	0.5598393664530575	4.729318129996876	4.347353924265685	0.5345884548041635	-0.9345984435326997	1.6794995027100499	2.8146645951733182	-0.7488022427726946	1.6096949536690652	1.2095450132349497
452	-0.7047196608870747	0.352774231735292	0.5694006071019829	1.7631567672083082	3.6574156191991407	5.1390695442150385	3.223209372965694	-2.9391777441204274	0.5093287812725096	3.5612473397941153	4.857654082431647	2.948977701371075	-2.1762483065019613	0.42474409830621007	1.5326640567230465	4.847066390197637	3.2361910261464195	0.48541965958108907	2.1117067283720665	2.2674701156588553	4.880253302650469	3.9692516226690326	1.151698705626481	-0.7255128603737615	0.1512717004771455	4.548170555075811	4.190592755227875	0.3153198353435729	-1.1641923159770178	1.543179984964929	2.5537095005410286	-1.0016509269220633	1.4394724332705886	1.0336762640604453
456	-0.6882781965044521	0.4037526537715008	0.9179602242181704	1.8285976602163037	3.5032470137839358	4.990624892032452	2.9904947205381056	-2.439370149175655	0.6176881178519559	3.408812514281759	4.445241440040272	2.7371556689774077	-2.282877439457236	0.37812593483824675	1.4025461638325685	4.429302681230416	3.0190536899636817	0.1852373029085186	1.666462774837691	2.0411908575021283	4.455760467723675	3.60045002981965	0.4526612747207876	-0.45658782009242005	-0.301496296359843	4.238292683391136	3.780711164465852	0.20702035672849115	-1.3681964839723937	1.3580813373609693	2.192641729541016	-1.2018313377554626	1.2354446618359411	0.8105882981815802
460	-0.7627013902481312	0.21753844563874125	0.9507127380209762	1.8239805652343692	3.167170516600831	4.556225288331842	2.592027419221751	-2.372544044226577	0.6416776164066531	3.090056411570916	3.8556439779210745	2.4241023002456967	-2.4381291804745646	0.3927820911027419	1.2652258841041957	3.837776174392578	2.7034883430888987	-0.2416197800496443	1.2262573211227479	1.8636556816732006	3.8774580857608965	3.155529967924166	-0.34748563082701356	-0.0913242769915849	-0.61673563563085	3.908274879124864	3.2660410321745714	0.19959014603767877	-1.4846240244575561	1.178460952644484	1.8353782845888327	-1.2837135759367913	1.05491792889329	0.610001562485773
464	-0.9819231604580466	-0.18719856393757872	0.6276551469214876	1.6804221826088432	2.7273688247485772	3.930839051812646	2.1591768210256532	-2.7220983436522648	0.5703394994641144	2.67741345683271	3.243911973392551	2.1055378860719673	-2.605298989393932	0.4689996528705314	1.1552468509117122	3.2358865656216755	2.382455104534806	-0.5953105077018499	1.0107545827142033	1.7945650770655333	3.302488080269807	2.773949377685782	-0.9236715412661286	0.2741495959989704	-0.6765321476068009	3.6649343874907045	2.814821951435128	0.2332763665985338	-1.4967670402884092	1.0456117365187145	1.5579482277636414	-1.2407877413894068	0.9381886696970362	0.48632752772569326
468	-1.321323033811502	-0.67099684307442	0.08532496520196027	1.3786866630077983	2.3132476748236734	3.300885430585133	1.8480895711015395	-3.304574242831679	0.43888768442925336	2.289644235552212	2.769127123517049	1.8816891861137546	-2.741942637196523	0.5796952232983732	1.085590359807976	2.783337347632783	2.1501867716861685	-0.7245383244341443	1.1154788704365552	1.837420935760128	2.8788623737130163	2.5373055870845196	-1.100036379897846	0.5214295970149683	-0.4830900120459247	3.5645677953368793	2.535217040336863	0.24040542482237884	-1.44030487173742	0.9695214008648769	1.378813024854403	-1.1292813987830548	0.8908551312842848	0.4535635698311194
472	-1.6943408208030721	-1.0480594608548808	-0.4419116068650086	0.9802852248237542	2.0454497285698667	2.85681223148048	1.7591563418796632	-3.8822040459845097	0.3054198614992442	2.0366084524233656	2.526441090880871	1.8114750339549075	-2.8250732350548757	0.6686262471483984	1.0456665727917693	2.567445986941284	2.0616350121898916	-0.6121547802728476	1.4583839141264672	1.9355667780645187	2.682680838487502	2.4395706592001734	-0.9255745983597125	0.5634682760317555	-0.1590273972310933	3.5927150158773866	2.435930484343641	0.18524259282072905	-1.3849015200935477	0.9281213260106007	1.2640360561881934	-1.0404356691794878	0.8843227006519738	0.4824524509646944
476	-2.004182810491683	-1.1913114756070349	-0.7524166088181041	0.6111946686572297	1.976022596138647	2.6991844109098238	1.8823759508291227	-4.2851939093164235	0.21664595549245025	1.9643368671413561	2.5096943315084794	1.8845194530591234	-2.8655416893136647	0.6601475460551505	1.0111429665785792	2.5703279907181873	2.1091489738619225	-0.38526835940364895	1.8246765090650097	2.000257010178108	2.690392487409072	2.4091014801236583	-0.6233250483034223	0.38825195929731543	0.11271065445099814	3.681696882489277	2.443293088466288	0.08155357817086703	-1.3958792651219838	0.8865007139712124	1.1611404389629334	-1.0519078943397322	0.8764106609151749	0.5225986825146411
480	-2.197755331212676	-1.1071022720995498	-0.78458118240633	0.4045653332986391	2.062244648495115	2.789198868385196	2.0963661617756655	-4.472668636473711	0.1840874250055761	2.0315072485177876	2.621571772632266	2.0235412069729586	-2.902835123362574	0.491907267520642	0.9568789577167117	2.685928099526667	2.2255024853784606	-0.24178609190930894	1.9863473126805729	1.9535721491128095	2.7977182794507227	2.3627431333016147	-0.4500681448540589	0.06777590496117598	0.1770896162091951	3.751500358646658	2.4570774970008213	-0.016345156315424762	-1.4968252144215632	0.8239092209995106	1.0370449993653557	-1.1846624582898375	0.8398224690214673	0.5354057536912602
484	-2.2878506125861593	-0.9333952045716568	-0.6404643042606686	0.4326991427941058	2.1907854024888183	2.9721844121279135	2.228396886921446	-4.512318122915353	0.18377430690620034	2.1326391643085967	2.726329319746319	2.118317360298125	-2.985440485092492	0.15526357253928683	0.871182856744414	2.777676813742045	2.312886232258668	-0.3369605830745035	1.8251702739410824	1.7692640975151543	2.875204794300254	2.2570538463827856	-0.5517889843360843	-0.27514004637870243	-0.01905772085146579	3.7501776123731423	2.4089419780946417	-0.04420866433545302	-1.654299255009087	0.7510289530865918	0.8961779452585779	-1.3889452183941904	0.7805299739204645	0.5169584738077203
488	-2.3326332510228984	-0.8597269632567968	-0.5140438066855626	0.6646656377223628	2.239300960609126	3.0597658080096974	2.143537754368971	-4.505553711006162	0.17885112717295604	2.1558282320906264	2.7164399555287333	2.0753717370087252	-3.144846669840177	-0.27593260933827973	0.7619245629147349	2.745350353939018	2.284794086409794	-0.6953809839811788	1.3930336201783018	1.488070841846925	2.8306832242069717	2.1059369987723757	-0.8956305958069875	-0.5229122029453681	-0.405013619830863	3.6720776465211316	2.2895827235589588	0.03605223065453084	-1.7955223276582093	0.7037922722213559	0.7675466518096896	-1.5697529276316036	0.7323595266925349	0.4948844897173337
492	-2.3879804550915344	-1.0145261262074887	-0.5684421644164145	0.9803295706793552	2.1414377635295465	2.926046364072404	1.8134020521156307	-4.5098962669949545	0.1500527258899216	2.0430841394339936	2.5588967735534447	1.85923349387919	-3.374896517815875	-0.6483224613987266	0.653734384316734	2.5669712955514914	2.10164427226649	-1.191344019743	0.8853457547723157	1.2018874853306991	2.647024863235728	1.9576414774106408	-1.307346579111987	-0.6116611942107089	-0.8233770707322995	3.547379723175685	2.1339538043504436	0.20952454156427835	-1.8523188782655442	0.7155227643067599	0.6709346754300762	-1.6413605171724914	0.7295364123045209	0.5011380898220893
496	-2.4670092997253796	-1.387799736333789	-0.8363332131251254	1.2333127229069978	1.9187818717195673	2.56578611679777	1.3293279375846265	-4.511717308097534	0.11222371430673499	1.8189568473668039	2.2990288676391137	1.5071481428241502	-3.633882274989758	-0.7830760459202619	0.5761352762935061	2.2965302409364377	1.785447950623708	-1.6137225587156592	0.5403802381223654	1.0134328578157787	2.378098720268461	1.850777978992701	-1.5861009319314543	-0.5539338574729115	-1.1072515221296906	3.413455000842304	1.980980748897125	0.4000230719480314	-1.8064012481858573	0.7838206271409162	0.5870574101885073	-1.5806040723948565	0.7735924105186381	0.5381501303437246
500	-2.5349376137628616	-1.8369601918571774	-1.2050492733094718	1.3242152895872807	1.6604468780556993	2.083523745044784	0.849156735183661	-4.464008796865447	0.10459290418443752	1.5696614941067488	2.0225622602896394	1.1092526884683271	-3.866020669713113	-0.5641062245431759	0.5439156876182916	2.021841044089678	1.4069508278610596	-1.7828599169540946	0.5196081386798758	0.9842079853004531	2.1077606624793193	1.78086483028921	-1.6252888400051217	-0.4231713105484927	-1.162420985148055	3.2873434937449333	1.838532323963804	0.4894900011578791	-1.7088692145118138	0.8556708671900721	0.455283461851771	-1.4477175437615515	0.8179874995560265	0.5623314366448248
504	-2.5407977040038037	-2.1709392015959317	-1.4921983442779105	1.2460683552753056	1.4646440707421315	1.6249972540836166	0.5102555142871376	-4.35097788665888	0.16138714511179322	1.3868422473225346	1.8000050737711588	0.7641795258301841	-4.028710355123894	-0.013511698658923273	0.5415146337188665	1.809068675242111	1.0516561243208367	-1.6511914688383444	0.8329391458462496	1.09972905835016	1.8974323224799516	1.6992217259421163	-1.4695745669455036	-0.30829021256812333	-1.0114457581732736	3.1563279549064043	1.6771105485534836	0.3608525982329167	-1.6588560300906607	0.8458705523115562	0.20484471269387639	-1.3590285743733481	0.7853073457917952	0.5001975285299083
508	-2.464413875079833	-2.2633652629928274	-1.565021749359857	1.078606483597276	1.3782750333320186	1.2928733793041678	0.3580998173255602	-4.230749596404566	0.28145164180267807	1.3105169501595855	1.646269913331666	0.5336431847450572	-4.113919724568185	0.6906094533650213	0.5213470445821627	1.6660817819492486	0.7821354846280809	-1.3323488201835059	1.3365213837258276	1.2704775301328066	1.7526053145982292	1.5457069834784465	-1.2791876760611331	-0.2685657136812202	-0.7794186453214332	2.9914016648107182	1.456597086089902	-0.04693758475850815	-1.7490832761473438	0.683739720048778	-0.1953855002953877	-1.4233138525313558	0.6118025168231145	0.2929311089272444
512	-2.3447604120182817	-2.1263544505793472	-1.4283902609047696	0.9367206072999248	1.3696112598172105	1.0958762141216063	0.3277358106444857	-4.2188391578970394	0.4183263470101575	1.3047358956774162	1.5166708192680032	0.4183364797997437	-4.147743691462768	1.276867505664464	0.4192252446557456	1.543200012125523	0.6146078094223856	-1.0401118967498855	1.805947299212394	1.3656505311818856	1.6249945122699638	1.292703506066987	-1.226892945053028	-0.3086397640065261	-0.6324014647729687	2.7722573210341706	1.1651362151292977	-0.6964659673272858	-2.0086393305609973	0.36248105672871367	-0.7002332192861582	-1.677085872230609	0.2940983466829339	-0.057459778938656794
516	-2.2649919929539304	-1.8990465354656834	-1.2252143590511013	0.9070665217386552	1.3517936433994882	0.9594200229263606	0.2903670661270926	-4.42019842939183	0.5003174530748936	1.2823244300891632	1.3403384651676065	0.36645722296699634	-4.172934044792724	1.4968066177724402	0.18749941838132292	1.3692764009237077	0.5196880685083178	-0.9759491657412265	2.0388314672492958	1.2738856045031695	1.4476975166009576	0.9697191690757423	-1.395757194809792	-0.3826311519022201	-0.69612604203899	2.507000201571434	0.8402430989985852	-1.4447684251548005	-2.375785344801279	-0.03995810066505902	-1.1928287714406063	-2.0555248208601036	-0.09200768149511229	-0.47120350480321493
