time	FP1	FPZ	FP2	F7	F3	FZ	F4	F8	FT7	FC3	FCZ	FC4	FT8	T7	C3	CZ	C4	T8	TP7	CP3	CPZ	CP4	TP8	P7	P3	PZ	P4	P8	PO3	POZ	PO4	O1	OZ	O2
-200	-0.3313158742169136	-0.7313299160612843	-0.5101449476713584	-0.1760686631525763	-0.35453322440281754	0.2420391285269028	-0.29222994969019933	-0.3482580474167077	-1.0176016066608444	-0.3575041285071789	0.05522128553157537	-0.37496742511492853	-0.22066025380213172	-1.113668796588586	-0.7595478277103168	0.09934482698392345	-0.08817756153732179	0.29735004826812317	-0.7232817989208067	-0.9087240673010292	0.08886355884289038	0.6725602729029312	0.333901344886808	-1.2710515228605446	-0.2233828896604692	0.09362021064963327	1.0493451330394399	2.7005174091822153	0.48317727324565557	1.4836686812135083	2.1207985824445705	0.6770367009235507	1.537320371561144	1.9427018116539874
-196	0.03945494060687732	-0.6498283727451748	-0.5535176382394957	0.13200284507325713	-0.12859845128970002	0.41712939633912244	-0.1951352352937689	-0.21534134393206153	-0.8108860829861262	-0.11670730978587063	0.34566700371254083	-0.2209318423653651	-0.063008799989882	-0.7807568888025516	-0.48400440689911534	0.3774410476691843	0.041363041743512616	-0.18888837051385587	-0.0032431806821450033	-0.3543251743907543	0.3775599887375333	0.7970118502521428	0.19995185682358502	-0.6739392263563283	0.2577090554883395	0.4796871530819667	1.1177676887901515	2.299630397712668	0.7592294196987306	1.463229771734472	2.1420121138851522	0.8964765049235041	1.516656394944004	1.8760499906857924
-192	0.5416986928614682	-0.4371539641310488	-0.3969033648483639	0.424766509652589	0.22624632659057187	0.6458856447125267	0.056474011248818116	0.09827557181341673	-0.49566811198021726	0.2674472623271562	0.7484832983193067	0.03797728931256192	0.08733186103706135	-0.3209549180510559	-0.05840743318354813	0.7645179610023644	0.24494191942361906	-0.46801957369896413	0.499833046128027	0.23968833624405778	0.7698206882114189	0.9835073923075319	0.08363772907598256	0.00020590393926650963	0.7579435687002375	0.8947552419960261	1.220957991378437	1.7343834594806609	1.0442513201097958	1.3769438231989661	2.0895204491312063	1.1011785240981484	1.4406805002078462	1.7411495403199013
-188	1.105370518754618	-0.09597135310976548	-0.08549898841252325	0.7118952852395329	0.6597474200757835	0.8777562357675821	0.38846057555350255	0.47216960668561764	-0.10852009030599968	0.7334548216421621	1.1846280068052444	0.3196195951975242	0.1441139277157524	0.10616899254935094	0.4280888129393365	1.1865437000834889	0.46011832240284234	-0.6339535697190012	0.5982215389406856	0.6975455862553767	1.1896349161630255	1.0742746564445165	-0.1062352207601098	0.49570548409239706	1.0893806191596735	1.2290726869069606	1.2285419671512203	1.0659068795949156	1.2231506078356087	1.1848977774268168	1.8858919096062565	1.192095157474563	1.2602972952494518	1.4867984018934728
-184	1.6088379580886483	0.314168869655866	0.2794111363985891	0.9998854373482736	1.0802774402046906	1.0622954341770927	0.7084735614055511	0.8054684976268794	0.2900124482938967	1.17894947231183	1.548655982875908	0.5563462362548152	0.08098667839583958	0.376677482369217	0.8625439383664143	1.5407528838358029	0.636982796968128	-0.8255875685828586	0.32112792053207967	0.9100323296459012	1.535547133383553	0.9531841254010586	-0.4028430868945248	0.6390776618081149	1.153083083102539	1.3939887250037712	1.0489436361532467	0.35622480421727226	1.2300770251688902	0.8891389347516	1.5014098844768216	1.1219505043313487	0.9635269021503057	1.097240922064938
-180	1.926888103388554	0.7053694111181308	0.6020643695889424	1.27339768088227	1.3983596528034046	1.1847999066003425	0.9566826200173173	1.0669498416665621	0.6349300130072464	1.5091235599563089	1.7628325179415487	0.7317472677829479	-0.03596340855816887	0.46427383901680136	1.162008282588672	1.7497595504452579	0.7659224252436609	-1.0924023362235777	-0.11355016351879817	0.8797411300382361	1.7334569648846112	0.6197628959267042	-0.7388485055389142	0.4167719472853069	0.9877393220759001	1.3667170966928037	0.6938275677329645	-0.3280872396291941	1.0736209127022707	0.5478271232125116	0.992275593159723	0.9155244804155737	0.5997503384706697	0.6223155840420549
-176	1.9883830497130917	1.0019658778642613	0.8350024798292298	1.4882036409951493	1.5652776917038764	1.2745459047563241	1.1294357748126334	1.2908078399493366	0.8750945307572124	1.6771159129714999	1.8142359210939332	0.877740202118178	-0.0783577186871107	0.44186311848660625	1.3046060767614232	1.7997157528261496	0.8736312367316711	-1.3254849877270805	-0.4226793636140811	0.7047450524656849	1.772772426897776	0.19667679021770276	-0.9659181212833676	-0.025227384578073525	0.7411868553521939	1.2012023895453805	0.28361985015787583	-0.9097565389552218	0.8267204144585996	0.2563665502751305	0.4914333509912294	0.6549236757909347	0.26881092718920707	0.17190724567879942
-172	1.8085929109687149	1.167081949148433	0.9817441677102381	1.5807244737769988	1.584564681820892	1.377746936180642	1.259628411927471	1.5245377978934658	0.9828303431492377	1.6932508902714611	1.7523406699760946	1.0354787085139023	0.06810074282380113	0.4220645119024529	1.3201055493403937	1.738988991161538	0.991257009387728	-1.29880654483942	-0.40374782579528623	0.5108029233433727	1.703820462693506	-0.134336262602194	-0.9263268685795234	-0.4576528060802555	0.5779737219523167	0.9966731046308591	-0.011546680674606628	-1.3039900031545801	0.585919378708684	0.10225367520264972	0.15229518673116085	0.43598696479393784	0.07577109317722665	-0.12697410551438215
-168	1.476021286098844	1.2007027834141346	1.0638946267923788	1.4931021891090024	1.492847677276454	1.5114936790451734	1.372581120840291	1.7643376544276168	0.9527799463058572	1.600867505800117	1.6482304293026684	1.2093754976256366	0.4236260045800138	0.4739392089798864	1.2516012160172567	1.6380433994898262	1.1184452743902473	-0.8106203058757437	-0.03579636281631728	0.37512048984232527	1.5978471000383947	-0.23172512591984837	-0.5420035706187246	-0.6852662546022665	0.5782960042658035	0.8405037501095299	-0.06339012070386982	-1.4379514419490504	0.421562909015612	0.11721421003550254	0.07411748897197853	0.3183685533114921	0.07443027179522829	-0.19088454496350504
-164	1.0982551546978754	1.1132982941175977	1.077905532976487	1.199903604339004	1.3229666914916782	1.6277145106227768	1.4430746995731394	1.9266008090014621	0.7943708876581026	1.4346979820268446	1.5393166503189213	1.344357844773242	0.8779588319546622	0.5717519507277907	1.1149970264894076	1.534265752733407	1.2068542211580031	0.15734395345062985	0.5182993994978468	0.286582528821279	1.4928582869031974	-0.07337253522229534	0.12511987952590717	-0.63878208237542	0.6885383707782398	0.7573570589971285	0.1412330117236135	-1.2795629469036915	0.346373229344379	0.2560855739803687	0.249973132575246	0.2976040236588699	0.23373413026925305	-0.02420428016631278
-160	0.7384558897447699	0.8985655881129623	0.9768940781724651	0.7217813115970194	1.0764058801177245	1.6177571971103188	1.3915442193184147	1.8747333240860282	0.524276255237609	1.1918760508009218	1.3966900074981718	1.3481276001271887	1.224066492804915	0.609783707509669	0.884830711038112	1.3985329831099738	1.1801840037113007	1.367820617083389	1.001720425937696	0.16496328967883703	1.361003633877639	0.23066100419935998	0.8801206924152074	-0.39166393777190106	0.7537557463688919	0.695388553771046	0.48851078625365885	-0.8598206617581471	0.31722479978578483	0.4160756756291211	0.5676338062260116	0.3135745815466334	0.44804212337861377	0.2786774926302235
-156	0.3854206790729879	0.53105497226151	0.6930096727994216	0.12421876905788731	0.7233021837092685	1.360566135786092	1.1263765068226155	1.4938081465199398	0.16376762050766144	0.8347219207669804	1.1368048162368993	1.1458682984985622	1.2559075323821167	0.4668911981715701	0.5167890774076964	1.1468305558813867	0.9794177388258835	2.4025669037241406	1.189622756815522	-0.07537495325846896	1.1198716135361213	0.49804532402179225	1.4722565375350458	-0.10298616413102574	0.6146190747002197	0.5586721883020127	0.7948071340521122	-0.2734277837525628	0.2679961316971846	0.48832377668114824	0.8642897584074777	0.2902829639735269	0.588768540326399	0.5766900167210302
-152	-0.02307623991504475	-0.005692393504612406	0.18816582811055166	-0.4970380055276314	0.23213702381652876	0.792779384041973	0.6062138065291497	0.7714703659607024	-0.25622114474456803	0.3258061698793991	0.674980102265413	0.7330915313331733	0.8804840423288408	0.08955006278793828	-0.00669730452992397	0.6938494426375418	0.6053495987867332	2.8573126720767505	0.9921736096127698	-0.4562399077817445	0.6848392469281737	0.5724546894879183	1.7061976151304366	0.07869780043759866	0.2121987188465358	0.26886764100856764	0.9017699934126417	0.34567141445624305	0.15368927976429272	0.414403616335781	1.0059168313378677	0.1835909332170118	0.5701628312974463	0.7480282764622402
-148	-0.5348761068191233	-0.6750944239738036	-0.49507376426634003	-1.0373048756159202	-0.3859238614829113	-0.03533878913540277	-0.10999251874332983	-0.16507834154412424	-0.6870240551768995	-0.3230262092540936	-0.006949739047474872	0.19486929427061372	0.17897587969415596	-0.45697077993413504	-0.6366961582321269	0.02037776628952208	0.1327309605108338	2.551218026395708	0.48355111357674296	-0.9039496160572852	0.035199128002466044	0.4044722606460573	1.5326744279312114	0.09504601335370559	-0.36129867939328947	-0.17807543232780754	0.756028531073084	0.8635168649806266	-0.019188562359643176	0.21663449649952113	0.9479625797179833	0.009793089678000235	0.3928402652358958	0.7443063836379273
-144	-1.11518573479429	-1.3605227436048053	-1.2180291383508586	-1.399786230367857	-1.0480766269925328	-0.9530375575799259	-0.8624945857206648	-1.0780755254229575	-1.059351679988358	-1.0209271882030462	-0.8202700594219371	-0.32393133558504505	-0.6147426947331717	-1.0021681760281183	-1.2515089480273773	-0.7865294198205396	-0.31567266503743	1.6330162245528728	-0.15061835906625076	-1.2770305839721579	-0.7460518460511231	0.07089641672354587	1.0694129440010416	-0.005914917666432474	-0.8997161365681567	-0.6940492970109691	0.430056213246793	1.1810730665905258	-0.19468034754715277	-0.016192691359764547	0.744296429662275	-0.16299065906381469	0.139424517398727	0.6031512602836775
-140	-1.6287523466949856	-1.885082836160118	-1.7826937392048805	-1.5134217700894999	-1.609551664103387	-1.7218356089035154	-1.4482639991434727	-1.7028882460515726	-1.2920672860902607	-1.6115670163474443	-1.5845819671678332	-0.6838729364295147	-1.2146184413761323	-1.34064614434316	-1.69172560741551	-1.548771854305059	-0.6236748083580812	0.5167457448310541	-0.7071067076950128	-1.4357707464208036	-1.486276980462294	-0.27551421453533526	0.5399951325134439	-0.12004763602703657	-1.1877820461802158	-1.1323404283544942	0.07448048870832477	1.2542052237316295	-0.2996238760535963	-0.1803709711050853	0.5020945059497405	-0.25491055781855565	-0.07523143272479278	0.4140845526731039
-136	-1.889550442693333	-2.0775785393713178	-2.008183712657485	-1.3515406812877	-1.9151447963045558	-2.1287319606441453	-1.7068406300366499	-1.8566052866790994	-1.3173925843356467	-1.9308481167681435	-2.098082775540863	-0.8159272650145667	-1.4172948563078438	-1.3303070034772353	-1.827449793970117	-2.066746706512923	-0.7356706839107375	-0.3273832789738517	-1.050628897875371	-1.318912145145714	-1.9906458804416316	-0.4958702313301403	0.16052967269421936	-0.16277889866262354	-1.1167591782030981	-1.3578500713398245	-0.17077022747793474	1.094052192786795	-0.2873954169646734	-0.2168722445257687	0.31051245253367366	-0.2228879624938263	-0.17064791874716445	0.2597171061634302
-132	-1.7541735127983105	-1.8532996130882022	-1.8112045480775998	-0.9447876191127484	-1.867165203148715	-2.073388332854187	-1.5891925056388587	-1.517408009512724	-1.1107455463976024	-1.8798381042702834	-2.226128095728444	-0.7476984839635307	-1.1949413984646915	-0.9589894985782349	-1.6184704262879004	-2.206385845335783	-0.6776867491778299	-0.6144447311146918	-1.151314970924386	-0.9808731054336897	-2.1272413676913655	-0.5388147817359369	0.030905624773555233	-0.12238988994453909	-0.7441261987972263	-1.3128315177196597	-0.25136420067266313	0.7544289212252855	-0.16743676322148127	-0.14491070770393696	0.1893604840027686	-0.08877089597224039	-0.1453579660560411	0.1677536364134684
-128	-1.21095764331256	-1.2665607897252151	-1.2495206562919798	-0.38389003179902037	-1.4768604002858734	-1.6086840588962268	-1.1761784523832182	-0.8329388478230264	-0.7104510050956269	-1.4769149981403498	-1.96348452072322	-0.5801146015779539	-0.6974483114753488	-0.35266077429424847	-1.1365995378408111	-1.959969873248268	-0.5367592559614025	-0.38143578075426765	-1.0622858974339526	-0.5674777612663836	-1.8871493291892634	-0.4574579584969767	0.09051273740327509	-0.05866794645875214	-0.2633082860020806	-1.0436494324083734	-0.21775761191702703	0.31709706703235363	-0.0023387407359292916	-0.04990729676997702	0.08693952836497908	0.0707357673051206	-0.07354612629918479	0.10230270747343428
-124	-0.409054486910886	-0.5001457916983739	-0.5032959567714447	0.19503849695554265	-0.8697772600148694	-0.9145333743847508	-0.632951079201055	-0.05373168350601267	-0.21571807508841323	-0.8588301517737704	-1.4362864458060984	-0.4253823150385312	-0.16517274040004892	0.2748418145393217	-0.5379382954367277	-1.4476697408365624	-0.4078469266131078	0.0603482572700825	-0.863224265780163	-0.24322517154797144	-1.3870434726027883	-0.3628258099932241	0.1654362972374191	-0.04711943107867815	0.09946853642384243	-0.6739439947278983	-0.17989757611631316	-0.12008267610749544	0.12706413833008806	-0.03140305719791751	-0.07211860996157951	0.1681294138955061	-0.05523105696800357	-0.0014736712873028306
-120	0.39436536927791327	0.20696330018242395	0.1947585339397395	0.6451059563561884	-0.2393073731579377	-0.2195713216483182	-0.13227927651386628	0.5690855965551403	0.24236932335696362	-0.22758799733875615	-0.8430720546417724	-0.34651708515418117	0.19704455087503842	0.7102643233486617	0.0024022646187689257	-0.8601145722607925	-0.34214633616848167	0.3223474017587829	-0.6058191641770881	-0.11030651601121381	-0.8136846998651993	-0.34541648539118236	0.07979641089558315	-0.1135560047739714	0.20276267775364504	-0.33901616845368254	-0.22776049318030062	-0.4570786047362615	0.16566650527612162	-0.14231246673893164	-0.3203307680148662	0.15410624405576626	-0.15171718559107203	-0.18379262043326133
-116	0.9465982890071638	0.6606485230932228	0.6528232677189977	0.8583286978985412	0.23101136030046515	0.29013696239651815	0.2126882666940013	0.8795873500551038	0.5485230074385073	0.23205771983685533	-0.3671512594490087	-0.3341137758402512	0.31816342392701547	0.8245924690408458	0.35943844823686855	-0.374245910891744	-0.3276398769689619	0.17212894515448174	-0.2935399703720878	-0.16274124342838178	-0.3412598362889755	-0.41655230416986416	-0.23069781006741585	-0.20846489019213682	0.05608563110973254	-0.12090714245310825	-0.36982300784199773	-0.6137389525176883	0.11092741759427144	-0.3562040916032651	-0.6085935815704435	0.042262766403544955	-0.3466396025012077	-0.4239828277850608
-112	1.1090774508131298	0.787662027277702	0.7905992845601726	0.8063032606748513	0.43855059036157723	0.5325784669781225	0.372872977507454	0.8612306692313938	0.6472101791253813	0.42373144519635525	-0.1057619822335298	-0.3302315763242197	0.2748511128638832	0.615227936145063	0.4996888922950017	-0.0862123367993941	-0.31045269887743715	-0.33343130265929605	0.08964764304176982	-0.2992342702940056	-0.06468058361174071	-0.5057082759487037	-0.6696143133423453	-0.23811322390520007	-0.20010435530685783	-0.01935558574975302	-0.5280106054326484	-0.5583476410120302	0.007849468829781358	-0.5817669615362455	-0.8235015848349209	-0.10400421891179966	-0.5558292255673387	-0.6460778100867974
-108	0.908552644343088	0.6498539431377189	0.6580068452434471	0.5521869049436001	0.39432328839880804	0.5389581905109044	0.3830075552330263	0.6157167538356318	0.5627717957593136	0.36735102441546913	-0.04776789235929421	-0.27852255035652107	0.21857117061267348	0.19735920379401328	0.47843128321971995	0.008906804002685668	-0.23943878649817446	-0.8905439354346981	0.5283516632091921	-0.3853405108259674	0.021521024351620906	-0.5110704289884492	-1.0244592402342287	-0.13286375965905808	-0.38508891962100567	0.030018860398438523	-0.5888741597566743	-0.3276048592402448	-0.08338335135388462	-0.7149230223725441	-0.8509895184012322	-0.21364504044952023	-0.6787000877410979	-0.7627077679451061
-104	0.5057144152271	0.3938695182392787	0.39608365197316	0.22355553451362523	0.20171838947865559	0.41252612963474117	0.2970824532160797	0.29445445463224534	0.38386201761604666	0.17132867829458664	-0.106583527951556	-0.16983543293512124	0.2673713856145487	-0.250229328239005	0.3953429748567286	-0.014570555612910664	-0.10785910459943182	-1.1372600765125445	0.9444416737553455	-0.329831956984332	-0.007381056882432118	-0.3724302640095026	-1.0845532389915027	0.0938720700754958	-0.38430297277698167	0.10280915323765093	-0.48007583496956563	-0.02525673241497071	-0.12635871736095233	-0.6990697366230801	-0.6501120312489447	-0.2522886985131177	-0.6603472812192885	-0.7310704570432321
-100	0.1027164680152592	0.16844393270403055	0.16197268623942712	-0.04243699077978355	-0.003413097458656231	0.26517498426244335	0.1529007997228722	0.01975688892085134	0.21951952521213916	-0.031223688195789728	-0.18267753674161863	-0.05251136408899443	0.42781630050411146	-0.5558994398387068	0.33684599314521213	-0.07105093431415535	0.03610540917340712	-0.8752079583959337	1.2074832885773743	-0.1334851380792727	-0.06406064315357766	-0.1185820546732577	-0.7669596652694235	0.33684146319222064	-0.21112492627245702	0.23224119783417194	-0.22317570391575303	0.21004924125091137	-0.1298154589236513	-0.5581861124250966	-0.2917159490372765	-0.2414237701757953	-0.5261787162847467	-0.5860468730435368
-96	-0.1583071496066071	0.054903626303337234	0.05590541646670914	-0.15891395469121095	-0.11957921057551003	0.1659959997516081	-0.033964872274476435	-0.16041074652703152	0.14749149940922834	-0.14783833883630065	-0.21760873441591516	-0.0004325414472980492	0.5915601238574064	-0.6173431857735117	0.3354474297637334	-0.11169286789112502	0.11758170992251796	-0.19368152271485095	1.1902596920479838	0.1158058789428859	-0.09808423345359021	0.1423947509508363	-0.17719908013904875	0.4511729765468261	0.008465532192076065	0.38732203743419996	0.0719666553706889	0.26121586495252336	-0.1391636874738484	-0.383189796433967	0.06656814349772215	-0.24132400690185438	-0.36767959501896386	-0.4267834712220511
-92	-0.2526706450758741	0.0440985484797988	0.0829063130312098	-0.1252384033617438	-0.12125947295806663	0.12178407578715214	-0.25395846302763975	-0.2677555971538008	0.18129934324744046	-0.16203539032557251	-0.21269956177415772	-0.06356216205999903	0.6125058516296883	-0.43484440336112307	0.36343592313560463	-0.13828496600046578	0.08078535625803838	0.5798200354242177	0.8446134307517724	0.29669257923558817	-0.11135998340147552	0.2839519076330812	0.43454712519605637	0.3376793256817129	0.11730389267392129	0.4940531837387501	0.2678239338788633	0.08943974204131816	-0.20355096407997056	-0.2794144444563658	0.2582485371268395	-0.3084096602759517	-0.2877058677562022	-0.3621507873928471
-88	-0.2596331828237983	0.06541544182474057	0.1650642301445093	-0.01857043052991547	-0.056528556949230487	0.09187521762301402	-0.4812055516014638	-0.35535460620807097	0.27160742810339594	-0.12374378709545203	-0.20912590570102702	-0.2314227366565051	0.4065340449082773	-0.10299346569999228	0.3619710495869807	-0.18248024536791022	-0.07463905196418817	1.0655140849868374	0.25071027811648333	0.32467716850323647	-0.13850310409863176	0.23440514445727906	0.7979156354785902	0.005090541659109164	0.02315842540675677	0.48307722684965265	0.2760766439620158	-0.24060873626519438	-0.3414884797057566	-0.30785870474336136	0.19372789512836913	-0.45608571056609987	-0.34006860766382446	-0.4483685482149021
-84	-0.2982596747497438	0.04040357832840497	0.1928535545963664	0.050334107003684514	-0.010232335862015166	0.020801342971258664	-0.672052143307504	-0.45875438931989065	0.3392020455379453	-0.10930552305996377	-0.2508671873434584	-0.4367430199086824	0.01231720481683391	0.22936154844073128	0.28224557566908176	-0.27226924827498855	-0.29253369495920784	1.0434780094504321	-0.3961390246880165	0.19607031295864435	-0.21310049241622714	0.016592962625452796	0.7596621494187074	-0.42995747815297186	-0.24955706235344186	0.3311117283090733	0.10276946399491131	-0.5856154546257417	-0.5277723656680827	-0.4552699912020857	-0.09675227826247981	-0.6447669251375618	-0.5010018932091214	-0.6560887677794177
-80	-0.4529286909588972	-0.07194899749471877	0.08876585937976958	-0.00579960503082502	-0.05308416472383975	-0.12980940905222185	-0.7875061611320079	-0.5708159193886013	0.32185554423133816	-0.17395037368725186	-0.35471278339475004	-0.5963751062594953	-0.42258179081083014	0.4215168942299616	0.11688000679309071	-0.40841987625956466	-0.49437445277327835	0.5694161639142301	-0.8599222280725879	-0.013754603418253483	-0.34240555676795537	-0.26948618820816256	0.35988736061786103	-0.8004600981529827	-0.5773163423267487	0.07276877742514795	-0.16429641801361244	-0.7916246632616548	-0.7082016450167723	-0.6480862481920782	-0.4872105109311666	-0.8061088899287294	-0.6881031972678334	-0.8874202944284855
-76	-0.7243146282028671	-0.25589904124501506	-0.14396780692945446	-0.20706385321790616	-0.20157267102370885	-0.3601874103989028	-0.8159475305937391	-0.6463531239403199	0.21034176594556925	-0.32021984377121926	-0.5008284436932628	-0.6590988023329752	-0.718083975886292	0.39967727560224	-0.09232046431836205	-0.5618759379506013	-0.6228107794295986	-0.06722108257726565	-0.9665813421641088	-0.19350220214149694	-0.5020682799061055	-0.5071934448788225	-0.19371570597854335	-0.9732048486934066	-0.8096958974422561	-0.2210063183688239	-0.41421607032146873	-0.7712388019163346	-0.831436155127388	-0.8001779893699731	-0.8313131311408822	-0.884633181245825	-0.8136461952647716	-1.0331555578850022
-72	-1.0314725611393734	-0.4519983220609471	-0.4143634130029815	-0.497421114380958	-0.40961205855902966	-0.6308562143610681	-0.7816377262408184	-0.6325495227102169	0.05415234701074322	-0.49829965704040674	-0.6472137554040588	-0.633061824630768	-0.7549124341024827	0.18760885250885423	-0.2754939489561628	-0.692006765048963	-0.6704124195338728	-0.515006540905544	-0.6882485133914289	-0.2579077177688743	-0.6520968063103094	-0.6303951128302498	-0.6398829205569974	-0.9113811231491181	-0.8534574487119263	-0.4832354771811318	-0.5808067307113384	-0.548321245716452	-0.8771424271372349	-0.8638033249026938	-1.044448611483504	-0.8698130228016444	-0.8379311540428744	-1.035959479577447
-68	-1.2580666510290093	-0.5889010414514002	-0.5838781580488596	-0.7753393630479495	-0.5925183281243963	-0.8757009484116263	-0.727282343458741	-0.5090470897220123	-0.06684735400488694	-0.6336188896394324	-0.7523738722879081	-0.5748519286900874	-0.5339529500831728	-0.10729248794646633	-0.3696730425561215	-0.7684835176139038	-0.6752899272081733	-0.5592268691248921	-0.15991499979652504	-0.1897603864647182	-0.7580999116830887	-0.6547762735047773	-0.7991183976024762	-0.6775805337011083	-0.7167729121231227	-0.681804118819229	-0.6755118353001118	-0.2450025075448803	-0.861505863875627	-0.8519985058254426	-1.141841051079836	-0.7972195128340159	-0.7887675742262047	-0.9211448407758343
-64	-1.3082139459005686	-0.6112381800478058	-0.5324849472907061	-0.9409679746712508	-0.6679064018552634	-1.0227718327448978	-0.6813999397240275	-0.3008898191007846	-0.08562365152675624	-0.6635764224464873	-0.7905697206564386	-0.5478954897398963	-0.1639467324647593	-0.3445411613825433	-0.34830197603979623	-0.7815423588094185	-0.6874181014825147	-0.22939868213433262	0.38309180639820367	-0.04157218699092083	-0.8027716258761811	-0.6558484418522901	-0.656990347634014	-0.38308674000341053	-0.4921883630246931	-0.8230957964143145	-0.7662556748117588	-0.01778434212486051	-0.8190705755535056	-0.8208006003637434	-1.2110882966935776	-0.7202410679752673	-0.7365511041164919	-0.7773565034313454
-60	-1.1455728978798012	-0.4955753671531809	-0.22342617753362803	-0.9380018687407817	-0.5933681115428135	-1.0185348961863812	-0.6347002371022173	-0.07198649626676841	0.015518219171027725	-0.5654115662604613	-0.7534012775473076	-0.5773697480883325	0.2012216145680293	-0.414808510686718	-0.23285546840051505	-0.7368062716001311	-0.7285947185240921	0.23268991650006937	0.7161616068878497	0.09931986753898676	-0.7832645158065659	-0.7096415144169761	-0.3545061340918355	-0.12112627892907171	-0.29395332858256146	-0.9292163825416495	-0.9183371043861336	0.022890949564002516	-0.7756339888063304	-0.8242222645930806	-1.3383761610572653	-0.6729122383294412	-0.7417945247041448	-0.6987433415891141
-56	-0.803360400555786	-0.2545786493549619	0.2650240056976084	-0.773465631439521	-0.38468262456092	-0.8492351152913428	-0.5455081449087351	0.09373690164264768	0.19358619998693458	-0.36418667343697764	-0.643038330838795	-0.6331101639975588	0.4342099715237356	-0.29283600971674534	-0.0811028478482135	-0.6426068528163554	-0.7748230080115639	0.5207467662061454	0.7286188584051652	0.1617939766136805	-0.7014297825270032	-0.835130212582661	-0.09484949684037729	0.07571668158726469	-0.19019150685929015	-1.007343885739477	-1.1377813787344337	-0.1350184526610872	-0.7304280381834649	-0.8712728001531529	-1.5364234408688284	-0.6482125504340384	-0.8091585615709627	-0.7237111907806846
-52	-0.36784347798936007	0.06486475451305108	0.760958550439299	-0.5079849349547966	-0.10806623819008393	-0.5526643977516902	-0.37622237110518353	0.12490060893949331	0.36607926991542983	-0.12017755180057713	-0.46720752002059446	-0.6500446183958739	0.47730558990133404	-0.047955576209347164	0.041891116543147526	-0.5024665581414891	-0.7711475472054139	0.43679195532191945	0.46652632833949875	0.1295835968560604	-0.5583941922394822	-0.974169192238793	-0.024300491375963098	0.22923116328061433	-0.17011347370113525	-1.0337789032584894	-1.353788849273662	-0.4071251739713448	-0.6591001732398016	-0.9119803882461769	-1.7209604935111327	-0.6055051073045595	-0.8771159030703768	-0.8078290203679596
-48	0.05373229817891037	0.38966563245620656	1.0682074996681477	-0.2253493064912894	0.1494548615020115	-0.21040008909033472	-0.13199831512026564	-0.010676101754473295	0.45134469752799045	0.09745252107811375	-0.2392766320624724	-0.5697824940600947	0.34204181942413187	0.19504235635628211	0.09437968558086322	-0.317290156278616	-0.667306600316403	-0.005215647151563974	0.0924946737934395	0.04624278459198652	-0.3575611105474403	-1.020353910731044	-0.15402001103615517	0.3746461858827226	-0.164125546398634	-0.9642047261689801	-1.4509854280077565	-0.6655074341184003	-0.5347136841625204	-0.8625516869702156	-1.752808924064268	-0.5014101254201573	-0.851089654204202	-0.8474051930967136
-44	0.36622080114409167	0.636769233526437	1.0541899177638414	0.0012735263412329831	0.31648668566907234	0.07873412201791696	0.12727250126653555	-0.2937494806979443	0.40754791991334693	0.23733587503116324	0.016546849119609713	-0.37917557263009133	0.07959037999085658	0.3209633521082703	0.07538878153602195	-0.09579361205949402	-0.45347449068972745	-0.5997112378237959	-0.21108213013761634	-0.012885640342783028	-0.11421325028908906	-0.8803461171811788	-0.36461517122718606	0.5182092176705293	-0.09846109126981174	-0.7645421008834374	-1.333937999218495	-0.8118011334904077	-0.351166664667436	-0.6552919132854274	-1.5224772653287828	-0.3224286130870843	-0.6603001339453902	-0.740792749441934
-40	0.5124449716981442	0.7388923745573581	0.7160052639049985	0.13376615907751796	0.36371290591917654	0.23619654715031937	0.3132936052518716	-0.652950344821338	0.2510407560686061	0.28188142109274594	0.2624959939051324	-0.12089640616649519	-0.2482041859320681	0.2814920835540561	0.02154486807211601	0.13670098747072013	-0.17227576629535404	-1.0709441873214554	-0.3427412203241605	0.01574648726481223	0.1377556916573578	-0.5296919332482277	-0.4844236063647623	0.623110411978128	0.05056874441254073	-0.44165646918369167	-0.9840196346234383	-0.8239622691332268	-0.13312527503734986	-0.28362768816864403	-1.0265691254446612	-0.09793829148122614	-0.30436426324293714	-0.45157378797960623
-36	0.48628339048634855	0.6737548095858589	0.18994317900862165	0.17393314794495526	0.3100719742098956	0.23651738405117406	0.3623125245960368	-0.9789365505298266	0.04579255345823173	0.24809086260147503	0.45442169789978415	0.12975503471516278	-0.5781943187420735	0.11714011401165321	-0.014530984648137735	0.3405701211436984	0.10021811698406465	-1.2182685106036721	-0.3278341583081168	0.14976811371183768	0.3509388557156797	-0.031859651127486004	-0.3926774551491029	0.6354047640016837	0.23783031045948796	-0.05337541536921876	-0.4753585445800169	-0.751328287611898	0.0741426942860743	0.18401195062431983	-0.38811990520714895	0.11450682551560845	0.13781534100546616	-0.03621990224515098
-32	0.3317269078462469	0.48146730539833404	-0.3052389316004853	0.15186327657504767	0.20727951772332023	0.11662060737968313	0.28045999933005356	-1.1530133456683278	-0.12926138904837933	0.1744817043905994	0.5562971816322888	0.30563899797520766	-0.8414437749599093	-0.0672183780165158	0.005407888428624302	0.47510966538638566	0.29226496741891644	-1.0094482873226038	-0.2841217808702622	0.3527651122246644	0.48040392873590343	0.4876155244913928	-0.0909844113079337	0.5283058272374755	0.37642276192041246	0.3090166441744894	0.05683061838702834	-0.6649389250179679	0.22694075050277432	0.6290996654839722	0.19351921926753735	0.2607554786774406	0.5417398796709041	0.37908610605850934
-28	0.12433436481555674	0.25305205519682883	-0.5693863615919176	0.10510212156462923	0.11068155588577429	-0.04504020873261505	0.14675866030356516	-1.0888199778723318	-0.218323513314257	0.10028019522144148	0.5546326027218491	0.3809667816080366	-0.9610301827962577	-0.16011342365848136	0.08203619697839487	0.5154914246895677	0.37083288933587744	-0.5751292691015271	-0.33422678624646	0.5542959556890077	0.5023790585231798	0.8961632825160002	0.2989022426211226	0.3332361570527941	0.3922602822413732	0.557203231835232	0.4769893872615989	-0.5974318966086949	0.30294588131712064	0.9341514683026576	0.5381491766694106	0.3179036668857401	0.7948710898357948	0.6602851135749447
-24	-0.060756824757244476	0.0889037174722064	-0.5187405930773603	0.05701143280178827	0.05040346818357645	-0.17157451765134205	0.06565009786004823	-0.7752674202418872	-0.21320410018974637	0.045707058046097884	0.4628139424560036	0.37529614473003486	-0.8733747579458502	-0.1030442488572127	0.17294974581445013	0.46203559520416926	0.35067444951212356	-0.1242185678922117	-0.5137634860418917	0.6851496083127355	0.4234838773049057	1.105515238831767	0.6017972811763782	0.13470937277638476	0.27242752840879	0.6401544197132637	0.7027966958421861	-0.5166629539796701	0.30522945446198996	1.0306818459237794	0.5707493410005553	0.2998022429526363	0.8440170862823002	0.7288973909094973
-20	-0.17762376323200119	0.04850013914380144	-0.2277112746450016	0.008112652206800046	0.01968734333909009	-0.22694913985650528	0.10302867714380444	-0.30008727236323257	-0.15340587458026247	0.004992670366973787	0.31379550616193563	0.33300936137999637	-0.5676970467539586	0.08253266641521742	0.20995590037742878	0.33797678266071346	0.2788358621709919	0.1677627857264183	-0.7331883292760442	0.707736907602632	0.27618595888025793	1.0952085228925181	0.6793029291168341	0.03162115431789032	0.07648815940380597	0.5587371573646539	0.7256480437077708	-0.35118731767679856	0.2504907542103298	0.9206790900827353	0.34997090608929354	0.23958595036575334	0.7090488058308261	0.5927689656550441
-16	-0.22453218641812658	0.11920165240471416	0.11051658513061371	-0.058669924587895626	-0.013636321726285651	-0.22782117070852875	0.24421015320155912	0.1670120503262065	-0.10203863654600422	-0.04429040092968521	0.1466719802491194	0.29396623298812274	-0.11263899476699785	0.31384909073745343	0.1340406533671768	0.17908389821137743	0.2069468791028298	0.23941293298356842	-0.8208053687353134	0.6282757504813221	0.10465477380555817	0.9038698054381324	0.5002287017590471	0.08881976433025224	-0.09403987205127606	0.35643824844967403	0.5950445517775337	-0.05043254407428254	0.15469454189821405	0.6657679660200557	0.026926286450591422	0.16538006025521548	0.461393265751369	0.3312414280157771
-12	-0.23548930823952258	0.22463837209252585	0.28683718966543886	-0.16222949285079352	-0.08065319785974381	-0.22200138810851436	0.40251433747709614	0.43531709799532087	-0.1110186946569339	-0.12192977934093772	-0.0057844444963324184	0.2731096141595551	0.35236102253642987	0.4928665148689129	-0.06901139003496098	0.021089404768150244	0.16662795799624364	0.15105922482021886	-0.622305093624601	0.49096476907751074	-0.051494434345887796	0.5983478411826457	0.15117983481861735	0.3091029218975839	-0.14851205013449595	0.09460102742867779	0.38030898474995617	0.3558891108587448	0.02873153604763616	0.35320493489735155	-0.2417369478798157	0.08756152518338167	0.1832713629148554	0.04587190586667893
-8	-0.2533794039051088	0.27200624278058116	0.1897404487110912	-0.3059996954821553	-0.1852987403959657	-0.2481670820407891	0.47713279603656644	0.3784417202454695	-0.19290231119566958	-0.22644543590594138	-0.12300246922909096	0.2621357136306972	0.6723617298316856	0.5570642338039667	-0.3516111067000816	-0.10867505493144386	0.16276498097810363	0.026497516714191892	-0.10195889298207668	0.35713660626842175	-0.1674920316282097	0.24333822665766372	-0.2141797090129668	0.6377286298863194	-0.05272322507302336	-0.17153827802741012	0.13600990141861669	0.7447801213534061	-0.11424285889630648	0.05974492415602807	-0.3746524145680859	0.004576692346104303	-0.06688663346569475	-0.19149814497759612
-4	-0.29779943748627263	0.2105935210633037	-0.1345693167626774	-0.46615320326414683	-0.2958639852683351	-0.3041920654246158	0.4202933002827793	0.00408043571648951	-0.31354093472474265	-0.3296779981872659	-0.19557318042015034	0.2468085133758537	0.7541173081431864	0.5085299002206021	-0.6159517749493879	-0.19368997167322655	0.18342922581614446	-0.026651371203129923	0.6146849378325302	0.2807386212413526	-0.23473904967646778	-0.11190625996946275	-0.4535126078599651	0.9910463665736235	0.15821087320437674	-0.4033356000730604	-0.10973200919341611	0.9526030397206104	-0.24675416884111695	-0.16787932770782116	-0.39409109850567176	-0.0788759214674796	-0.26475647025020954	-0.36209317950381714
0	-0.351979224985285	0.061620369397989504	-0.5114207850895545	-0.5983533844145958	-0.36330020335979374	-0.3493825188398788	0.2685181193724872	-0.5347368107646349	-0.4113636602506217	-0.39232009550225433	-0.22368083837778793	0.22309492472112513	0.6167731865569637	0.4033479382344977	-0.7553966622354155	-0.22927725257207052	0.21385976618178146	0.0262039787405754	1.2880346742535183	0.29023995922243	-0.2578644149945543	-0.43043586503073133	-0.5004369007827218	1.2922332254208964	0.4042252589987317	-0.5759062156442126	-0.344681053483478	0.8667224623731985	-0.322957663912775	-0.3108604244489938	-0.39036187431007	-0.1368867155433713	-0.406025438475693	-0.4855160402914475
4	-0.3795391311599809	-0.1021297720476357	-0.7429194431621505	-0.6615589244352236	-0.3573873332060364	-0.342967986194636	0.11579111934276066	-1.004550812092354	-0.4340060640344738	-0.3933521201216122	-0.22036419753227982	0.20163857885950284	0.3799221208040182	0.31178632299859704	-0.7098536473471961	-0.2264772945884934	0.24566985604726185	0.13708539272506728	1.6729444223127814	0.37860029840249404	-0.2537648969442204	-0.6773018819874869	-0.38314300678793645	1.4898298941190953	0.6029190405882189	-0.6717236025063315	-0.5527321682326287	0.5075036274494504	-0.29428687617388244	-0.3658051481547999	-0.4484036255482638	-0.12785306540634328	-0.48616877075473486	-0.5822775349221024
8	-0.3578610709215151	-0.21332590228103734	-0.7289731484128156	-0.6429360492686187	-0.2978624395956411	-0.29221826717985283	0.0453303231644559	-1.2039900987744871	-0.3716891100559142	-0.3548044553381831	-0.21589389388889554	0.1977745289577596	0.19525517473991533	0.2803528599813403	-0.5039629327447973	-0.21564732437524348	0.27633789111940676	0.216696008492774	1.6362931687050606	0.5060124980548693	-0.2518973046141883	-0.8137127736528176	-0.19162765096920487	1.556938286665117	0.7069811803134328	-0.6797733885768585	-0.7011187058867058	0.047081407040697756	-0.13932271266570764	-0.3350424758081518	-0.5841680750403151	-0.02080068173223236	-0.49210518474311904	-0.6425189955701783
12	-0.3095662586025756	-0.26874032548764887	-0.5348232971039857	-0.573174892408921	-0.2601999633895365	-0.27474254300369894	0.06519182754984966	-1.06855988232717	-0.2706063680969207	-0.3453973821025801	-0.2568778091144006	0.21511806493329663	0.15591673513624768	0.3075595788343113	-0.2479142242371291	-0.24460062322849688	0.3016415826811162	0.19584773431445382	1.2175757854238414	0.6109085067583855	-0.2926805608035636	-0.8038242439002569	-0.016330113593237553	1.4824862442734394	0.7142147403804664	-0.6045041665073736	-0.7450560312533748	-0.25764530832091315	0.1106385213323551	-0.22810235561954675	-0.7314048390995778	0.17421589747789465	-0.41308343306198403	-0.6244252308339088
16	-0.305009125893134	-0.345728634915083	-0.36385461596177227	-0.5161741958937459	-0.34620880993218117	-0.41273742809993647	0.09247749275462637	-0.7114108782926664	-0.2162665570282516	-0.45454978828108306	-0.3941835751118073	0.2365942740427402	0.23925472735557277	0.3523159614250934	-0.09472588425800581	-0.366107135086792	0.3097976736353318	0.06804252398716376	0.5988177642008685	0.6277856810932162	-0.4188505698596335	-0.6318745597144846	0.1051876765814077	1.2644041744733967	0.6497129185485364	-0.47771489499597325	-0.6486222131565452	-0.18995529365264166	0.36914002802156326	-0.07196221482466435	-0.7864053229504305	0.3933666636549007	-0.26259800725440796	-0.4849532532368992
20	-0.42925429235800955	-0.5600484595464017	-0.4460800278845289	-0.5375615940826983	-0.6321377142205035	-0.8086242059319003	-0.001851680101808357	-0.3737016310793517	-0.2926280491116491	-0.7472838144508752	-0.6621606333227119	0.2273079896194695	0.3192231349038016	0.3648398807374219	-0.17089296834237858	-0.6174247249273584	0.27996215153582404	-0.10941630574257973	0.007963985184589526	0.5091230260392644	-0.6602880342025313	-0.320788293267007	0.20209781774517657	0.919604001107636	0.5375074134607343	-0.3610040834372309	-0.41111755267296546	0.30852326672860675	0.5241038786053538	0.08281011858536577	-0.6815340501744336	0.5381026850466032	-0.09168848372198478	-0.22215931061444805
24	-0.731256244720528	-0.9882882808528954	-0.9051392055547091	-0.6680108887972909	-1.121676680593942	-1.4764203987992524	-0.3147191397350431	-0.30277457756846865	-0.5361219034964284	-1.2233756749737124	-1.0577274534223293	0.14807887337968445	0.24323657093625595	0.3171425155738801	-0.5140187131301756	-0.9999351476218908	0.1867956216387532	-0.2542995506065058	-0.391848116123792	0.24425139961563955	-1.0176284287509256	0.06192373096209824	0.3366295686805791	0.49675547951210935	0.3816887130637334	-0.32876482522929	-0.08125612864244702	1.0931228371678035	0.48850935574218785	0.17222166017919577	-0.4376351226247833	0.5200124369843665	0.022568594607355028	0.10325509283699272
28	-1.1878701418449713	-1.6057701070298045	-1.6833088355480275	-0.8839765764806371	-1.7339708761305672	-2.314019674180855	-0.8496460297113868	-0.6252295359084772	-0.9114190317030996	-1.8073453857567157	-1.534444685876571	-0.029548518285058264	-0.07251572590639294	0.2138675147855827	-1.0515824529800804	-1.4723919592876336	0.007703143152517509	-0.31307041566007365	-0.5661272392284725	-0.1322447952269508	-1.4560548030331046	0.4166922558754434	0.5465994463471724	0.0770860461434578	0.16914300577851374	-0.4362099755718019	0.250171243512818	1.8727128458425333	0.24683560368683571	0.1469679918154878	-0.1590052988090986	0.3092072300256775	0.01391689289572851	0.3880082657077665
32	-1.707682009200175	-2.2827551307264655	-2.566589110570156	-1.1194766731608368	-2.334904426401686	-3.138203612987442	-1.5103483161940612	-1.2816665140217935	-1.3211880888960712	-2.376649373729762	-2.017789597185234	-0.3156833938734625	-0.5865909442396728	0.08534993209747753	-1.6338360268350436	-1.963966960716814	-0.27194777062420417	-0.29636982008494434	-0.5941618069906388	-0.5488195405455162	-1.9151169013308713	0.6399418695505313	0.8002114871802523	-0.2438658320707222	-0.1090330478776416	-0.687461910896314	0.47829368589760335	2.344197505754444	-0.13023145463964964	0.004306708451662942	0.029334053323117285	-0.04242686916606818	-0.13051752713152687	0.5400192127898723
36	-2.1748454515860693	-2.847404234372885	-3.29815267683837	-1.3027948108205616	-2.796929590793046	-3.765951862363834	-2.1548142378762676	-2.0607945867006805	-1.6474691587815191	-2.815296404406342	-2.434456819109935	-0.7006058675243532	-1.1489821643430564	-0.0313142127498138	-2.1040737575814012	-2.401142591136184	-0.6529142244066953	-0.27601420809677124	-0.5959341510985603	-0.9198794341704476	-2.3302252233800527	0.6603068096655882	0.9932972167685938	-0.39192414184801105	-0.43321192155181387	-1.0218464110324514	0.5245431052315946	2.338216298875624	-0.5134940730481871	-0.19613900731157458	0.06527557207554766	-0.41849458111961124	-0.3481193474086655	0.5363518582153913
40	-2.505778067938045	-3.176719419088319	-3.7101707364823286	-1.3993003333048748	-3.0537578982500855	-4.095472325475356	-2.6658165387559105	-2.7059991291390784	-1.804801101896257	-3.0625433844492176	-2.739131443737434	-1.1509975165871136	-1.5780873258802144	-0.11176411034261294	-2.368571752290195	-2.7333388259542075	-1.1105216713523913	-0.34014913353871273	-0.646363733567063	-1.174167510882863	-2.6542036466343513	0.4693612146448261	0.9984370444838885	-0.34926879317793447	-0.7467149477225751	-1.3305141892219514	0.37303653265230474	1.899827117891691	-0.7730312327894947	-0.3494296363114548	-0.001438356350269826	-0.6892930847884803	-0.5196746574632772	0.4462576795278334
44	-2.684028380293182	-3.260394564979965	-3.798507442420799	-1.4329390489639637	-3.120718709696016	-4.1424031153043765	-2.994764082023298	-3.0365693492517343	-1.7777726605353592	-3.1311535756212083	-2.9241509363733322	-1.6070861775831224	-1.7544442370941968	-0.15423077305954883	-2.4327514110179274	-2.943999759870582	-1.585494752695619	-0.5386614785899617	-0.727799890588019	-1.2799937692750403	-2.8675544189533584	0.13067264821916316	0.7382978182272247	-0.16628543990590663	-0.9733560060721754	-1.5012479982620204	0.08381023981868818	1.2606130806566744	-0.8377580621548838	-0.3551114192580014	-0.03320926046927625	-0.7719091157497863	-0.5276816473989636	0.3965798904419846
48	-2.7474450995697155	-3.192516318843968	-3.6964981462611113	-1.4671044312629584	-3.0683989447371682	-4.009611119637447	-3.152498237279965	-3.018495552071414	-1.6225428540272524	-3.083650819622367	-3.0060765667359477	-1.9822784612198985	-1.6726708369939531	-0.17400443509992664	-2.38183473939355	-3.041110269497838	-1.9832934091085712	-0.8492976405635543	-0.7524429540710283	-1.2527667252382522	-2.971713535435377	-0.23866164624039382	0.2420812690106526	0.06206210686988524	-1.0517843935160696	-1.4705321751660474	-0.2256318474079726	0.7172275763523214	-0.7242446523500774	-0.1761634345375299	0.10611483427912864	-0.6665056927065781	-0.3250848344701485	0.49407866472432727
52	-2.7392375400048663	-3.0973591726303593	-3.569347372580061	-1.5551987847163837	-2.9691331311602758	-3.8143334292430247	-3.165798656100144	-2.748594038699505	-1.431396361551782	-2.984311811541875	-3.0018889828231807	-2.1784760896994615	-1.4257339203124162	-0.18764665675470757	-2.3183951319334803	-3.0376069469053646	-2.1947269384285737	-1.1843229502340542	-0.6324570759064038	-1.1387928695537184	-2.9739069863575733	-0.5119873272367141	-0.35068178088341245	0.24359610615263338	-0.9655230020941491	-1.2575367657382939	-0.42851090323024776	0.48137527582703316	-0.5213467465589396	0.12490653215105291	0.4456388343050154	-0.45165258531980035	0.022777324484896003	0.7474134545529344
56	-2.6610989503431384	-3.0403461379537466	-3.501222363215317	-1.6921771722031882	-2.852984659621247	-3.622146358881693	-3.039692155792922	-2.3789105355282523	-1.282602068523826	-2.860475771357705	-2.91538285473043	-2.1214022582853316	-1.144470927209976	-0.2023456240552046	-2.297555917661143	-2.9397602007077017	-2.1389982646343384	-1.437437769121673	-0.3495936086888179	-0.9869558786269503	-2.8789319919379386	-0.6076492055810065	-0.8486375191243335	0.3311560443623519	-0.7521381359184166	-0.9621412133720659	-0.4490519154655266	0.5782178625767003	-0.3408855489230534	0.39756712217090684	0.8518695213744742	-0.24248997805884556	0.35130479843135426	1.0372581455745342
60	-2.4659345087735036	-2.9855019970857453	-3.4481654080117483	-1.8019752456945906	-2.702321045728565	-3.430780878941871	-2.7616767813575147	-2.0288288542069233	-1.2034116953030471	-2.6989967754885447	-2.746343367318469	-1.806409235208237	-0.9285960174003934	-0.2190451467467307	-2.298263782420708	-2.7547328402587135	-1.8141384078953267	-1.5447678526977364	0.016551680821114616	-0.8244726637051498	-2.6967859200101176	-0.529279528712068	-1.1003602715367378	0.338202892880098	-0.48584824677826444	-0.7250951510242302	-0.30584904474286584	0.8483595826664475	-0.2598210864659783	0.46593925239226575	1.0685874196729868	-0.13245154883799343	0.46705055118897476	1.1629815072261074
64	-2.1038908905316918	-2.8340332436534696	-3.290168753900154	-1.7774152710861884	-2.4895765718546823	-3.213807336322562	-2.35182237031344	-1.7460248426223506	-1.1672317952250202	-2.4814307627016645	-2.519579881028809	-1.332148906205434	-0.818028090319016	-0.24314057765608754	-2.2474248352529216	-2.514949076978611	-1.329245683175044	-1.52725123973537	0.3223726145234592	-0.6497854574010449	-2.463899367787431	-0.3712573638125737	-1.0727781030272745	0.31956982531926237	-0.24208143292342532	-0.6688590032856586	-0.11421619326841742	1.0482416126488545	-0.28629690336423647	0.21524165516392638	0.8425379970259332	-0.1510232683183489	0.24303303597602308	0.9480751728916796
68	-1.5976715047553296	-2.52303432781269	-2.949293844406166	-1.5554239710637767	-2.2324957791230116	-2.9908196850606004	-1.9180645894261512	-1.5309536418408904	-1.126478430764924	-2.233702415548798	-2.3115348757557324	-0.8920523501762206	-0.8122727254386799	-0.2912334494390379	-2.084388012391845	-2.2999107779609838	-0.8885743595577129	-1.4845398626993458	0.4330278624092122	-0.4501383293231047	-2.260805839552634	-0.2779817574158393	-0.867259500221269	0.32746949709230166	-0.06700252724658728	-0.8463122823328714	-0.036083158014510584	0.993068692561102	-0.3650559177718649	-0.33888858471186295	0.07634813319242092	-0.2571703189078973	-0.30691730898615566	0.3527764669094654
72	-1.0931224795399357	-2.118948454275414	-2.4954907831129436	-1.184468981613385	-2.026652569422379	-2.868401758581346	-1.662939067456756	-1.3964995110539506	-1.0608980628885065	-2.0531067796369604	-2.2473921719076673	-0.713512776480719	-0.9127277112804839	-0.3924651136026267	-1.8236652566643035	-2.2313921395231366	-0.7215704899689811	-1.5447397193054735	0.2869727604296382	-0.23084898234734577	-2.2049653474450825	-0.37017682101249116	-0.6593050344033774	0.3731313338395807	0.03131579227289636	-1.21934461285773	-0.19461397777536293	0.6662988645897298	-0.41322767630197627	-1.0341190073607192	-1.0726350518801746	-0.3657096317117885	-1.012734410590064	-0.46633627893011226
76	-0.838556049137122	-1.8362246705425063	-2.162850136064597	-0.8394588806892553	-2.025431866300461	-3.014030687351852	-1.8162442399899246	-1.4125908577540465	-1.0099198792708761	-2.0863201565520058	-2.4582910475653845	-0.9633898114676684	-1.1510863275076046	-0.5802408442152696	-1.575549836949243	-2.4333717761591833	-0.9836728548010106	-1.796585078471871	-0.08121431598424265	-0.03830823665126112	-2.411891215910682	-0.6731147153072321	-0.5961517676560858	0.4173372377349295	0.0671169383619448	-1.6770570235826106	-0.5950459822890046	0.23769119321893345	-0.36528247502608413	-1.6124806363402546	-2.2110874597037955	-0.39114603301475526	-1.6047384698406368	-1.190866348120976
80	-1.0896462174561221	-1.9558433244915967	-2.2549784126569463	-0.7635493855272096	-2.371543401452614	-3.569071522284737	-2.5164179738407473	-1.6921524958803136	-1.0674734088649473	-2.4635555681972345	-3.0139384193619727	-1.6615157085431131	-1.5720748861676113	-0.8814935065902082	-1.5072002372835525	-2.9700875207300097	-1.6729474025450126	-2.2417759838725306	-0.5713834748147196	0.04134671379617568	-2.9376182481984614	-1.083146092541198	-0.7105151396932433	0.3950293650190347	0.05056059720267857	-2.082099670875406	-1.0937104197545158	-0.01571032959726665	-0.19999845275452052	-1.8170655919928558	-2.848591082056656	-0.28342139649359727	-1.8171093418020103	-1.4605206214269808
84	-1.9791032025914406	-2.6761696271086777	-2.981151334865284	-1.156275984705806	-3.1105880658769887	-4.544561374634484	-3.7008361722969116	-2.316877120844173	-1.3366868462193064	-3.2183270373151793	-3.862574329160901	-2.6460459165524086	-2.1794767324734243	-1.301948424866888	-1.7587531760634203	-3.790773858990007	-2.6057491236701393	-2.7888116766137125	-1.0756437751315506	-0.08321324714870573	-3.728515615586403	-1.3939686978431771	-0.8970120526554588	0.26146733694819585	-0.027162017232147482	-2.3192079008675854	-1.4382971488878749	0.15839151998107368	0.06446236355718836	-1.4902446232363953	-2.5950303012179536	-0.03712039431498287	-1.489950414710527	-1.0231103871263671
88	-3.421662560407153	-3.9804997343654875	-4.315870274137655	-2.062540049113876	-4.138130177540507	-5.767189964992467	-5.082180964036402	-3.250774613756084	-1.867758865409179	-4.241145600101463	-4.8181476471371045	-3.618698110980853	-2.885828487739618	-1.8189920141071327	-2.3607611596585474	-4.717771041402982	-3.4740648181941616	-3.289311877529026	-1.5254962405790342	-0.45737922076142723	-4.612138259687257	-1.3784368003375307	-0.967586872518931	0.031136000450320774	-0.1851509357784571	-2.3259169996665645	-1.3703318799707256	0.866435406404685	0.39746174115921	-0.630762635069007	-1.3269902434224379	0.32341122545604817	-0.6259090884618457	0.15455093940815148
92	-5.112294661012374	-5.600469575093572	-5.965576156813368	-3.3209955608444184	-5.215860353652507	-6.917314035117248	-6.239454730493229	-4.2983860861019645	-2.612739079554591	-5.298969255420217	-5.612287030355484	-4.255884159787152	-3.504618159028887	-2.3817353188463155	-3.1981353679020468	-5.494297967390438	-3.9645810027162254	-3.5945038704718693	-1.8970134210375278	-1.0381808254733278	-5.343583093503378	-0.8910010434543265	-0.7566348891228531	-0.21347746199115733	-0.42350786817436725	-2.09620022244503	-0.7450743298792747	2.017460817965483	0.7832841853392921	0.6124982818398209	0.7542591075927492	0.7681425194420047	0.6198862775410777	1.8663055849639347
96	-6.626969797569047	-7.102423173138662	-7.46654747031504	-4.606484401516718	-6.054023727390841	-7.648090820076413	-6.788881284739605	-5.146379457831836	-3.4214637193126842	-6.115535720643741	-5.993549331791571	-4.338562000764934	-3.8040218257229164	-2.9143679068417576	-4.04171418123242	-5.876780495111286	-3.887624730785277	-3.6038148312180147	-2.1769165937774955	-1.6866288142536345	-5.692740425995864	0.0566843560396994	-0.21791604106244	-0.35498431235333877	-0.694485662614268	-1.6630868869754256	0.38827672502715704	3.3564879809513415	1.2271170585168174	2.000165457443964	3.1967372813577253	1.2747293678524796	2.00372719258817	3.7428636456405098
100	-7.578064899385292	-8.056665400191102	-8.368447282643674	-5.549318776425108	-6.421318991661263	-7.727698306600277	-6.548715098059589	-5.483118043407434	-4.085067738709633	-6.474485380992363	-5.828087315149996	-3.8373644255075092	-3.607001772356819	-3.3263640319764938	-4.634259689074765	-5.730298027829751	-3.2529871381645603	-3.2888457692080593	-2.324151033255618	-2.208309406427118	-5.533582196569819	1.2847281661975962	0.5394470082014733	-0.30068141146085364	-0.9015868283397094	-1.0761898728856039	1.787751431719882	4.558416831905411	1.7320337251802578	3.282466403303145	5.4640688758224725	1.819660778219824	3.275387040451756	5.385027871841123
104	-7.751178245048076	-8.20570562198278	-8.413440683103808	-5.875824436611502	-6.2294320902902625	-7.133327942958096	-5.6130275584603035	-5.137814031980659	-4.407722938853259	-6.296025737125303	-5.153426157337971	-2.9155523703397437	-2.8827166484530413	-3.525356760661097	-4.787339198423385	-5.082041250749402	-2.2591745796385396	-2.689858429793233	-2.2675831260650643	-2.4258725581910565	-4.893724429172853	2.5044393476197695	1.296573635642482	-0.03858246272001914	-0.9366015172199642	-0.3885539462293075	3.1032309453816476	5.33589027964951	2.261438602459972	4.263258446420145	7.1148690997734985	2.354035609977652	4.2409458053326805	6.491357310118467
108	-7.1643576441126635	-7.552503566747191	-7.625481109440138	-5.507204995556093	-5.554845795911886	-6.052489742256774	-4.302379597291832	-4.166565884560999	-4.274945725138196	-5.653799996406679	-4.160227765070165	-1.8554944945218697	-1.782448644906183	-3.4351439389284137	-4.4457893259336645	-4.10840653335896	-1.2076202600507224	-1.9049411964005079	-1.9473748157925796	-2.253233427080908	-3.9420039554252044	3.4193370255924678	1.8193829013665828	0.3400328746793718	-0.7409650664695445	0.34091707978006	4.003472794915396	5.514703736687063	2.714187853636226	4.8271183845717305	7.918355444943377	2.7837612558653553	4.787296759916411	6.928926927238807
112	-6.026126369520601	-6.328903182263243	-6.271939738650959	-4.573241699116516	-4.588372695782416	-4.789352404900235	-3.0128784103619632	-2.8367247509861517	-3.6890513803802545	-4.725268352022481	-3.1067426126243687	-0.9419441199362728	-0.5933454021732115	-3.0196757240349874	-3.691811790682123	-3.057417385011476	-0.3805787851738508	-1.0801598998454902	-1.3756417001324905	-1.7348399118491984	-2.915296785623592	3.8251333140119	1.9517878244713183	0.6687265021606574	-0.35623168855372644	1.0416076157021028	4.290906895294431	5.058995710951629	2.9383447096071498	4.935080515799397	7.8737687865781645	2.977847091785858	4.875844466296853	6.731397611789035
116	-4.620698440329708	-4.8691940184681854	-4.72695444820963	-3.3354818736740546	-3.542273512479959	-3.6262161640166815	-2.044171089733373	-1.5151525697601178	-2.759733431524164	-3.7054009344008656	-2.2076103631549575	-0.3570914855524407	0.37354469205005436	-2.308596128357146	-2.694786064973663	-2.143297428441844	0.06107228606421207	-0.3938779820988154	-0.6807887536980437	-1.029199359202669	-2.019090408949528	3.6684999373321663	1.6631187158556553	0.7727951983967801	0.07046087813469112	1.6360586840331062	3.9559292693396313	4.052124490044028	2.7879495550338578	4.60950802592925	7.1508683977783125	2.8126065660037094	4.5274400596752695	6.045839771265263
120	-3.1884701171482512	-3.462622156937651	-3.311658374054638	-2.065466160327802	-2.562936776366121	-2.7095343998210706	-1.4876837692847311	-0.5134633766562052	-1.6589324432450698	-2.7281930377744503	-1.548766132259175	-0.12773245540794478	0.9053555108100528	-1.4067547285802438	-1.636251445453823	-1.4618359767245632	0.12124820022965195	-0.028079217228925785	-0.08742023237329835	-0.34098461184241996	-1.347080704148997	3.048809997490483	1.0335755322110294	0.5485823140599091	0.3413244775260712	2.0622076936154476	3.156547776835781	2.6569690637263683	2.200978035138255	3.92778586349638	6.001109584915794	2.2372057381412715	3.818278064624301	5.067542063316526
124	-1.856992120822715	-2.256274694468249	-2.1862173025247653	-0.9402528381450412	-1.68843948414805	-2.011621231722292	-1.222777601969546	0.034946430386288474	-0.561229406370355	-1.830725307610834	-1.0663468810815366	-0.139155730253791	0.9675284003625539	-0.4725546228875722	-0.6481581909981404	-0.9638466810687183	-0.056053623415568965	-0.11734294861731176	0.17361055270708411	0.16638649958086815	-0.8549765922894812	2.1712140982169417	0.199019684885135	0.01588314208848569	0.3017421059142761	2.3049166144351614	2.1435549205066233	1.072970745238702	1.2542806832117246	3.0244846267633245	4.684848773572284	1.3232846226661075	2.8845767902024955	3.9923472303682903
128	-0.6395856125896083	-1.241553303444969	-1.330446716764236	0.0004143761460451895	-0.8645411111938609	-1.376139756542976	-1.0049749587435048	0.21268175488657604	0.40481534498051824	-0.9698628758739329	-0.5949127063036234	-0.19712524066269937	0.7083864194151095	0.32582172669164616	0.21033996290506934	-0.4952977585208404	-0.2569299929807697	-0.6822233182848759	-0.019223375197394407	0.4329972554241973	-0.3971715559468537	1.2780500618138222	-0.7033959609392448	-0.6850638372291203	-0.07613071034999043	2.4170982776651138	1.172314521690764	-0.5022116290764284	0.16060858924370272	2.0872423596136427	3.4342610749322295	0.2662405960990473	1.9191718053047035	2.9944977684711143
132	0.5106284605485556	-0.3156010798592355	-0.6074647292058925	0.8224621394373072	-0.0031252622059803545	-0.6177815779347278	-0.5932331666273828	0.2555027895675487	1.1787718504708475	-0.07508493940946592	0.04070489470814501	-0.10833337130613159	0.38433042071583146	0.8680508114833091	0.9373737549957245	0.11656580090895052	-0.28099372912034726	-1.586785074042459	-0.5978518709347219	0.5122938143193754	0.19240294348300216	0.5838885292570244	-1.563579078541356	-1.3518817390642437	-0.6675539595915964	2.5100626882122614	0.43648126611181215	-1.9031261157623902	-0.8025674799683408	1.3262671198738485	2.439570182363016	-0.6752007586598144	1.1392122478332993	2.216226095326198
136	1.6328858095904333	0.6298106892897026	0.1382883932675317	1.6176702935384557	0.9524901485236908	0.37799405956201415	0.15065142474285645	0.42440181863445153	1.7617835954054397	0.8951289631178242	0.935132322334605	0.2544667714370009	0.24378374157391255	1.1280484171043441	1.5522133072764117	0.9734644269207481	-0.004595732770432956	-2.5600333149171526	-1.308444735084556	0.524910448656418	1.014459011377641	0.23068405629566865	-2.3001432360750207	-1.806006427019862	-1.2479345766985113	2.708590739087369	0.03982359533388235	-3.0199363155412873	-1.4071754181620062	0.9124605632632752	1.8339528991172727	-1.2827054229776056	0.7208886128344723	1.7509971812862495
140	2.715244524776136	1.6399586159309136	0.9980694030358421	2.4249954162407565	1.985804791205197	1.5987199504542817	1.2222599952356235	0.882361171402013	2.1911072675697927	1.9188131045533507	2.0532796331063725	0.9172868705478429	0.42605757605748673	1.1766052216387324	2.0631227441197293	2.052118296210501	0.5894327148814543	-3.283550254161004	-1.8172500087633252	0.5822822436890278	2.0510437436772033	0.2666997604789153	-2.847537748776845	-1.9705259750206277	-1.6024286706521325	3.0872092169064738	5.753494755507107e-05	-3.810615529929902	-1.5761023720049159	0.9068589783660713	1.6658058124446353	-1.4755943976340404	0.7256150227346486	1.617851730076694
144	3.691705694414691	2.67506169597439	1.9601942251306361	3.195082894841516	3.004990093273725	2.909518711373654	2.4929511484147655	1.6296651322227713	2.5100083287763635	2.9103999064397885	3.240555755063012	1.80009865306322	0.9133711434192098	1.1380399436828166	2.456079476831222	3.207834950931147	1.4130572044935918	-3.517374029815773	-1.8683193874872317	0.7234381419036578	3.1663312832045123	0.6454691870605325	-3.1527337948355223	-1.89866888043734	-1.6330133635299307	3.62157320061898	0.26724362305879523	-4.294421661978673	-1.4166743719572987	1.2206208675084385	1.872431154292036	-1.3480548824607463	1.0590358945811353	1.7435399249879384
148	4.471426952516884	3.6313638595450666	2.9206020758323654	3.810767402564406	3.8764014146209864	4.107641209721976	3.76702188494414	2.5186076100656876	2.744425528273018	3.7501585388868626	4.284597386033018	2.743660204636034	1.549687143227919	1.1247875662062048	2.7062458923678254	4.2318954360928345	2.304102176571007	-3.207532636173609	-1.407375212930789	0.8999427534270207	4.159668435085005	1.2449732987442568	-3.191399327803697	-1.735658164410609	-1.4031555617192135	4.186461438099634	0.7460184078454885	-4.524571407338763	-1.16325759594001	1.6386215645426878	2.2850289287096164	-1.1204725475632296	1.4967603645682113	1.976002926605921
152	4.974243628340901	4.3812641986856855	3.7232944871358398	4.146268357299013	4.472949016722026	4.996513830921392	4.838730323018976	3.3336565410370618	2.8940908835775225	4.32483958106081	4.997615801591217	3.556228628716698	2.115617746733774	1.1815844744414075	2.800600283227626	4.9341964597103205	3.074984781131063	-2.5144679482871988	-0.6109363421274253	1.0166107390486	4.8449768897756655	1.9069925498499185	-2.9874548836622354	-1.6385812718029213	-1.0930632325231786	4.60914562968993	1.3209298815755561	-4.548172939261596	-1.053133723461088	1.9099205684124723	2.6845536164216166	-1.0233377192409667	1.7788054898174195	2.1397221034386633
156	5.158337580055063	4.814712035420925	4.214647282449858	4.132303704319133	4.7195176959090706	5.452686772884901	5.544704900093984	3.8894994160680194	2.937885277006381	4.5662407759774535	5.287707315446209	4.0756411449529155	2.422148221576314	1.2656005589003079	2.7577505042067827	5.218765245612947	3.5727887063421244	-1.739767904657496	0.19626228461782003	1.0026953195051809	5.125667082243261	2.4925641950618607	-2.6144962244781333	-1.6939015345721866	-0.8883334971887836	4.757235991864866	1.889162893293982	-4.373275745794477	-1.1968095272365251	1.8682907772578117	2.8975050376216367	-1.1700155705475817	1.7337371067143483	2.115463966750642
160	5.027498232546045	4.865347373122673	4.29038905014193	3.79074477192343	4.616237151888822	5.46096418909325	5.799556717535261	4.103174199235208	2.848851196725799	4.472157943878564	5.189093576681513	4.22570847398077	2.3888063370474573	1.2795687881588647	2.630994074854571	5.118336187791555	3.7318210507587217	-1.177078005679897	0.6985359174258194	0.871421990578649	5.031121718102082	2.935664884784814	-2.167802805195769	-1.872964258233561	-0.8644186236491568	4.6150598409481915	2.396141046196419	-3.9617960353007713	-1.511779781339373	1.5220315417962778	2.886862032277414	-1.4867070875779074	1.370249148723986	1.9059851121464684
164	4.620127189415623	4.521254528074675	3.9264161487628995	3.2200355448487072	4.234006394186871	5.110433565588607	5.61400698198078	4.010053147681986	2.6107914381868276	4.10493611253032	4.840897547897537	4.046641339575693	2.0691738076420494	1.137173053731392	2.491696351436122	4.7747611878960585	3.5995378403383103	-0.9679102277160211	0.7343795280988729	0.7286255341253632	4.700026023442413	3.271990767801029	-1.7182333426009648	-2.050335878917638	-0.9351269579165887	4.305078972437605	2.860321276118837	-3.253761998544684	-1.7576640799968342	1.0621812316779915	2.7854626108415284	-1.740647311584292	0.8844516254982976	1.6483025509226645
168	3.9931666750225934	3.827170362346601	3.189884177737332	2.545239203702673	3.6882417108876697	4.558488357478961	5.0989513268480655	3.723449697630443	2.229169839952942	3.57120036177216	4.427771557119291	3.68704675697223	1.620557900151954	0.8202525356564174	2.402926438940518	4.3774165996658585	3.3246004497513324	-1.0386513445379968	0.3614566913061901	0.7245106678790384	4.320672501145794	3.6246356872598073	-1.2763473955354672	-2.0717403836395976	-0.8962312318108726	4.038323869046156	3.370164862706972	-2.21249150671258	-1.6587436157308981	0.7760776261762735	2.842736237024441	-1.6573121505855866	0.5703768715762942	1.5556774100127218
172	3.205512038720825	2.8748392986194142	2.2212016526409064	1.8615403128354628	3.0982100885370243	3.9727308649850777	4.435840595490032	3.3681309138137916	1.7327179865005518	2.9865612908300188	4.10461186326356	3.3463647281082483	1.2328873841629544	0.39762303132756505	2.391308778447389	4.083440770329951	3.098387471959428	-1.156991002022726	-0.18661268008323822	0.9699624156304565	4.050790299678743	4.1419997110695554	-0.7971559742828458	-1.836192126406541	-0.5440179095838232	4.012608041169187	4.04127406053651	-0.8663964845717449	-1.0534727546797145	0.903743383986883	3.30029152990609	-1.069530484360242	0.6731776578119559	1.8115290357629377
176	2.307176822559338	1.7840722754257652	1.192137595981536	1.2012488811681878	2.5495781834127875	3.4734153659863285	3.81868027676623	3.022191040038158	1.166024920380655	2.4395062861839785	3.9393665691098416	3.192034713315399	1.0475974056497486	-0.005676788729252835	2.4326798854443776	3.956964244388898	3.0741770189871063	-1.076026675368621	-0.6256465896069177	1.4660848342120048	3.9546344180398	4.9154224271649465	-0.22321100476653213	-1.3450534309760147	0.19958127984679083	4.312120426735013	4.949342238328087	0.6789885146164378	0.011494135455079485	1.5126059017138742	4.259111393665723	-0.01606003936050668	1.262261149080553	2.470238202534
180	1.3347647156394424	0.6751791817784603	0.25063976582189207	0.5390412793855116	2.0728969521638994	3.0973362844468233	3.384693375625003	2.6948478153854944	0.576711176369872	1.9668929527214505	3.8969354531128437	3.2889161026887166	1.1046560974841437	-0.2729085080885907	2.459439986695174	3.95335840180767	3.301142207394177	-0.6803475601185303	-0.7551975827223683	2.089696878879296	3.98507737107268	5.917202934584425	0.46166157605914804	-0.695591805609217	1.2271853654395577	4.861367690210357	6.071177944113888	2.2650818767580247	1.2915786472136257	2.4555947718611324	5.608085141328007	1.2627294031687262	2.1899170820259224	3.4172811421900655
184	0.31731316367144125	-0.35673698692853406	-0.5219846950703599	-0.16868987636891405	1.6479952293749787	2.7994859147917186	3.1666567245641644	2.352785342952	0.0062365433975058795	1.5534219702601155	3.8707566163564295	3.576015701802117	1.3422045673815228	-0.3554247310724722	2.390149587318724	3.95526360466846	3.7057688142674903	-0.0487510001918665	-0.5363226519395251	2.645621054645522	4.019242753371675	6.993805867657279	1.2037224739201213	-0.026138376378585113	2.286808723398116	5.460054383797695	7.267845612296206	3.7277038003266116	2.4552502570152	3.4367597016349056	7.055373174020391	2.4324531493762245	3.1586472908380485	4.412981499020646
188	-0.7079821807152634	-1.2534042565171601	-1.1234183283098815	-0.9332472062390532	1.2317324845687023	2.491324656872241	3.09244894200616	1.9680960128685596	-0.5125224577361566	1.1555073232087232	3.74506448753864	3.9039678475042687	1.6392745930291983	-0.29213663861903905	2.170092338805101	3.8405742548298494	4.131898869572841	0.5968248829078349	-0.08310011008262708	2.9600934907564627	3.928418864822296	7.9218807020450726	1.8955519151513252	0.552013395823097	3.101165048398949	5.880362018997507	8.324408510171853	4.941411005895718	3.2365879930796218	4.1501264467362935	8.24744031731198	3.218472949485221	3.8619205854186553	5.197701441039663
192	-1.6807404714111402	-1.9878430316327902	-1.6062558848834976	-1.7035810904406925	0.7947145084343652	2.096906418274546	3.035555116618797	1.557543869854506	-0.9520549750132844	0.7379592042411107	3.456878891800174	4.1147174731318445	1.8778362226759115	-0.17997553899148253	1.8042597725137737	3.5480608850544586	4.42012213544671	1.026250359805207	0.41503414406894557	2.968155376569849	3.646877041192301	8.500733354087028	2.431499951899383	0.993388709898093	3.50014924119349	5.975293144398698	9.031009651271159	5.839498028316988	3.5472285657969165	4.417523372941064	8.91429994239834	3.522964468644432	4.12277935894523	5.603001103560081
196	-2.513796323151565	-2.5469937260218516	-2.02777265990417	-2.3749465882421177	0.3479776671683921	1.6004004438048363	2.8895475791456335	1.192517515986375	-1.2851607767082838	0.30417370719407133	3.0291469020658846	4.120372761813855	1.997617120467671	-0.11888182878281808	1.3665070499251455	3.10956453491949	4.484130371216501	1.1404434413726712	0.7885519246219518	2.746103518228498	3.206670276175176	8.636787392744989	2.7691330839815116	1.3133270707350713	3.4952390105692905	5.743700489801529	9.268274283850834	6.407872660671042	3.494494667767215	4.257251251916268	8.970939613581024	3.4489445599262853	3.9614734549640613	5.614420876633055
200	-3.110121003881708	-2.9165780470644487	-2.4053094326326216	-2.8335735726341222	-0.05503803850225668	1.059979197686969	2.624828570414571	0.9673932766331893	-1.4859378300343784	-0.09721866225492794	2.5592734749074744	3.9391856094087605	2.009210343056504	-0.15974850912292654	0.9765781735559531	2.6336567335392544	4.343938816547257	1.0268088553253425	0.9537195539237241	2.4725749430218746	2.7213804653124023	8.376996972868671	2.954018823794871	1.552599545373581	3.2590279496880052	5.320165620723146	9.05352780917329	6.664050085408777	3.3014302170370042	3.8509473703432104	8.527595498489422	3.2233908095039325	3.560613384793885	5.355019555876848
204	-3.3965923700407616	-3.0814969461842017	-2.704014294473069	-3.0107097549719306	-0.3428230575012305	0.5805813655500116	2.297484392087593	0.9459330415685052	-1.5386685094132702	-0.39361163874430904	2.1716122572430363	3.673435917162844	1.9665827701508225	-0.28554937171367323	0.752764461524135	2.2520408573512527	4.102604378832593	0.9013380981576896	0.9239264107265447	2.339359277540951	2.3300514162363264	7.87807414926871	3.089540473767043	1.7402825311591874	3.027487508759527	4.900760161424378	8.527550675796665	6.640995485705022	3.179284326155818	3.4337937745183704	7.8148684304341485	3.0680861395621766	3.1539878765584306	5.005402075527858
208	-3.3619284544941244	-3.0445692462347105	-2.864848368087388	-2.919962875623408	-0.4637081611369887	0.2614234381274296	2.008004660305031	1.1153464289161987	-1.4516559802597866	-0.5270418511435598	1.9614101598809843	3.4491054924667726	1.9246482800528395	-0.42997088919801246	0.7606915216313794	2.059844250246781	3.8868732354258464	0.9755824183628494	0.7790603021979483	2.459868424880738	2.1336412375940306	7.334825497228416	3.2721536076901443	1.8796817016827878	2.9825606270827953	4.65037821549281	7.894715766047983	6.3897223311270235	3.2246658720617485	3.1734545150743454	7.074180108329598	3.091686956229275	2.905458681400384	4.710404384164501
212	-3.078548900461054	-2.850494615987397	-2.8558328079600033	-2.656141989677553	-0.41457974806064757	0.14702248536183612	1.8364739371663275	1.3799045051067742	-1.264925953532443	-0.48673295851843185	1.95945631963018	3.352175227284862	1.9069163751140878	-0.5115281330545239	0.9845770572599705	2.0810286946207857	3.786021699883353	1.3261598315135237	0.6211880429796857	2.8239335942496475	2.1574656908877614	6.907529336655624	3.5329668432682264	1.9653418014497321	3.179487697203278	4.641096103394664	7.349307041686482	5.994947895173049	3.39544056988803	3.1035349290692347	6.473021014083218	3.2596824086859866	2.84392022368527	4.523291576409377
216	-2.6865892342448463	-2.593112462172503	-2.711558811971111	-2.3515281617875714	-0.2444940650250687	0.208885445663449	1.7958974792914784	1.6016457040403398	-1.0441666815144284	-0.31720009366058777	2.1327938979660432	3.3977935228392426	1.9037767600631157	-0.4691527474002505	1.3361072506549738	2.273403161984818	3.822940339926861	1.8500491333982279	0.5425832257877018	3.317150584428955	2.3561232030509944	6.682404978093149	3.823279132726909	2.013496155423613	3.5507662206646935	4.8473000404045665	7.021912557039442	5.581252560829346	3.5685582070852275	3.1396105210191685	6.079604133515221	3.448538294668522	2.8816654609404364	4.411730278320681
220	-2.3432657659496674	-2.391694301288823	-2.5292935307540403	-2.116756910701845	-0.029516722932441168	0.36788767483334944	1.836246009005282	1.6712027745968416	-0.8594682790991247	-0.09563030278380236	2.416543954470102	3.5475401788790153	1.8997706126885867	-0.28018978167364655	1.6981131987613824	2.565744870383689	3.9697606463341293	2.330677265004888	0.6129945501109679	3.790962686504179	2.6532111100920575	6.676157934499302	4.054060925738601	2.0751311726630193	3.971474160657806	5.189361559163746	6.963574868740685	5.2926125392802605	3.635369768501017	3.1579253593823515	5.890851482777176	3.541135302186202	2.894609920822916	4.311233032785837
224	-2.161092037466741	-2.3420479238506915	-2.4213597713372157	-1.9964903542656818	0.1660830076315993	0.540274141854933	1.890564556116981	1.5683332642059276	-0.7569283823929862	0.10789078446804995	2.752405874932557	3.7518072033571874	1.9035897206882828	0.04279812787098526	1.9811235616256462	2.899480812381663	4.185716141623245	2.5663561756189623	0.873409745872245	4.140595425642193	2.986571781247473	6.86415050680909	4.158781041135829	2.2152581158974893	4.337866772190029	5.589583859636437	7.1584977922903	5.245415674317633	3.5722801595141846	3.0816721838393986	5.877018913689786	3.5010211379350635	2.808584921421578	4.185132492943078
228	-2.165207142131644	-2.470119946919064	-2.4537002978363742	-1.96103584271274	0.31628724852815737	0.676488755425514	1.9219018172378133	1.372405048720069	-0.7394692879126826	0.26062080198291065	3.1068241517782154	3.9798083204878387	1.9517288158731396	0.45595642809190845	2.159880871087963	3.246418229489739	4.442471969832421	2.485961669367471	1.326129433144765	4.345196236130264	3.3283879672893772	7.202245217259194	4.138400067371369	2.465246194337375	4.608447063254927	6.002189621076397	7.542827587157363	5.473470674047026	3.444467297440641	2.92120670534744	6.004585250953161	3.381345978782868	2.6379105978168447	4.0506467716944865
232	-2.292520040446074	-2.715158932506455	-2.6057605677619073	-1.9387681435273223	0.4342377770904531	0.7727323751013454	1.9451395224098567	1.2209399907757603	-0.7676082830122317	0.3722510626454378	3.462276688417405	4.22164200670588	2.0803446717190703	0.8876356460095153	2.2727346362907053	3.5961766152186225	4.723510730261782	2.1807546560541824	1.9183666657651102	4.455986965373249	3.6722566988735847	7.629392127801846	4.055381287826332	2.786542170164975	4.79331301432627	6.404844744724097	8.017575243734619	5.899482712156019	3.348243466506825	2.750846855847748	6.2268738589429615	3.2721946156856463	2.4598460135343587	3.958103408356969
236	-2.4345033107327425	-2.9576582833956677	-2.7815675665245805	-1.8685845089465232	0.5477911816118027	0.850355503796357	2.0037112185434105	1.2296217648932453	-0.782873270919248	0.4724775242797499	3.791516294443455	4.4628357774592295	2.281416648826769	1.2420625655286444	2.383771413506702	3.9261870285089615	5.00070284534563	1.832902784488271	2.531482213304667	4.544872749298005	4.0003733533949015	8.056374529525332	3.9816024202910483	3.0729677599569563	4.909108149531963	6.767137033543284	8.456394174206297	6.356004222081294	3.3346705352514205	2.644550078390902	6.462501986399816	3.226767293412644	2.3488035142724777	3.9427924056643024
240	-2.5003969606213086	-3.0815956514757	-2.8693897651706486	-1.7415188506979973	0.6666722876883048	0.9209409332865726	2.116529220959378	1.4177080357043836	-0.742170928034951	0.5769828543400722	4.037909497556724	4.654546725919298	2.4746911463246373	1.4138077461787086	2.5304777558334477	4.179899681982168	5.211044775203972	1.5929094512776676	2.9984116478557636	4.647492873855808	4.258201111533011	8.361797311652163	3.9398977657027388	3.196420423066899	4.9376406544953255	7.026480657003494	8.719562508502799	6.65163753737493	3.36573170765835	2.615987532686648	6.592279894397353	3.216902963145801	2.3164520205187085	3.9852068323608054
244	-2.4634163317473905	-3.034040443389589	-2.8106892037954156	-1.607609983200086	0.7672709803282994	0.9669182276155288	2.2430601063363294	1.6836564498354798	-0.6424249394409602	0.6686729175851396	4.125355710104498	4.714810359495174	2.527752393062619	1.3239837851475578	2.6929233006198454	4.277303684879557	5.26504419904835	1.4868284426343636	3.154918662688893	4.739733684017209	4.363288868378286	8.419374444685506	3.8848156830933944	3.077677957393795	4.824661719538871	7.099718075947005	8.689049698826418	6.65655897367232	3.3346805488317175	2.6055488520642	6.496059878160793	3.1502487579918212	2.300525897893513	4.011707295779616
248	-2.3657789170616503	-2.8498120235971527	-2.6374716692138267	-1.5443434676280072	0.8050525168120423	0.9522598361768603	2.2937469424510333	1.8529156399675286	-0.5219318853552223	0.7060844284350511	3.9968240160167774	4.56857250967518	2.3250627458998006	0.9636359786499693	2.8018910814116227	4.156163205143904	5.090980040094509	1.4152436220677225	2.905740253741592	4.758256423380844	4.247920025590951	8.154321649944544	3.7411861325221865	2.7371046474016087	4.51976488879621	6.928421003015231	8.319879510854674	6.365870936533922	3.137066356367999	2.521738761257123	6.117410167507905	2.936360590196876	2.2087004128958574	3.9384305377706523
252	-2.2849159183034073	-2.628894322433725	-2.4552593169211834	-1.6085947711385788	0.7443048935218117	0.8522540905415941	2.1804764215730734	1.7725844338486292	-0.43828117736787264	0.6512443406828841	3.6558544543471254	4.200599659804662	1.8485363675176478	0.41666266216938713	2.778688423770619	3.816457977196035	4.686585414498076	1.2414796321042127	2.273894542675106	4.645468700124346	3.9071020981372246	7.595542411700785	3.4750511558534143	2.2876999320445477	4.024901379913785	6.52542446396312	7.677469710993449	5.9054732173594005	2.7413282325197295	2.304767125986442	5.513403878597083	2.5521316463885184	1.9837745377999834	3.7277233506500487
256	-2.2825448455402286	-2.479034894406322	-2.3809409081427546	-1.7991402103776515	0.5858603701105054	0.6798849684715963	1.877810711888012	1.397102948476133	-0.43600907811709366	0.4985595332909713	3.1826274314635397	3.6861364748395182	1.217294093873344	-0.1590994890487671	2.5830652648559504	3.338055125391801	4.1432876482306105	0.9096263028067163	1.4014279806994054	4.390043247583199	3.419738522478661	6.888337117923562	3.1480576912554095	1.8760994625408312	3.416665307001801	5.990000232832026	6.933161718030117	5.475901589873408	2.215061420570227	1.970872516424477	4.8518733855773455	2.06473707631475	1.6472184616462269	3.419843426653201
260	-2.369941943860832	-2.458230727665024	-2.472307914213955	-2.0539076276421406	0.37207603360649677	0.4870688902955378	1.4530349933178284	0.8255240300316885	-0.5225102292220177	0.2834201149937378	2.708616488293847	3.1744317928276153	0.6590485556175565	-0.5941656812925394	2.2397513333039116	2.8549327778261673	3.6218614486803857	0.5197409378281	0.4973748015720844	4.037435044585509	2.9240877554500297	6.250088675931469	2.91291188458286	1.6047116477505556	2.8223535943299307	5.475017056947174	6.308742507265316	5.262766824786522	1.6904121594665555	1.6082674224302989	4.34662865494989	1.5971859653202152	1.2923929658684912	3.118372194046423
264	-2.5082740720363574	-2.5511953766307505	-2.692729943152682	-2.282321685750753	0.16254387754886757	0.33350029503544937	1.0391427252282845	0.262782483629522	-0.6663609130247843	0.06187984704249315	2.357249253997248	2.824022047542271	0.41436180367757663	-0.7890529016600241	1.8266216470376988	2.494147771260255	3.282436839399411	0.29686698242576065	-0.24073000191468374	3.6640095618247046	2.5546421940201194	5.879728302415855	2.939275495737612	1.4793647490344333	2.3592767655888087	5.117360578968334	5.984934314876066	5.354666696380669	1.288091775503069	1.3250861134452507	4.156872261996361	1.2557564942126374	1.0291506026033657	2.933815710289971
268	-2.638432734503759	-2.6888241699997018	-2.93302606795798	-2.4114556251677635	-0.0029988479724808695	0.24298731921359576	0.7630752305792186	-0.07441865634010701	-0.8166784623507743	-0.12434099583227125	2.1823730413650377	2.7216875484415097	0.6181349738727088	-0.7665834407525511	1.4330794775067	2.312609905126187	3.203461638945728	0.4619010675212509	-0.6983613950263577	3.3341047679646407	2.3745455681930814	5.862905010679765	3.3068470871405156	1.4163403475288208	2.07484340143877	4.969812857478064	6.015919670175032	5.705739960569978	1.0492875549527323	1.1833902567549637	4.303641308409253	1.0674978467692435	0.9157027579076468	2.918083660387674
272	-2.718850128938786	-2.7952561307905572	-3.075149528368806	-2.420932763663123	-0.12902209130137152	0.17889234378471416	0.6737030727543245	-0.05869747683487349	-0.9305267310490833	-0.2728051238324888	2.1405129378635466	2.8335182595239106	1.2212461202305538	-0.6572146399117375	1.1140402527338886	2.268677705758956	3.3374893581050213	1.0817960473404438	-0.867130456165656	3.068123094441844	2.343180650517143	6.123686775005486	3.9322981735130638	1.3070105281255917	1.9252504061728404	4.974298464613955	6.295842631657016	6.160495742502884	0.9180713272757511	1.160925504614416	4.6512861134397365	0.9684434508668355	0.9211170650114391	3.0307125968708912
276	-2.743918650375128	-2.829926245220235	-3.05719899359357	-2.345314735213293	-0.25746670300329466	0.05961238950341431	0.7162492257154482	0.28882923649344777	-0.9913033818012462	-0.41670551790887245	2.1156761592855062	3.018184415826472	1.9999003359846725	-0.620660720688689	0.868272183133446	2.2472624722009633	3.530693522122233	1.9904568145088815	-0.8148598650386238	2.839953653794772	2.340125554852249	6.451593859596301	4.581129062530441	1.097227570624542	1.806560511796295	4.993689047603329	6.598788721590393	6.52484749100315	0.7847459296440732	1.1647188634076342	4.96752356228731	0.8498986341953072	0.9423525905658873	3.157725564613569
280	-2.7352442672335764	-2.8020884919946205	-2.90524481993547	-2.2471551838406385	-0.4361937035038193	-0.1938775176875388	0.7631564121051977	0.812926290366992	-1.008887169198105	-0.5973716959176237	1.9808847854192788	3.093772880372568	2.652407401063935	-0.7471216302128508	0.649845181254959	2.121959442503285	3.594617834552392	2.8341805863349823	-0.6271411164662425	2.6009414130346946	2.2298538628546574	6.591323359060413	4.964333044869829	0.8293678739589039	1.6176911551640745	4.882231223177701	6.674369795160555	6.646944506075744	0.5603305087247668	1.086857912180569	5.029545771298199	0.6313422306333395	0.8649489857770292	3.172841540909023
284	-2.7154719761000248	-2.7535009314636056	-2.7139947345876414	-2.178103679879845	-0.6824298483785012	-0.6056722387280877	0.6846119148135743	1.2996424403756397	-1.0043215726291268	-0.830622551728258	1.6631022649737388	2.9236447737311773	2.9348359033873708	-0.9968979333503842	0.40334987538544803	1.8197398139785967	3.393275490776675	3.2316942133373385	-0.3583710780632481	2.3128313959856133	1.9313874195927097	6.3530335265931885	4.874956595510521	0.6222035273101602	1.3175327744598044	4.555897224367826	6.3545298415918525	6.471872313372007	0.23460295737162795	0.8681917168632024	4.7219629168501625	0.3135948471258059	0.6307034476568945	3.0062544269955085
288	-2.6868584088199725	-2.726525538236424	-2.5921144420029036	-2.1526889746675217	-0.9686161851269585	-1.1247878046247834	0.4152501513010662	1.566883202411493	-0.9932529305176375	-1.0932325097139133	1.1728067368460766	2.4724044737382473	2.7654385496890814	-1.2241716353980332	0.09681485568875538	1.3497599329248864	2.8969077990824954	2.965044729376164	-0.02593061507651929	1.9648138235076447	1.4516137801713922	5.688047394696678	4.291909206998444	0.5951141700024555	0.9389810538426796	4.022215356208408	5.618495926976771	6.048550590502804	-0.11922619461713846	0.52990370855058	4.075857629022193	-0.02256683440769345	0.26968264511684625	2.6797382763916597
292	-2.6322417192758594	-2.742824547518393	-2.608536475271378	-2.148976797400283	-1.2435774771764307	-1.6536618429394683	-0.024904869433943606	1.5263425073234187	-0.9813978051203227	-1.3422424759355043	0.5833691343837629	1.805589313716777	2.2428808155652975	-1.2799490657915715	-0.2681203775789052	0.7817467431358374	2.1785995905231244	2.0974626488181856	0.354591934977773	1.5659263094466846	0.8650583006952712	4.696689593854889	3.393038741128225	0.7819656709955446	0.5529724345551117	3.356211892237439	4.587972629407694	5.495166287853333	-0.3968128253931787	0.1544661070976891	3.2338673986803625	-0.2728887789512198	-0.12242073534813247	2.2886104525958375
296	-2.5358505184999367	-2.8027183938790166	-2.7671525408499154	-2.131670469624153	-1.472530957318899	-2.1076524204446803	-0.5581828341696423	1.1961020201048276	-0.9719094609517737	-1.5514408310820729	-0.02101022372305635	1.0431573364623503	1.5781202276440474	-1.122820136096426	-0.669978736139582	0.19379299830146068	1.3659208978499042	0.9524250602517604	0.721534429158983	1.1239706249469759	0.2591885321748965	3.5731944947627308	2.4717671808779182	1.0908194752809186	0.21014657563558387	2.6453773908582954	3.4633476646720256	4.944900500210639	-0.536801932886954	-0.16841967361366822	2.37005352375557	-0.3838961114727721	-0.44437992460589276	1.9449080179701335
300	-2.4062876640602058	-2.899805300067001	-3.01971339417039	-2.0795540757127653	-1.6682681995233792	-2.4682431158691154	-1.0986765595353736	0.6661074740758391	-0.9783269738292477	-1.739123101611944	-0.5936277493747997	0.30085214896538165	0.9813481544513502	-0.8699071981401517	-1.0897877188824616	-0.37438464070210853	0.5822445139489802	-0.039759445835104795	0.9418346858087415	0.6302306636157297	-0.3172937623596158	2.5220954354505585	1.8011478140179076	1.3328030075755477	-0.10177092228467147	1.9410058210958303	2.4386570392073628	4.497636306851347	-0.569712220184082	-0.39630263943751187	1.61284684727683	-0.3978925337282365	-0.6495918019106586	1.716235871750295
304	-2.283809179262012	-3.0364816112148465	-3.3033082401798457	-2.00006603689673	-1.890602703089541	-2.7950436998371138	-1.5928941924886437	0.04674585151791099	-1.0294445727106558	-1.9657715509374776	-1.1404411763961755	-0.34710717113596773	0.5674128518083871	-0.7496361713556416	-1.5236251315749691	-0.9337882375983134	-0.09016682929877505	-0.5511082396898233	0.841594932338678	0.06532911194758197	-0.8715814330030207	1.6870773988090815	1.5148636064429761	1.3085590567929466	-0.45512038354407724	1.245709773733242	1.637019749323038	4.197562207114577	-0.6104821547353836	-0.5563603625555912	1.0092748378067453	-0.43949717172286534	-0.7707829455942433	1.5942802388947512
308	-2.2206325474940276	-3.221394530746155	-3.571472874207385	-1.9230233382310755	-2.2075478974873906	-3.1836759963717807	-2.0206572958474274	-0.563425777920138	-1.1578180760715413	-2.295563930437779	-1.6927635626970081	-0.8656744339067589	0.3289532653132717	-0.9725020503286345	-1.9749057243076655	-1.5160801372397705	-0.6090926512598879	-0.5092133270758712	0.28958493398032464	-0.5744467959205719	-1.4386129342950975	1.122679826762979	1.5678805073253568	0.9120167470793981	-0.9321199035952624	0.5428754673602977	1.0929086180750216	4.040115346245002	-0.7945970276798094	-0.7206953149719537	0.5425226674687629	-0.6468254907489722	-0.8929663277968989	1.5116445980053637
312	-2.2467448654670408	-3.4514236363055244	-3.8059234523050294	-1.8797693205103863	-2.6428639822037527	-3.695504417625925	-2.368848079422676	-1.0904695960169706	-1.3780891860500781	-2.746203177194311	-2.260417932525415	-1.233357784018334	0.1803963924860178	-1.5964964587911943	-2.4336001811573857	-2.1253635829671027	-0.9497832631926955	-0.11323128612063552	-0.7126599532254259	-1.2500781981378013	-2.030956740020032	0.8083385208702132	1.786346907873941	0.19253548931148678	-1.5597416123111154	-0.15682676394921954	0.7757038454498307	3.993828763415087	-1.1968803375543395	-0.95344292876802	0.1790905143269308	-1.0887902947593084	-1.0947130890863959	1.3916219437750055
316	-2.3447561204838685	-3.6926910783996294	-4.005922307390901	-1.8820638609098665	-3.1440830151332424	-4.303143013580188	-2.6089141302997216	-1.477496858681178	-1.6664190250285362	-3.2597157872869764	-2.8007948327876817	-1.4256747925049482	0.039323992927926696	-2.4692287382726326	-2.8602349685934203	-2.7083976200387845	-1.0920211049165567	0.28971189187337565	-1.9857217023305898	-1.8735524368667196	-2.6045145922706685	0.6818616969059367	1.9693552205909053	-0.657375691661514	-2.2706198634994137	-0.7887720445745515	0.6272860749619702	4.021683205941197	-1.7798997118834434	-1.2638152805845027	-0.09313380694717176	-1.7161784128728765	-1.3947851622652492	1.1985361545820192
320	-2.4506463942643726	-3.8774747750613914	-4.165477742168727	-1.9130645942071467	-3.5931823162912457	-4.885671126428294	-2.6932673386286203	-1.6749163823755517	-1.958669419111842	-3.7150945569655027	-3.225577107868774	-1.4198392593775917	-0.1126555201547201	-3.287114850328152	-3.1896381297643206	-3.164982310887362	-1.0267926428620044	0.39731338519873866	-3.204159728543575	-2.3331324995262768	-3.064373485457781	0.6702907664541934	1.9876093814258604	-1.376793023448065	-2.9165100977695766	-1.2497549025453558	0.5894235953708268	4.092624177136599	-2.401723617211988	-1.5937572677428122	-0.26000428134123293	-2.37443613406555	-1.7358338789029633	0.9593054627993916
324	-2.4845852789137925	-3.9277622600571083	-4.262047756878524	-1.9371082733838079	-3.8590087793194394	-5.281356798189293	-2.583922856482814	-1.6486632782319346	-2.1715130751143805	-3.9812252420998617	-3.4439396771264215	-1.220595833557696	-0.22396831157881386	-3.7427425290026317	-3.3567244921812134	-3.3957800779438134	-0.7797702531200755	0.1094444018819398	-4.005902280230307	-2.541143410942628	-3.3103136932719	0.7054482084583249	1.8280545426944814	-1.7456109479700754	-3.331456891231824	-1.448409196057779	0.6104237421836513	4.180128086980371	-2.8811931537364286	-1.8479667855336122	-0.3071585587852749	-2.874216549292373	-2.014771694818586	0.744809864071074
328	-2.393087857880153	-3.7937848472178786	-4.26358507987269	-1.9172295283549563	-3.86192940690606	-5.368296609676334	-2.2941746653808615	-1.3994052374794146	-2.2361044827271814	-3.9805555243128565	-3.4149944696036756	-0.8860024787467929	-0.21678031926259594	-3.676547041193685	-3.3294856464247893	-3.358456126316856	-0.42987960468476943	-0.43036743889870194	-4.135067929318258	-2.477461570206803	-3.2937445557404907	0.7271897178409938	1.573567505678308	-1.6755057531016027	-3.411313048333063	-1.360127564810942	0.6388062818611376	4.2573346984187435	-3.083270065152503	-1.946534032675501	-0.251876293976958	-3.079649440619408	-2.1396543925623694	0.6262552722378272
332	-2.1787824575728334	-3.4855439574931824	-4.149052609458731	-1.830665106919763	-3.6139843372653373	-5.127592073846067	-1.9055209111741296	-0.9786180233089511	-2.1283485835699176	-3.7276134396853604	-3.1761970439828264	-0.5236999379287308	-0.051080278923292234	-3.1503539005849395	-3.127451173515688	-3.097083322335035	-0.09666399633320975	-0.9279338097986108	-3.555286398494468	-2.2038299981742675	-3.050297014164585	0.6860396248662746	1.3398117985277007	-1.2420928446881137	-3.167296878447436	-1.0523006889478104	0.6207885726514095	4.2977757345410055	-2.98046874247504	-1.8700575781337831	-0.15398627480729746	-2.969019405498331	-2.0806853718677463	0.6331621988523163
336	-1.8982264947649339	-3.073387138236537	-3.924162616358921	-1.6756149488105556	-3.2086121954970555	-4.649068343822534	-1.535654421743878	-0.4827712166041484	-1.8791905594110785	-3.317389241426033	-2.825416557807915	-0.24601557788724746	0.23660559892521893	-2.402574056281496	-2.8121631074477	-2.721800797266297	0.1105693501422679	-1.10604870040116	-2.47673582405385	-1.8368723346110003	-2.6833896569213813	0.5576226697194574	1.2142854898312576	-0.6497001631545867	-2.723063938895188	-0.6581958515715526	0.5162478672345022	4.285703648237256	-2.6596290998066885	-1.6697981315416113	-0.09080474800787308	-2.6381986074596724	-1.8849359703157622	0.7402862291719116
340	-1.6306300122099593	-2.656819575277649	-3.623255720527452	-1.4679150544298571	-2.769228212994333	-4.0810184375723955	-1.2784311739115537	-0.02295709954366529	-1.5597171744068192	-2.8736712860033444	-2.4694151816010192	-0.1114504707025967	0.5449656830380039	-1.7181150869860289	-2.457135671133975	-2.3520908296328304	0.1512688394542035	-0.8504539706692774	-1.2771506277264324	-1.4939286671113714	-2.3099396170469912	0.3608040502498697	1.228247758625352	-0.14701570533351005	-2.257260316871766	-0.312992899819739	0.32467561878247625	4.230288494873747	-2.2738828601647594	-1.4386585914528802	-0.11095723481774504	-2.248056882904524	-1.648317928920978	0.8889453984705029
344	-1.4354921543118269	-2.316709035746331	-3.296317092202502	-1.2327394454349954	-2.3877351223742584	-3.5541658311755198	-1.1481696338275298	0.3112679712066166	-1.2505866257564517	-2.488233083164837	-2.169937128310498	-0.08786212630738623	0.7630664090918141	-1.2934738364941192	-2.115985626600399	-2.0572957940611984	0.08351992049588143	-0.2590819590703072	-0.3513131430816017	-1.2424263922794347	-2.001168961240869	0.16360324579894714	1.3643685544852933	0.07213561963703935	-1.9221808861839471	-0.08889265336004791	0.10091133390221342	4.169662465058551	-1.9681180665870708	-1.2628496853415794	-0.2002158457946287	-1.9466835211242202	-1.4644784890393636	1.0245386336208693
348	-1.324821945660273	-2.0775332398414026	-2.9875435753734374	-0.9974681709855107	-2.0866949505574075	-3.121247998940285	-1.0639232370217988	0.48258745548476983	-1.0111964915494522	-2.1839625780278946	-1.917046542095958	-0.06174086018709874	0.8362424948560063	-1.1667102545845522	-1.8061294510063677	-1.8267149879111813	0.04406938690741607	0.42654755603862576	0.043487619498844984	-1.0776116820784865	-1.7513259605060003	0.06665483845332908	1.5861507614143606	-0.05732385799717028	-1.7796515181432253	0.03574347114479326	-0.05464082197460546	4.15931176089157	-1.816391463462148	-1.1809006899582706	-0.2820799641639915	-1.8058392955963336	-1.3789445127004456	1.1269944877780866
352	-1.2645648685953055	-1.9032356690992107	-2.7220497062622506	-0.7858723978228392	-1.8265204383511258	-2.7482280661815084	-0.896942255616603	0.5132715093051577	-0.8623806812447867	-1.9224823664764599	-1.6467980104830429	0.09938389782847508	0.8007739762115774	-1.2414981095440465	-1.5161111316549754	-1.5872553546885493	0.17717266038031876	0.9628294682035498	-0.11976412653487822	-0.9370202994530988	-1.493069525763748	0.16210091073117644	1.863311286036558	-0.45187181120273073	-1.7825351908501783	0.15605930944619045	-0.03638898944608096	4.246289242514013	-1.7999892189356888	-1.1713354557981555	-0.2579363578006166	-1.8007602646185565	-1.3729375566151478	1.216133353023919
356	-1.199366804909512	-1.727474565912899	-2.506593697895092	-0.6130487903375765	-1.5479508599299956	-2.3571414887997664	-0.5534378872249875	0.46107002976356815	-0.7886819819565233	-1.646026011125861	-1.2904952731929236	0.46681901694692934	0.7642592172400476	-1.3736953700669088	-1.2270365922465738	-1.2563589779605058	0.5513917789843039	1.2304671971726049	-0.6473143680441856	-0.7423541527125279	-1.1484461993785893	0.48485264059677236	2.1750557367723062	-0.9194595790537098	-1.8091033651452826	0.38071629308900046	0.21204726344454392	4.4395098574131415	-1.831053609993428	-1.1732189625683023	-0.06567326916564617	-1.8376989318226586	-1.3829698527705439	1.3298070397181214
360	-1.088528511160116	-1.5008536539331818	-2.3413250387206803	-0.4823649811487074	-1.220777150886645	-1.8907310914940632	-0.042452048403131916	0.3874810030214146	-0.7549082021727144	-1.324858662121362	-0.8247045853773853	1.0000855897449241	0.8403458574059186	-1.4588161670092872	-0.9315395927751944	-0.7979717830538269	1.1126452656310872	1.271685477860775	-1.2308329312720232	-0.4450554538457491	-0.683929143609396	0.9826335882173308	2.4910602506686854	-1.2434926001624849	-1.7293072895258255	0.7664871792514819	0.6593359692139378	4.694621551104984	-1.8042888595803508	-1.123826024079116	0.2789649956335717	-1.808903093539343	-1.3402926888005344	1.4919804296971617
364	-0.9328773594191556	-1.2281125752913427	-2.233179802024727	-0.3868024339446824	-0.8689116813656266	-1.3603771890626313	0.5109709488365703	0.33002802646282564	-0.7255989890852445	-0.9813269351978637	-0.29307693169031923	1.5557483395398255	1.0767016383643533	-1.4700117074091827	-0.6381305440050251	-0.2501087182406065	1.701149578567864	1.229532953972754	-1.594674702432879	-0.049822237216806994	-0.13783042098055626	1.525044198954199	2.753034346305482	-1.2727478710465692	-1.4675626717708345	1.2831352916746404	1.1876345842894138	4.923767077412434	-1.6485075909001743	-0.9913712118868293	0.6832087618744594	-1.645026202816923	-1.2071924179116047	1.6917478995525996
368	-0.7738852481376803	-0.9707245206166305	-2.197612756902733	-0.31283011953526835	-0.5558208809170913	-0.8468146898824147	0.9222283340058258	0.29272445962432986	-0.6777726394707344	-0.6755068881146079	0.21305578893275845	1.9556708286500524	1.417326446769495	-1.431921836098795	-0.3597390046573896	0.2916887693193275	2.1273996776274893	1.2375291554677634	-1.6142920214904055	0.39172854920667444	0.3959200372236646	1.9535382936746626	2.881203644153883	-0.9806216930426619	-1.0341186497328514	1.8269789172775803	1.639025803242534	5.0295934550139	-1.3544266189711487	-0.785975096625528	1.0226595375944245	-1.3414493765341253	-0.9911794041404264	1.887044544224013
372	-0.671834586354623	-0.8161850551025693	-2.2486686649769543	-0.25136989291622486	-0.34486201318455917	-0.4579969632983197	1.0416750881598182	0.25567960674582846	-0.6050124749167347	-0.4667824196951296	0.599979279910674	2.0746087975575263	1.7202720598657149	-1.367759939555161	-0.10225186471156923	0.7213183623222178	2.2631547393880123	1.3274449076516366	-1.3481132950124788	0.807920155869591	0.8141873458333211	2.1492872183894893	2.8038113046428585	-0.4699355351981093	-0.5143327700027042	2.2723367156831893	1.8852878761376277	4.95036505402985	-0.9708439683244589	-0.5465390668421674	1.2054195373618817	-0.9514399146854	-0.7330300193399204	2.0297090955987436
376	-0.6768715364532951	-0.8319941738103663	-2.3868834912118575	-0.2097214902112802	-0.2619054608885112	-0.2699914567806479	0.8342582562364433	0.1872682119648229	-0.5171977268512448	-0.3783425381168137	0.8158033469583915	1.9010782193823679	1.8207070781515695	-1.2711831299158762	0.13652913237910536	0.9718221997520428	2.1002347416304006	1.412974234828274	-0.976258156218962	1.1365424365912606	1.0535418960674794	2.087966436836546	2.498849147209689	0.07792075703736552	-0.02546189718970506	2.532359355254967	1.8875873041179672	4.694166648457206	-0.5768089875917014	-0.31488215843809225	1.2202622859663752	-0.5554965124410425	-0.4799170481962849	2.095884794665675
380	-0.8035488704420899	-1.0259116862144484	-2.590732806340498	-0.21377946382431057	-0.2802790396289723	-0.28225049305226335	0.402106373486961	0.06003253146750439	-0.43597987184122744	-0.3837089528886499	0.8728117324727233	1.5413105448909137	1.6145321089989546	-1.11830341533604	0.35617002754886196	1.0444985601756998	1.7494628385243152	1.362490173714584	-0.6834299547106625	1.344796296539103	1.1182693214793147	1.8552247239002975	2.0262985178333066	0.4882856893132329	0.3369897893503697	2.599874966733066	1.7170102552932618	4.343624104023638	-0.24521104929526166	-0.11239991308682679	1.143917438479989	-0.22423505726467144	-0.2597293549179006	2.103910440855129
384	-1.0226700280118786	-1.3364109959239823	-2.820593826802025	-0.29674020334664347	-0.3364775470344633	-0.4145352829957574	-0.06369613094937407	-0.14089633488844971	-0.3878577937824109	-0.4226573993025368	0.8372648337206127	1.1635967463679258	1.116801139872914	-0.9062266922958904	0.5399595485406028	1.0036585305623194	1.3803181613404711	1.104547855449505	-0.5527334199301659	1.434178467944294	1.07405161586433	1.6112259585709006	1.5223510226914674	0.6728905422387979	0.5361633883290874	2.547821992163559	1.522341843576195	4.026071061459904	-0.015682002489908666	0.06715061498615786	1.1018196316557338	0.006996582710214612	-0.0712544841755494	2.10797190133987
388	-1.2709670034744665	-1.6568171936166214	-3.0344233436266594	-0.47474992155375206	-0.36438771990329744	-0.543244241296592	-0.3736720671756178	-0.41770058764856294	-0.396591662359298	-0.43399461994270583	0.7969125489141977	0.9183791256605942	0.46328446152067254	-0.6855993253564304	0.6540601236996091	0.9447240805615783	1.1401886911215444	0.6953645927039068	-0.5323179350764671	1.431869264802236	1.0153516505355435	1.5223591289231364	1.1546386451179598	0.6620072705720921	0.5994423016672482	2.4925167497647394	1.4620822631161532	3.8629963300448455	0.1137110290040602	0.24742810365672957	1.2050144641970109	0.1432973589855524	0.10717871013045796	2.172090286492928
392	-1.4723222218534224	-1.8785972547784822	-3.2028243460853987	-0.7237731200064498	-0.3247581414129594	-0.5565106854693352	-0.42408648026206347	-0.7521634678923822	-0.47158583879616134	-0.38279437922152537	0.8256512859479627	0.8767577983654704	-0.14193695747779475	-0.5471113310352111	0.6667205674504509	0.9549441909521874	1.0962839098908406	0.3036208443128531	-0.4864712941285285	1.3801784480534702	1.026388642580737	1.6907628731955284	1.0555901500753695	0.5754051790014957	0.595803736136121	2.540293925547434	1.6328822333117559	3.92092751466726	0.17641469791694617	0.4502020168858864	1.4957511387254225	0.21763566081412447	0.29843586607925504	2.3382689893814725
396	-1.5604702194870104	-1.930936212432899	-3.314427367425332	-0.9728997921222164	-0.21420545821944476	-0.39871734280055593	-0.2286384844967866	-1.093713876823904	-0.5977876171278164	-0.2676417820848896	0.9620767807512265	1.0181310151144027	-0.5080050217200351	-0.5698793516076102	0.576461850141406	1.0849424573209032	1.2274745671752776	0.11942005127320038	-0.29633971973940876	1.3261378970043016	1.1539646357965414	2.1130661911066713	1.2631370989379607	0.5509777055180947	0.5977967366384439	2.7427134444608123	2.0280981012638217	4.18578671352248	0.21693448667591825	0.6782175881428593	1.92731940259706	0.27043506434826875	0.5087494837314002	2.605410807707248
400	-1.496976848637489	-1.7999290182446175	-3.368610611993733	-1.125398990650767	-0.05302977921090981	-0.08492038377540759	0.11139780254849002	-1.3602468933094811	-0.7338686566897928	-0.10792408111265354	1.20555329018442	1.2636822430177	-0.5327116237542145	-0.7630393485831544	0.4279080320521892	1.3384101357047016	1.4598855935431472	0.24072046517154375	0.04914103063455013	1.310576912432078	1.3989952767336846	2.684495203869884	1.6994652705200537	0.6698911173119834	0.6464530809293558	3.0772411745579835	2.5429542000463328	4.5702013854034895	0.2682497196577413	0.9080176926575795	2.3850467144830967	0.32991501605661677	0.7197394948907487	2.9274163172244627
404	-1.2825151649519628	-1.525104876482427	-3.36230253324379	-1.1018958063915645	0.1349066939524155	0.3145474783585234	0.4725595104684315	-1.4586253129371982	-0.8229727724278088	0.07520897667493034	1.52415573212142	1.5285644492657458	-0.23985849260330072	-1.0425289842987144	0.3002663545180081	1.6778151946622393	1.7173652605566476	0.6065807923261052	0.4314326931074382	1.356040235910434	1.7238702730524311	3.2442696012603007	2.2013609353753254	0.9138696170622078	0.7355250101592743	3.45952366909147	3.022088758467982	4.948131071949309	0.33718097124800406	1.0960336895927052	2.7366731097745247	0.4010108699210776	0.8936087466566661	3.2302646555406547
408	-0.9584733819604279	-1.1773873537855004	-3.2805874264859898	-0.8840195514294116	0.33478417908066976	0.7091715317941087	0.770446119747468	-1.3192197051119785	-0.8146703818733613	0.2697814100129897	1.866952772195272	1.761328573548373	0.24100889204688367	-1.2691003052141037	0.26884281567408136	2.039442295647412	1.9556832264161343	1.0255005333758258	0.6638591868805879	1.45595860113668	2.06797074749494	3.6400184539446023	2.58850311579437	1.1797859638944956	0.8201194384849699	3.7793252372690342	3.325664035030019	5.200611101371672	0.4026348580685277	1.1941181391131321	2.8866517470911774	0.46508189918398113	0.9876332258084678	3.4381966504075225
412	-0.5968196376991078	-0.8302744606036486	-3.1005446832576924	-0.5334884510876109	0.5395222888676345	1.0240600083245313	0.9862299536600636	-0.9345073080310683	-0.688845990349149	0.47028705358978473	2.1751680319227793	1.9520909736938805	0.734133360916572	-1.3239489760350966	0.3621726026927798	2.3511278569942706	2.1656248514811756	1.2800985542402907	0.604089020157561	1.5726072748534008	2.3644103944210624	3.7823378944269552	2.737826340438727	1.3414865698323712	0.8442602136277252	3.944255818899133	3.3829178724709164	5.253042207806679	0.4273326386153027	1.1681114405703945	2.8104050088498442	0.4900580036188321	0.9716587638164813	3.4981231601134004
416	-0.2820827953846112	-0.5412196503326179	-2.81152271514585	-0.1712338920084719	0.7373901586988767	1.218509074949378	1.1475001544591028	-0.382449059712891	-0.46962126970932455	0.664907453765606	2.391722911518243	2.1133766120958777	1.0897519560956868	-1.1759368151539087	0.5406398759543515	2.5489978725927194	2.352102512143177	1.245396730139672	0.24771605369491248	1.6474808412918658	2.5546607906692422	3.667958727158972	2.629220002211955	1.3209935393360155	0.7712302784521532	3.914265145909667	3.2112340846048157	5.091109262964056	0.3778136661050569	1.0126205657188305	2.557358020047808	0.44611552245040303	0.8416094758719666	3.3952884588349472
420	-0.08893430210547956	-0.3469072869602181	-2.439069503348167	0.07620740662646153	0.9018551684498107	1.2862547603557293	1.2840467659002444	0.18662516725628714	-0.21943123583228852	0.8260949829225505	2.4725732740918254	2.2525336685530113	1.2366594044933967	-0.8999513961004912	0.7156512123159265	2.5927436286315637	2.5097961362414987	0.9512138342683378	-0.25842180782876406	1.6287789303664884	2.6015822821737014	3.3658459101574514	2.3404436052359676	1.1293309898473827	0.6046870931617274	3.715051641621373	2.895965568860265	4.753128039757318	0.24351651905089797	0.7562289814929576	2.224863285169503	0.3206519178401052	0.6234570129866218	3.1556816021400915
424	-0.05995768666030696	-0.2659068100891479	-2.0546958394626604	0.13634176517872698	0.9946858261744203	1.2423272101507787	1.3943153584563157	0.6014271959379022	-0.013949847744948077	0.9147602296621932	2.398925536774716	2.3582847058836722	1.1895960539347301	-0.6313794835362301	0.8012112358845458	2.4763622221413413	2.61541675860972	0.5506743774815985	-0.685232637582698	1.5018775425185484	2.498784058937759	2.9771816655332657	1.9946945855324227	0.8585832693357341	0.3890334357929925	3.42558478444205	2.544237130417239	4.307569016071455	0.04576037067542457	0.4547718453846331	1.9163736056581429	0.1268595751897354	0.36624652054824736	2.8367712426089593
428	-0.19366848419883925	-0.30398324055217246	-1.7627881720859477	0.02241716155710488	0.981181321051045	1.106407043524645	1.4412887060015986	0.7349715214292873	0.08909193403877069	0.8961282349849607	2.1850352232125645	2.407505267740603	1.0182645295183625	-0.4889895903639307	0.7641994933861335	2.2297799530953224	2.640547268876472	0.21979159061252954	-0.8416045286864626	1.3012975421475839	2.272245401367624	2.590860121861417	1.6930339293650265	0.6326681359530205	0.18830436420582108	3.1447005192515567	2.237228387906229	3.829095353949407	-0.1667512651048114	0.1761179263913588	1.703914399613435	-0.09654536818924503	0.12808260289279377	2.511828654623208
432	-0.4469133604210297	-0.45636287216360566	-1.6639792877147497	-0.1784793432021082	0.8485711195502214	0.8919092394244762	1.3757824863030945	0.5569386468177421	0.0730333624426379	0.7580200414592912	1.8747267675751196	2.380924695679417	0.7962527851028447	-0.5123610483585123	0.6432181580516284	1.9079010438432913	2.5694653923011757	0.05003498109463443	-0.6754751188390229	1.0988396378430672	1.9707544992281196	2.253558391603403	1.468056794274775	0.5478705749984432	0.05657765254994996	2.949794046583858	2.001881117534847	3.3805503759864153	-0.3359868815999111	-0.020980333856422107	1.6066775281395742	-0.2964194111492722	-0.042435470861345616	2.249555820507551
436	-0.7510460000149545	-0.7035394293188569	-1.8089177562819208	-0.3550913324927628	0.6165183767011921	0.6050484761220881	1.175336596382536	0.14516578578060924	-0.0343017875282187	0.5206620084014887	1.5261936149211457	2.2772569598876857	0.5595586881815189	-0.65165257289392	0.5232383595607556	1.5703486164499847	2.410764449708693	4.503117440889897e-05	-0.29832479282399654	0.9684550737725374	1.6478325086951526	1.9651204297995952	1.2828994957005042	0.6311907752313477	0.012310516058119909	2.8649914192344874	1.8117549373660662	3.003517381714333	-0.42014220250865514	-0.10751897069487981	1.5917668302402084	-0.42566534769353254	-0.12378658323029271	2.094015593010238
440	-1.0363991234362002	-1.0069581244794648	-2.167147869360631	-0.4298706341857534	0.33206227337922894	0.2521199577641846	0.8668802954721653	-0.34848990948429853	-0.17685796275786042	0.2311591500168126	1.1904197901234463	2.1109125560870843	0.3009679905922102	-0.8118053058155315	0.4801579701698588	1.2598302332541709	2.190336698724082	-0.06176241471671123	0.08068148026361834	0.9455859637228544	1.3421025242299252	1.6960906939599703	1.073590991170669	0.8358997681494131	0.030017374007613187	2.8531837391342942	1.6126497943217002	2.718363755038647	-0.41212564602750645	-0.09350899583334378	1.594726796892281	-0.46236485126107724	-0.12866085735262228	2.05247115570668
444	-1.256113287615362	-1.31221651699642	-2.6295924120315717	-0.393827198941595	0.051973655688672016	-0.14981585703218223	0.5195125328298975	-0.761616406902024	-0.2970418922554124	-0.054033506525232027	0.8948152638731633	1.898196454024043	-0.002457835705333353	-0.9138240195090698	0.5311131463946639	0.9906664465687844	1.932684655078326	-0.255339145015731	0.2697490446909584	1.0060158942572341	1.0671321126698252	1.4149070942441704	0.8067616799966614	1.0728132697676032	0.054459757965396156	2.8364436554821006	1.3579059804964826	2.5267774994951337	-0.3411476901501137	-0.02134914318297413	1.5495575627305045	-0.41815763606354667	-0.09666388457450108	2.095533604099545
448	-1.3997878992979065	-1.5609618385958766	-3.0469458026251943	-0.30274882836199074	-0.17801374152062077	-0.5671495184884342	0.2133762384034231	-0.9858962272548089	-0.35902246742203137	-0.2891637377590827	0.6400102360779161	1.6457569557600242	-0.3510606280046483	-0.9390501356257999	0.6218078120744953	0.7526555042337607	1.6471548038857675	-0.5988519176622386	0.19026523780469115	1.0770839425549774	0.8155876973541386	1.108985421241829	0.5142653571496334	1.2512860266564803	0.027826867927390243	2.735741846806905	1.0339825127245281	2.4154145656637493	-0.25815176898629094	0.05276448638826495	1.4148585760634456	-0.3331494918995095	-0.07666815052941203	2.1700096075583617
452	-1.4864852390906134	-1.7067346529785068	-3.288181773466938	-0.23342232347205902	-0.33585446988187684	-0.9517679786494155	0.0010453490513992719	-1.0011303399559093	-0.3564723423063995	-0.45105203872288213	0.4117478419875515	1.3501037325150829	-0.6959253532005379	-0.9257041192524824	0.6612126214499529	0.52815574274231	1.329063769799649	-0.9856559013276812	-0.09322793758219564	1.0789867612299828	0.5754683003201535	0.7904049734186954	0.2804146998001386	1.3112320866857952	-0.08067145923274077	2.5122930940141255	0.6649479849239509	2.3606209695343896	-0.2117660934346871	0.08293569067042929	1.1869430512024757	-0.25868233973041954	-0.10501328829239638	2.220481866952416
456	-1.5427815875202562	-1.7283267931217459	-3.293418160706525	-0.23047479928955178	-0.422254620916484	-1.2507226435554857	-0.11574400187118468	-0.868530569267895	-0.3042152814336972	-0.538250504565273	0.20074374923091032	1.009889719320696	-0.9455193257301638	-0.9235134697485834	0.5830849394381914	0.31238919417665567	0.9754857992339124	-1.2443827359253132	-0.42398744714501924	0.9733216737968715	0.3486916414040315	0.48649716254429576	0.1892048115721695	1.2334610192628244	-0.2588770681044091	2.1901719514863385	0.2977314285867556	2.331784004046283	-0.22758053185701688	0.051087297370196814	0.8963831044453768	-0.2359806740286491	-0.19036507558443785	2.2102751676068473
460	-1.5793878992259298	-1.63542723242795	-3.0968160551085373	-0.276862799422296	-0.4500086296164009	-1.4215412104002112	-0.1807675804104194	-0.6928993446022209	-0.22288325372690096	-0.5616546259051091	0.016954665960778444	0.6436566694221338	-1.0111740802030733	-0.945545670983088	0.3938927640506824	0.12378412453870194	0.6050978883724822	-1.248955246633068	-0.6510227902188133	0.789379475507924	0.15922699828478093	0.22472698929792193	0.26351612739788766	1.0317311260877562	-0.45611071471452	1.8491297913595333	-0.02074796514935192	2.2958440722675157	-0.2998735301076077	-0.029664782732334572	0.5924334511104505	-0.27939918566734184	-0.3121162049042736	2.1333887523193997
464	-1.5792802532377372	-1.4635847769978578	-2.8089127469670148	-0.30383312625468467	-0.43314391265229685	-1.4487167560240435	-0.25906225973525865	-0.5738251194771342	-0.12601792780530943	-0.5354015813661365	-0.11233299197207418	0.2933809153779062	-0.8608570077142403	-0.9451313590983003	0.1761317397677506	-0.0037394056467923383	0.26199397378577916	-1.0056723330856163	-0.7067983132637236	0.6128954275869567	0.04343920190095812	0.020790001324973634	0.4358927894554305	0.7411502581003941	-0.6030558928522777	1.5906088312044357	-0.2624194019367894	2.2250003758521406	-0.39875018495974424	-0.12634405461837458	0.32366520084679484	-0.37207746411796777	-0.4326978910965687	2.012439722702281
468	-1.5050740204004929	-1.2617201773259374	-2.56898950881849	-0.23613919258102906	-0.3822056641465652	-1.3528333868203248	-0.403902231627187	-0.5733148441145004	-0.0188887547224702	-0.47319543242193457	-0.15803123970663843	0.010826356681669525	-0.554511366874682	-0.843855200067499	0.043489716837277724	-0.040650997208242945	-5.9609450394895395e-05	-0.6629536731194463	-0.6234241708274335	0.5409914837529938	0.029135117233746236	-0.1224502769001247	0.5746028408801999	0.41391068592473307	-0.6393550022195545	1.4940232000777465	-0.42188328398047087	2.1071238464561466	-0.486651419364585	-0.20529726095819095	0.12434674022989697	-0.4747426199847855	-0.516743360645269	1.8858678293298279
472	-1.325245615474267	-1.0796436044137494	-2.490612023741106	-0.04475370410706429	-0.3074975602015791	-1.187468644958778	-0.6323850138910522	-0.7070174199373647	0.09167694277266929	-0.39095729490755055	-0.1091009226667082	-0.16619528788091145	-0.23527949989044292	-0.5897623881708747	0.07240354996520887	0.01833257633289465	-0.1438574638310926	-0.4368762362894191	-0.48559367534107145	0.6276562794097356	0.11583457112869222	-0.20684620685805832	0.5542342052771763	0.11805739223952758	-0.5365779386324535	1.583658452804015	-0.506036041889496	1.955775136778146	-0.5341246710643371	-0.2475558811136442	0.011099364580503028	-0.5426024184832711	-0.5461777434864512	1.7918956234513623
476	-1.0449584696136256	-0.9595685577007659	-2.623109810882167	0.22667120339861935	-0.22481241765483057	-1.0242140267262418	-0.9206494069697121	-0.9550145244328447	0.18728841793935075	-0.31011044900800094	0.015517527198356532	-0.23530910849766035	-0.07191462796651193	-0.20279371687233347	0.2538182431011597	0.1463335450769392	-0.1711903061120899	-0.4955938743953369	-0.35808586983871793	0.8516949989750126	0.2686071389092345	-0.23136940540072695	0.33049568450455263	-0.06779102218916898	-0.3080567113728053	1.8205478145411318	-0.5207787739003089	1.8135564281452092	-0.5273019062080584	-0.25326871808004037	-0.012489424055574417	-0.542292414726577	-0.5243896828763301	1.7564197734356446
480	-0.7250844221881977	-0.9348686313867844	-2.9466476366033985	0.4757071125417834	-0.15861061175355365	-0.9309174394945996	-1.220423933762598	-1.2832716671015423	0.23603244066250587	-0.25752901965924996	0.17048121945730976	-0.2337758535204905	-0.17994895531997981	0.2192803466744206	0.4932877706947994	0.2934149794323094	-0.12570825187416076	-0.8692532159793274	-0.24201181469850344	1.1253347368438615	0.43010884414799677	-0.19177764605740344	-0.02752742723131074	-0.07365361582518523	-0.0036783786397689444	2.1214652007900554	-0.4649817037763667	1.7431563094951326	-0.4667654621737339	-0.23459121525663684	0.05013141023376666	-0.4631402182806803	-0.4683621811962681	1.7893426373127885
484	-0.4713839876671391	-1.0274157498169132	-3.39167927839362	0.5906028732647305	-0.13663816417528546	-0.9479753351119329	-1.4799236021824365	-1.6562260347512314	0.20241855033790315	-0.25776588851698934	0.30332744044968696	-0.21599872355762958	-0.5598581419161144	0.536452172832295	0.6605741961013755	0.40939748183838	-0.06817716342879084	-1.4338828289069545	-0.08839463420246511	1.3374040093034332	0.5461698160687162	-0.08716969170019814	-0.3696918478215006	0.1312214877868693	0.30629447025214773	2.3939344822524053	-0.33527958308446965	1.80467354795676	-0.3627155414006681	-0.20414674230531876	0.18962441336916766	-0.3198568216831313	-0.39620762963397976	1.8873408985170879
488	-0.39440148969255595	-1.2418465582965237	-3.8681869409173606	0.5078436719470355	-0.177982478884515	-1.0734868022518647	-1.6590543943479725	-2.0362992235270516	0.06567686034548481	-0.3212313941951485	0.37818404936675604	-0.22007290963399792	-1.086785790560573	0.627140401210507	0.6597767455609389	0.4669525313508891	-0.04091301922601402	-1.9768903205550963	0.14413168989985065	1.407404299997366	0.5902773126957892	0.07113943231026218	-0.5446091876585023	0.5120689259952057	0.5518499002828909	2.570077412792184	-0.13828378880873443	2.025361532819803	-0.23150093795025295	-0.16761393802762878	0.387011378026415	-0.1472377773382213	-0.31896543422276585	2.0379316755340384
492	-0.5567237720738692	-1.5554516276188826	-4.288753498693422	0.24643596944578688	-0.27931165624671017	-1.2621763912758963	-1.731930251517189	-2.3785669743566342	-0.16313841897783982	-0.43350860367043437	0.3923063864339906	-0.24143023727973711	-1.5635573824507125	0.44325664527561415	0.4808564173955734	0.47347158074048173	-0.04140971590554421	-2.305615896125901	0.42881384383655385	1.321704265118523	0.5749910459306419	0.2578168504881436	-0.48262819525937095	0.965246376938445	0.6823261959014985	2.6267764502009125	0.10127127890052263	2.3734874665417	-0.09471235400367596	-0.12413218586098906	0.6101893171163415	0.010816278840115056	-0.24018125175394456	2.2218003216915188
496	-0.9328799820235192	-1.9098787259519456	-4.578946578862856	-0.09737484877558693	-0.4090016175911037	-1.440418358980786	-1.6828337865303669	-2.624878399897477	-0.43555855641069635	-0.5541011081057289	0.3761574020425424	-0.23103873373350914	-1.8073772146369456	0.03171405188182852	0.2050701672621701	0.46517977001045524	-0.021608356331867255	-2.3348190725505833	0.655126868024461	1.134711620326962	0.5437612519840684	0.4423978019512139	-0.2302983546403009	1.3472285236676667	0.6800461990353067	2.5863566333321377	0.3442864707360611	2.7532808711156505	0.021462017616087396	-0.07265992444290173	0.8168781975149123	0.11444690794659926	-0.16187804896492392	2.413227313624594
500	-1.4063656294601323	-2.217410081987027	-4.683310020066648	-0.3919191350578626	-0.5147752748843994	-1.5326038560319755	-1.5072655639740613	-2.7102348736047026	-0.6772055012771284	-0.6282742007605618	0.3772414913189801	-0.12524877456990852	-1.7321000055450808	-0.4858250605715053	-0.03759114434764977	0.4872945236777654	0.08192546644984296	-2.1103992408875745	0.6793795806898217	0.9375508999995497	0.5481207952965784	0.6028168782273318	0.08301418998740029	1.5301876029481711	0.5664527401927691	2.5015399392866358	0.5513247237591009	3.0285365505049255	0.09142968035502345	-0.01734827640742986	0.9667265986830598	0.14066599273929678	-0.09015924460774653	2.581850045361338
504	-1.8103288366387706	-2.38386391991516	-4.573133933919035	-0.528259037591445	-0.5411883578941898	-1.487502332746493	-1.2150868146735947	-2.5835270816425044	-0.8127268532260771	-0.6061378702118976	0.4386711109530088	0.11399593920536724	-1.387397881819728	-0.9627989506255018	-0.1324743625157236	0.5732042774987212	0.3079707614752562	-1.765294070555268	0.4150685657512164	0.8130131939388551	0.6248488410432579	0.7362421136387565	0.3250201634307305	1.4609527551005113	0.3971017589079979	2.434834712556857	0.7000870090928933	3.0721542757671156	0.10170887384961694	0.03438584497830097	1.0382999155532884	0.09325489378272725	-0.03375820807040074	2.6995608738452748
508	-1.9964287230631397	-2.343780511660648	-4.258546341634679	-0.4650903928458402	-0.4511143851811598	-1.2963657346420303	-0.8385900237845582	-2.2386078778014276	-0.7942643145535133	-0.462340502763748	0.5812314734089354	0.46829682470343686	-0.9356644129971715	-1.280342933283253	-0.0309485624694269	0.731312630714343	0.6406521781005263	-1.4445807897335214	-0.09635199582092069	0.8017600754522518	0.7822754959383048	0.8561041333518505	0.435260741803828	1.189650890207785	0.24503828523281637	2.438457721275737	0.7919511775049101	2.823609821820045	0.06084169432060976	0.07824653367314352	1.0384559605129164	0.0033515388992747175	0.0020145482798467253	2.749245875093123
512	-1.8975173187031869	-2.089608664005251	-3.797317733714086	-0.23710004925470482	-0.24045424102632662	-0.9938129161538884	-0.43744659313383477	-1.7334713892086104	-0.6190320237743137	-0.20648482389769754	0.7981645444745438	0.8609768130499363	-0.573541818601232	-1.3790930474748508	0.23762220084278013	0.9464802718108065	1.008311626749607	-1.2407739131118538	-0.68501382893228	0.8953104592607071	1.0026664708571824	0.9769861077437659	0.44947019105918185	0.849826989412468	0.17694213941723194	2.5411751206135684	0.8439983108192434	2.3244967401944425	0.0005259048762491948	0.11959456622208152	0.9983946655815602	-0.08080472776754148	0.02237281011356852	2.732118838088025
