time	FP1	FPZ	FP2	F7	F3	FZ	F4	F8	FT7	FC3	FCZ	FC4	FT8	T7	C3	CZ	C4	T8	TP7	CP3	CPZ	CP4	TP8	P7	P3	PZ	P4	P8	PO3	POZ	PO4	O1	OZ	O2
-200	-0.665962098347599	-0.27960923243499997	-1.7941594078542162	-0.9366017556385428	-0.26375496320889963	-0.6927174908314703	-0.7029707414044908	-0.9150034166122628	-0.6688708646099389	-0.4800171541969324	-0.6978031379248009	-0.76476973102126	-0.6568882448777715	-0.22063824478710398	-0.31526014129198104	-0.20321181365205485	-0.2013325686139986	-0.695970473916519	-0.8598236419903783	-0.06950151157713098	0.22467814329165184	0.24172398386960978	-0.0360980293733445	-0.1536822166139047	0.33460360680977863	0.5567552433262312	0.48928269620387366	0.25560808117227857	0.3323786548328979	0.5669746980657494	0.5415924773847467	0.19758936712923234	0.8597754218328768	0.5663683996206249
-196	-0.7993959168278497	-0.33774605308137046	-1.501245494866946	-0.8013595322403725	-0.30378696245742265	-0.5798352346085971	-0.5756319150696488	-0.8056274632140941	-0.4682739067175786	-0.46453410269755596	-0.6388528926932343	-0.7321519237153064	-0.7457437496430569	-0.3910730471274121	-0.29171681330462357	-0.08774296917220047	-0.23992793201428872	-0.7490218858881373	-0.8709150530761143	-0.06295816584427315	0.24978347059604955	0.21388268416763973	-0.046868841976804194	-0.1951031679949607	0.30026888771540466	0.6709780080067185	0.46475732209167625	0.22495552840657496	0.4105934192304564	0.6681860072431988	0.5691554531986407	0.2561514371126792	0.9740377043927504	0.6621275527449452
-192	-0.9522168612280857	-0.490862547111979	-1.1752618521581764	-0.6717653853622135	-0.2518032484849702	-0.4272776533306362	-0.26996856859711194	-0.47526141881160067	-0.40708175198773555	-0.37353104258643527	-0.4678261566271563	-0.5015122877810444	-0.647030351912548	-0.5645235166601948	-0.1624691482256691	0.07307442259220388	-0.1224123161920792	-0.6831164342799355	-0.7180503588667235	0.04243528459683116	0.32721924699184396	0.26847532323764656	0.016095364425672658	-0.1270805296073599	0.3810243298924219	0.7921379188565199	0.5103381263245877	0.2635336511634074	0.5454571233329362	0.7653040270556776	0.613259433151681	0.3533626189847067	1.0609955760871128	0.7803676704731509
-188	-1.040841338390805	-0.6804253441797657	-0.8672738649406235	-0.5422536121029261	-0.12084154009111797	-0.26077869468652204	0.1433522995667354	-0.024139832644312104	-0.4519055176292661	-0.2205029273426443	-0.20916585571408686	-0.1349896487165722	-0.386649309612641	-0.6762880069824173	0.03769095977565475	0.2526909404573689	0.11999883472424994	-0.5065391050901302	-0.4430719602842439	0.21894970480952508	0.45049697046981274	0.3926688422779546	0.15193997285151875	0.030862195339365413	0.5474465475565815	0.888558921954755	0.6031458958656613	0.3758469810533359	0.6899341923460658	0.8218395689242001	0.6738329512749621	0.445893852777043	1.0806041928665242	0.8793877341002551
-184	-0.9989196036867717	-0.8131549933884178	-0.58242094369707	-0.3748433878494641	0.0636758653702016	-0.09544180309517611	0.5613648877275874	0.43550118694024487	-0.49271243686255756	-0.021312622299625363	0.09230911708414159	0.26994150808845224	-0.03613566598113484	-0.6658631546375217	0.26528489522713167	0.43291765342130073	0.42560073625875916	-0.25265806849585826	-0.12501101164249978	0.4215065528241192	0.6077871903333132	0.5610299096247954	0.33716344748248434	0.22100040260784487	0.7373400311927472	0.9416359043189174	0.7089952808599529	0.536535440520836	0.7896014432045071	0.8196728804874402	0.7504587154514653	0.4927237617450363	1.0210056279153727	0.921651957092303
-180	-0.8175718167644124	-0.8056303242370361	-0.3152523032812129	-0.1461403217202264	0.2664369337984418	0.05961464702932948	0.8774444438715493	0.803306041119888	-0.42531871688271644	0.19685934434302768	0.37630683088661704	0.6093097313756117	0.30949935238898413	-0.5135381804852095	0.4736536133251662	0.5930706843661353	0.7154621463831764	0.023835070371054683	0.1449368741429273	0.5968384727668093	0.7722051124149936	0.7350478749790519	0.5254144655313662	0.36662113573971483	0.8766178466598912	0.9435589289684507	0.7920896390943737	0.6963193399015085	0.8015415052204123	0.7598391752132433	0.8338929989741819	0.4689933049758789	0.8976392723308466	0.8873395301350188
-176	-0.5577143416628906	-0.6267818196684436	-0.0799068881043954	0.1144242879839641	0.44697764403025764	0.19546163032773484	1.0209677193613913	1.0141471598769636	-0.22630849423491564	0.3919450332759521	0.5835469946433236	0.8087345937337457	0.5643890485819211	-0.2568235390854696	0.6187528356188906	0.7062168699554077	0.9175288058003753	0.2589006119390359	0.2914941005499826	0.6968048197319784	0.9020110345955048	0.870646534152079	0.6591592414426249	0.4016754915109676	0.9064295269015489	0.8941994286848989	0.827206430730871	0.8004291633424224	0.7088101488337479	0.6558237059247707	0.9045469142010714	0.37205937410832407	0.740673420943395	0.7814413289367793
-172	-0.32532471336244145	-0.3137381664938065	0.0823583824343342	0.3189865938716077	0.5681429491003975	0.30167567653784166	0.9880529617159163	1.0522628996031183	0.023406425431879836	0.5158615099280437	0.6784716231382506	0.8506695010642411	0.6809647662136211	0.020051281848589172	0.6680882556260139	0.7482498865309556	0.9930946205815138	0.39676213164292523	0.2800213687502589	0.6936835033069061	0.9548944210739256	0.9332302785199798	0.6911565047933886	0.3000532083088295	0.806149003854562	0.8007335642625217	0.8094975927895891	0.8120789507390044	0.5264773355543174	0.5259765969348236	0.9406129098032202	0.22004634086365638	0.5803314432750993	0.6320564730898798
-168	-0.2184883797612895	0.04382301483414932	0.1250427362146014	0.3640227904665814	0.6085968002212533	0.36987653281287086	0.84278720404511	0.9510731673070231	0.18474662257280522	0.53474473818237	0.6658248288510279	0.7765231112902	0.6605902297507796	0.2205960297975484	0.6123031958379637	0.713616846190234	0.9504867768132033	0.40618130462138713	0.12793372539168194	0.5919857010200282	0.9091629362994024	0.9119128561838169	0.6047435983648318	0.09001925564926437	0.6026025399252606	0.6788687092807417	0.7554442267418261	0.7282792907447371	0.29714855476696866	0.3892586519427077	0.9302422976849333	0.04444975394708989	0.43714600691099137	0.47961526988054903
-164	-0.26947534016284086	0.3424547604020932	0.03420115253635013	0.20495770819892406	0.5735706076445858	0.39954700965141227	0.6837850791833376	0.7742739300252793	0.15197463295236813	0.44957071429234174	0.5909508451800507	0.6608685238365333	0.5436156974418944	0.2803243689612096	0.4736763822994129	0.626149950830775	0.8374244549589182	0.29321584031461756	-0.10057014201521933	0.4307721246333827	0.7800466398572012	0.825553355516844	0.42548262965543493	-0.15347170791025067	0.3614067426139944	0.5533999190663615	0.6952652317613172	0.5827993139811488	0.07786195705544306	0.2653527551150371	0.8814157821336174	-0.1192125302523582	0.32115206041315275	0.3630213132275938
-160	-0.41775932802584076	0.5076437579689635	-0.14867846630228868	-0.09563190465862666	0.49645361178940656	0.4005574871917383	0.59060454219478	0.5838743433516036	-0.07286248337707889	0.3024808756820795	0.5200594650489756	0.5696097597999717	0.3850124170596296	0.1965522165104367	0.30304530186435497	0.5329180346385506	0.7139601093386289	0.10186967227965378	-0.3171014479737336	0.270952253849679	0.6174908264782475	0.714058278188326	0.21405254250365954	-0.3391180327913465	0.16115501482330152	0.4524003255866198	0.657732425459594	0.4322476674133945	-0.07985311726436316	0.17352034107744432	0.8199407437603845	-0.24185749827356956	0.23497317672055437	0.305856405916477
-156	-0.5344585762835259	0.5192034231428727	-0.33211815273356476	-0.3781523396958156	0.42979788671698865	0.39140707155589005	0.5826936349462289	0.41302105680138407	-0.3679918935544761	0.16342717367872517	0.5106557594757938	0.5269033299494517	0.2315871113652194	0.030592804697402585	0.1644236739298866	0.4828300165860709	0.6213543995428338	-0.09815885101808002	-0.44192290194516504	0.17227849320784563	0.48487281676897787	0.6190625413523616	0.041991554094630776	-0.39919009703939834	0.06231781079532608	0.3969877948274751	0.6549944265041044	0.33152922904234844	-0.14828897975198724	0.1286554035276391	0.7758758644542182	-0.30848884504633584	0.1773526813082471	0.3088163725685497
-152	-0.48924934740520604	0.4122914661488529	-0.408589689892101	-0.45924651506823616	0.4274447251495198	0.39536431331950433	0.6189286097158894	0.2651918225745499	-0.5524743781446261	0.10306051347461472	0.5885331019801306	0.5133330809030552	0.11504760355512904	-0.11826760291995846	0.11297830165710569	0.5038615452442904	0.5679388031925572	-0.23094052018032846	-0.43270155678221317	0.1706784661275347	0.4312354315360521	0.567079483031	-0.035576499908747464	-0.3180758349017392	0.08565168806147168	0.3935164799291654	0.6781207305953438	0.31247123996998183	-0.13132375445588446	0.13643117214566433	0.7678423504516737	-0.3197004787002802	0.1458959426772643	0.35296699315600893
-148	-0.2240488970583467	0.25755044752899264	-0.30181324405763593	-0.2339868986659461	0.5231791721486431	0.43511819729620754	0.6388704164587541	0.13909372652221993	-0.48570600029386707	0.16251051384903878	0.7425614576665334	0.49570670598761185	0.05864767715428938	-0.15709774156484552	0.1742407973181867	0.5928167089753886	0.5398836718279953	-0.23759035706138926	-0.2972137026435437	0.2655700140446949	0.471628247500812	0.564168332582875	0.000308963061927278	-0.1359197493936215	0.2086995834803474	0.43255197892652697	0.7054334861111026	0.373784064302868	-0.059046644568376466	0.18974722873941727	0.7935865501394835	-0.2877811186200412	0.13713458145804397	0.4104311753877874
-144	0.20540907927150728	0.13118760254640002	-0.0036060700567664295	0.25557804043138765	0.7151773553911586	0.5273846970594424	0.6186321362135252	0.06067055448473051	-0.14805477820209484	0.3352782121776433	0.9383506751211267	0.4681992220978636	0.08576732107204399	-0.0401296763599021	0.33485272442198843	0.7240669709044506	0.5285118804939439	-0.0962805745554989	-0.08480902739808711	0.4240654398225109	0.5863643869854536	0.6040381773956961	0.129079177649761	0.07527856509752992	0.38163173102347203	0.49683588617770835	0.7193443757015302	0.486145703757265	0.030212307272568645	0.2714117460550924	0.8334335067687685	-0.22749614658138917	0.14740098975636542	0.45829585078879126
-140	0.6442490203804161	0.08921960718755724	0.41689458384162265	0.8232690075115945	0.9615494584602299	0.6756590587723353	0.5987808689258457	0.09353559440600764	0.3419577172705662	0.5689052329005054	1.138150808321819	0.472234784364515	0.21863388959998004	0.21095204300072248	0.5481537566650561	0.8685043432242601	0.5509381280340637	0.1677098866043137	0.13896602357111107	0.5980814680258171	0.7362825255878122	0.6799448115347997	0.3036148838483906	0.2502606802820777	0.5521438107855363	0.5719915017945383	0.7193479519802077	0.6073133930131899	0.10996357323778386	0.3611486843050909	0.8625621773876695	-0.147181093321183	0.17414931908984863	0.4869293856247932
-136	0.9079667306864252	0.15339094361678393	0.8322485068289808	1.2235841720206102	1.1912839382612181	0.8613470771023463	0.6576136930075012	0.30200281662986544	0.7866279462981045	0.7863904217892743	1.3119293418186173	0.5722590074396148	0.4582650351875202	0.5149772750250332	0.752773044592961	1.007370588620269	0.6423394067759235	0.48513314005437713	0.3207567624100004	0.7447348218234912	0.8817904569297295	0.7879344205036378	0.4692779171539628	0.3610213985864944	0.6857138854833995	0.6512671096571307	0.7201738339361304	0.6969775539921014	0.1760527338113003	0.44189715273868707	0.8628575780064306	-0.0461888721909233	0.21582567637312233	0.49817553036797535
-132	0.8726016857050651	0.30900627296632466	1.098055002301225	1.27385687506446	1.327557798848556	1.0396864387965528	0.8440015294700531	0.6859945637549382	1.0097445224063897	0.9178472734166061	1.4353749715804944	0.8006883243372515	0.7593298535249235	0.7649005632162116	0.8961532689357032	1.132336971285106	0.82300990612141	0.7612290363166069	0.43568447122246645	0.840527413153446	0.99519514786274	0.9190765596073501	0.5805790409688713	0.42289093030017716	0.772415099578007	0.7321058493250113	0.7373018246155426	0.7264177184838121	0.24324084756950778	0.5033034073520227	0.8286833742200315	0.08067637661592232	0.27082735231686755	0.49704632037555657
-128	0.5414385781923252	0.5120247589535386	1.1061977120127222	0.9508923268152311	1.3161349263340612	1.1462990016606218	1.1127446861783217	1.1323344678900316	0.9439563727388096	0.9276916361274998	1.4809969626228416	1.1072567673384175	1.0211807463612805	0.8722568132312655	0.9517752504160598	1.2328525750504935	1.0612937185195266	0.9040799118104352	0.48677202936298347	0.8826166965135199	1.060500857536726	1.0463209125804616	0.6092491730566728	0.4745589482723738	0.8184749463397689	0.8060622790966327	0.7681806664145647	0.6801944953911334	0.32849848187478364	0.5391990528798337	0.7623493652169765	0.23281539917816593	0.33306628381561315	0.4810845243705529
-124	0.053046394005599004	0.7018618565958891	0.8276649096573258	0.40517148273215203	1.1496542663158469	1.1200726003977965	1.318508502492314	1.4342385494260759	0.6554056985520162	0.8281831124376946	1.4177235329119862	1.3581988777201695	1.1167613239703047	0.8044514039710001	0.9256169772620408	1.2851566043831602	1.2658673492896488	0.8578076936998749	0.4923612760987499	0.8805544950187875	1.066959259200413	1.1216441364579768	0.5464819059879721	0.5461224303762393	0.8318275788286398	0.8515530803161606	0.7846980075097948	0.5550487027459756	0.43252372632497477	0.542543946326894	0.666123865353111	0.3949230005307015	0.38822856447430015	0.43714114913245444
-120	-0.37594818973990896	0.8198538401885214	0.3320009700022322	-0.11287566990964218	0.8757898785414066	0.9365266537863154	1.285742637249112	1.3822891677289275	0.3010641030816678	0.6730994565182081	1.2272930114277503	1.3974734509471216	0.9526662206439128	0.5983035549316895	0.8494929053793455	1.2573559252465019	1.3221026625631958	0.6280547960636976	0.4710088658361923	0.8461971261594561	1.0069422696439945	1.0931246253071423	0.4033910323925615	0.6354854686905058	0.8129103759268772	0.8391977527411537	0.7464980464207851	0.36158823875687723	0.532309530821575	0.5053387271520293	0.5404353724186434	0.5365629182620081	0.41600495471827365	0.35074713737624363
-116	-0.5454394207534825	0.8295622447050257	-0.22431740108122075	-0.3747534444407251	0.5840045198954644	0.633672176191727	0.919309852186412	0.890127000945547	0.04708069923554283	0.5345284925316709	0.9290333366780064	1.1397885055375327	0.5298794494602177	0.34462731989634865	0.764704404330751	1.1298137874688445	1.1564207047829551	0.28447839545905296	0.4319228221001888	0.7873095254093903	0.8807938076669565	0.9344785189877144	0.20960116333494366	0.7066274267475839	0.755182204724055	0.7472587208954881	0.6271898730655456	0.1265163716459852	0.5883500561164876	0.42286088955928625	0.3878026594861329	0.620082794054406	0.3960693170561277	0.21918354873154974
-112	-0.3617250314162914	0.731492040694664	-0.6423605068201207	-0.28368085551164945	0.3725526919495621	0.3127387754173807	0.29238289520830685	0.08394044616487129	-0.010142219227277746	0.4728233206255413	0.5954819902644358	0.6439971311522312	-0.02809866324423466	0.14948156438280347	0.7047709208814521	0.9196403599408571	0.7940832952477874	-0.06005948394274571	0.3775485446457653	0.7089475971442529	0.7067856174744185	0.6715005023215004	0.011025226647137943	0.7128609996917457	0.6555312259335964	0.5798888191841148	0.43871718534330384	-0.10705611827762569	0.5656554684662664	0.30152520461248605	0.22067749444558946	0.6162881835636508	0.31833359518741955	0.06090049057724194
-108	0.1184765321005299	0.5659389481561025	-0.7490840535324811	0.08466352500997715	0.3059794597053051	0.10313911709971381	-0.3576358845741222	-0.719703374476106	0.12186773835646378	0.5098718391896871	0.3380500069666352	0.10841314467238145	-0.51356035341301	0.08782137163162394	0.6814342123946868	0.6881896836071841	0.3656968465155165	-0.291640459754859	0.31204667608631864	0.6173360928208013	0.5248627053360734	0.38330474399112613	-0.13982981408101516	0.6279671176314544	0.5243850337140494	0.3747670342996996	0.23491717815692928	-0.2880389385103662	0.4550996113254255	0.1634324337886133	0.06494090689713998	0.5186694847363228	0.19077674996370092	-0.08708580561346917
-104	0.7135680895909309	0.39891505140677674	-0.4636124062753988	0.5353229032352316	0.38556376002240994	0.1036386412745734	-0.7360276561273961	-1.152283188771673	0.3552666595549269	0.6199552997195533	0.26138332420159704	-0.22013872806282497	-0.7254812699121103	0.17197023288700677	0.6816921812966235	0.5198197351682943	0.0499628594746383	-0.34110587749190935	0.247400864334136	0.5221127258470143	0.3856306364336791	0.17040106611145042	-0.20073027858122508	0.4654237020185827	0.38692986867489043	0.19132888268802256	0.08773950465223164	-0.37456047440375195	0.28146880794033	0.04106850911738895	-0.04829422744836413	0.3480701139722054	0.03864317005056961	-0.18614338291378404
-100	1.1989687650927068	0.29695844575293756	0.16275411803162076	0.8619067051107294	0.5486866221880027	0.32920908844800173	-0.6466224773293797	-0.980233786015443	0.5807862267135874	0.7437930088337731	0.4078764309121971	-0.17701365008962067	-0.5697879776874002	0.34922414929911044	0.6778846365979846	0.4801928686892867	-0.018919778939997463	-0.21064761227830078	0.2025189245594515	0.4351186741333645	0.32787448085020554	0.10484745326988874	-0.1560807373159331	0.27499866416165214	0.2741843455067867	0.08441902675772579	0.04896160202777773	-0.3514298489757773	0.09432572102573594	-0.0362323558905873	-0.09875871961216562	0.14617544375707164	-0.10513703498521826	-0.21685115938273264
-96	1.4055180514135663	0.2988513104522906	0.9533178186189523	0.9460734701112415	0.6973005515613238	0.6921023708989412	-0.11103632273058171	-0.24206624864020712	0.7231364231925665	0.8164986947425856	0.7216926198858176	0.21990759615213074	-0.11747213423395565	0.5295608030300529	0.6423116310115282	0.5743618593019815	0.16958124892811835	0.028727315293738658	0.19273093294121185	0.3634483209016866	0.3540211907031673	0.18736390722176818	-0.028196968067027425	0.11636596888726496	0.20598210342376994	0.07491447757641928	0.11726383090215277	-0.2415516370396769	-0.05612886310353704	-0.05917186275086252	-0.09331180131718288	-0.040893304989804334	-0.21547827070192607	-0.19280376981694347
-92	1.2931346860662034	0.4000360657605596	1.6629893737768193	0.808556256637028	0.7468483429172457	1.0349733803367724	0.6254584177438368	0.7489936928912297	0.7698426227206409	0.798981604943062	1.0605875226900108	0.7651951889745925	0.42125642193295076	0.6324825866943032	0.5620025978204292	0.7336470466210774	0.4876975106800744	0.272097408084535	0.21849873606829306	0.304528116411011	0.42191240084937015	0.34070390376855897	0.1289679702840521	0.027529962291352444	0.17822721555534485	0.13633449341208273	0.23387598932346032	-0.09884772424775176	-0.14342045747786397	-0.046208783867518304	-0.06845526379944948	-0.17949694349746687	-0.28636735605418306	-0.1556752469185499
-88	0.961597738222376	0.5575330839385862	2.067743057752473	0.5826300367904141	0.6689962727822297	1.2039496868254316	1.2171275584962622	1.558312173723721	0.7613473515361873	0.6961661559648226	1.257153627082645	1.1714773148523627	0.8018152097485299	0.6275506599794601	0.4454934287744529	0.8441249110844267	0.7367073278900539	0.4323742378762555	0.2631434195550481	0.24712844130587786	0.46172168734325225	0.448754458486526	0.2549202435733072	0.008067094700532603	0.16315649408632232	0.20668560214311651	0.3126527957175093	0.01642919700170073	-0.17531622901999266	-0.0354919283686053	-0.07425140570728954	-0.2582511001265584	-0.3314329079366346	-0.1526212539395814
-84	0.5964376911363515	0.7124873381745921	2.0455870576710824	0.43111202011935623	0.5023635613155772	1.1216098041826728	1.3988445961920728	1.849699492552858	0.7542322258980233	0.5491287694418302	1.1967838972393363	1.2212251393956457	0.8670937993092117	0.5448980317663545	0.3150252989921589	0.8011658171453416	0.7538690547983238	0.47657394288856336	0.29918715282242964	0.17607556239019162	0.4087801863363222	0.41771125687995075	0.30905729454212355	0.02422154688680256	0.12155078320809028	0.2182799423190362	0.2858157746728242	0.06398514642057965	-0.1866264487561466	-0.06552057696727832	-0.14823256395584977	-0.288148611056476	-0.3744583716475095	-0.2098904693787918
-80	0.37690144682139504	0.8173842409477777	1.6151952702750514	0.4560874092984717	0.32426372088579586	0.8197235444353713	1.1189370127084028	1.5473443230662927	0.7845526317815547	0.40550714628835716	0.8697996117566038	0.8779906012302473	0.6218894704376314	0.4518533635652193	0.18953590047189967	0.5603910670437057	0.49808192127359197	0.43123298774562246	0.3009592883140949	0.07888650129190053	0.23524299204561017	0.22544486763778426	0.2872484617133507	0.03183840207167722	0.021780708749735596	0.13002188470914847	0.13934150302992565	0.039892453599585265	-0.21821814720372132	-0.15427692195564965	-0.2930900447121367	-0.2940823726381744	-0.43417280802781194	-0.31732928672781224
-76	0.38782632253004895	0.8495643713482507	0.9183427072227284	0.6454478485977568	0.19840837964986197	0.4125939001156797	0.5482236729132011	0.8564878680539456	0.8463174083323092	0.28606018351810863	0.3685283353561002	0.295689522473518	0.22017157022201328	0.40846797720777694	0.06954582017982902	0.15665484925296017	0.06647947413826202	0.35625764637646057	0.2567746036722326	-0.04907395305760538	-0.03749308725666123	-0.06949244422056743	0.2191795105168764	0.0027362233890055395	-0.14410360121107116	-0.05509553463257798	-0.08289907851746844	-0.02654527307305245	-0.2931572489489513	-0.2880462400793327	-0.47221618771539203	-0.3016271285547947	-0.5110949861020347	-0.43291512022390416
-72	0.5773917422021991	0.8035762885786173	0.15532733460787432	0.8783180691478165	0.12835010853787035	0.024914758217015907	-0.04061180342911178	0.12650600043782045	0.8909019209303153	0.1661185767032792	-0.17058767335260983	-0.2825932495611788	-0.13311918046243695	0.4251046169992238	-0.06798862648726169	-0.320795833254552	-0.37117707635626396	0.29916256590652185	0.17120046870399847	-0.20562739618360715	-0.35470005780312264	-0.36717960145752787	0.1431635465583695	-0.06340767427171186	-0.3575436165842429	-0.2976696781749242	-0.31036052029452477	-0.09706876402427689	-0.4053350676793251	-0.4292962540278255	-0.6291838272421826	-0.32742029345816376	-0.5865395650360061	-0.5077218996580668
-68	0.7861735204874842	0.6752345544933167	-0.4901386189006873	0.9887642835448699	0.04830005380237622	-0.279599218854703	-0.443998991322095	-0.3536428204190884	0.8531571009076614	-0.012739777532837594	-0.642438171672067	-0.6703568680050824	-0.3017294697296156	0.45193955188134693	-0.257609336917882	-0.7786886076340674	-0.6759802682022189	0.26253980331893173	0.05893732219955381	-0.385324834804431	-0.6608017666345534	-0.5875523671574725	0.0781990511231192	-0.14645154737213534	-0.5833811745219771	-0.5471171126857397	-0.49021336312504693	-0.15148730537791494	-0.5252597914785645	-0.5386249409428066	-0.7196899038264208	-0.37567436600250215	-0.6337940080853403	-0.5154429661134876
-64	0.8329429605435056	0.4511629629665291	-0.9037614441942043	0.8515853860335474	-0.1369701918481685	-0.5240378366591094	-0.640406249336804	-0.5046156632080846	0.6855055672504354	-0.30146148724738203	-1.0192602847114662	-0.8370918014372666	-0.2881818406458544	0.4083589901150803	-0.5189094530355827	-1.1628210515227773	-0.8157688954737983	0.20490868337872006	-0.063317075211882	-0.5801252708093418	-0.9263949966883297	-0.7147501689031319	0.011539891333054822	-0.22391939106673797	-0.7849953154771838	-0.7670278529828745	-0.6160783752145712	-0.19983167895886006	-0.616896448962048	-0.5963410124027699	-0.7365715485095983	-0.43906521686326866	-0.6339651330200584	-0.46796500564681004
-60	0.6113221033874378	0.11451132566627763	-1.0520668003223024	0.44728281981073714	-0.4863443064331552	-0.7838171104668833	-0.7775566558279958	-0.46629014493517257	0.3829881241188786	-0.6992654186713837	-1.3415869440539196	-0.9037549472879403	-0.21772433762416515	0.23370009601717223	-0.8336893299034986	-1.4694004021739098	-0.8697321392988884	0.07119967025423622	-0.18339286698292326	-0.778094528141091	-1.1543129653397293	-0.7988323549129213	-0.0916326192688101	-0.28848737405420166	-0.9383665299565969	-0.9472833847924824	-0.7246678453269142	-0.27375557949567747	-0.657809017427937	-0.6129409655354501	-0.7144519668660735	-0.504863797343658	-0.5899710640317065	-0.4102871705663736
-56	0.15297038814547176	-0.32798406398934843	-0.9558166837402067	-0.11639746994194922	-0.9659999584604376	-1.1108075352280122	-1.0398766968221955	-0.46502354623689335	-0.0003502033642033307	-1.130986091619327	-1.6591199594570598	-1.0358477804734199	-0.2407968038201471	-0.06379134191858178	-1.1390116185994918	-1.7175582603959432	-0.9564812159231297	-0.15823359747514	-0.2896109216053811	-0.958338139021774	-1.3590582574863712	-0.9107238627328393	-0.2560219460222316	-0.34852266223651995	-1.0349595520592196	-1.0946789952296705	-0.8594000913856737	-0.3981775035341882	-0.6483026726567112	-0.6191728695495623	-0.7072463017727243	-0.5597270116979396	-0.5272961245575297	-0.3943502296981785
-52	-0.3776911487580304	-0.8174149969444042	-0.6574487669558241	-0.6409684403449061	-1.4403195344799977	-1.4684700928806043	-1.4872673712373814	-0.6375367625352719	-0.361674248259071	-1.4646360837197518	-1.965404267117299	-1.3090902533858437	-0.4209348846775217	-0.39495012064400586	-1.345028277815983	-1.9079084348192248	-1.1384113998281191	-0.4368776668008901	-0.3634552350404631	-1.0891950102963115	-1.5374389848039476	-1.08343338692829	-0.467359035027231	-0.4145718802475571	-1.0758155557173594	-1.2129774063003194	-1.0288797590981902	-0.5656252489114416	-0.6065085514968198	-0.6432615502329153	-0.7538601737062747	-0.5924150332752613	-0.4815067040684311	-0.44875052457998077
-48	-0.7594457249540744	-1.2394899098573442	-0.20983774907062108	-0.9204111672051464	-1.725944633894667	-1.726860399654684	-1.979132528076596	-0.9323660707775633	-0.5863049611547626	-1.5687402447194263	-2.1752481405651554	-1.6399149853310482	-0.683366952601294	-0.6290634258600403	-1.3740427459357827	-2.000619167998849	-1.3685402835625902	-0.6634410006938994	-0.3794551482157044	-1.1357140512402637	-1.653854961988053	-1.2799264160266142	-0.6678698642081083	-0.48395097133520915	-1.0639947625953488	-1.2891584602232762	-1.1906347244719637	-0.7313355785025236	-0.555207549123901	-0.6907846910202186	-0.8533519484909402	-0.5952786788216202	-0.48009431240939937	-0.5624853954418909
-44	-0.8220166543233807	-1.4577261172683869	0.3128146223276659	-0.833734867851992	-1.6831242995682687	-1.7269219116479368	-2.2369384709147733	-1.1448421449367	-0.5964621886452923	-1.3797694409820542	-2.163615221283002	-1.825554247061756	-0.853416977158226	-0.6596955640349598	-1.2002743452285707	-1.9304554413693547	-1.5134763679439762	-0.7272868734117325	-0.3128990821090994	-1.0736776563239534	-1.6521445471058966	-1.4086772167879753	-0.7790585140586096	-0.5328251109975803	-0.9995385383165567	-1.2951897350035808	-1.2710838285779311	-0.8322707393614259	-0.506577609690558	-0.737647531554367	-0.9628804897793486	-0.5624576792821403	-0.5258466588095413	-0.6894366723773817
-40	-0.5340471850263248	-1.3742382491701524	0.7983936647284819	-0.40972354904680053	-1.2985085216162955	-1.3816479409620528	-2.014261240642018	-1.0659172508030803	-0.39512023229976534	-0.9459098553617461	-1.8477771235544158	-1.673002000399489	-0.7667929510784077	-0.46738746644271706	-0.871623811905349	-1.6544980961035556	-1.4415430986248579	-0.5692611322335607	-0.15605154594122805	-0.9067636705393162	-1.4920316896915393	-1.3812499011452475	-0.7455431800138941	-0.5263044224802605	-0.8834436513530458	-1.207444903186236	-1.21347152880426	-0.8237360099022306	-0.4564569580951461	-0.7434210758513137	-1.0227330897258915	-0.48904457564859716	-0.593238531045399	-0.7727960924664494
-36	-0.024712061447098057	-0.9875701640944546	1.1030310364530904	0.17378960505953733	-0.7087486964451397	-0.7519874553768048	-1.2717066971142614	-0.6453084929386238	-0.07797358910424493	-0.4174552847336091	-1.2611412970173403	-1.1370807857415126	-0.38395446441985986	-0.1415815200807353	-0.4969092594952416	-1.2006014555182722	-1.1195890875205994	-0.22414024117623438	0.06659453345412983	-0.6745262128965944	-1.1864848106945993	-1.1753683060534763	-0.5732521996329996	-0.44096130021343144	-0.7261320930267696	-1.0301556561210308	-1.0223212216315336	-0.7097682338914486	-0.390487103668427	-0.6769757253720994	-0.992906269904499	-0.37176939751222393	-0.639940021806548	-0.7744168023584452
-32	0.4738672065691795	-0.4144046296147396	1.095695731257682	0.6550655944497866	-0.14940814636178673	-0.04676000389571912	-0.24283645985805014	-0.054870929430470186	0.1954370285106659	0.013262828778517711	-0.5688173160496837	-0.37816467785725294	0.16388711291897323	0.15633389314281623	-0.20397251792908017	-0.6817513091040913	-0.6547940356888755	0.18387770606346338	0.2961696974906162	-0.44478240496872246	-0.8143228867951982	-0.8626759030496138	-0.3361946931933958	-0.28531798648323936	-0.5542234168364992	-0.8063235858586684	-0.7742913345815098	-0.5471733794702657	-0.2980699233635804	-0.5393859134407327	-0.8795147515979507	-0.21256336516118982	-0.62835872014664	-0.6934055072443756
-28	0.7356688361667542	0.14427851104072292	0.7244923096484939	0.7938772419913191	0.14861848912863485	0.4626736629248789	0.6583513004847343	0.3913569738520828	0.26515200667194044	0.19436372767490528	-0.007291147932628313	0.30181473417375154	0.6300981028860839	0.268797665155778	-0.08845353849251567	-0.2610831254089437	-0.250603705011894	0.492472021528463	0.45647364739564106	-0.2916868321683772	-0.4962251769888816	-0.5812600240337107	-0.14489708804264018	-0.10421448174629458	-0.40952566162664583	-0.6071113332679114	-0.58562922329865	-0.4185495067996331	-0.18594972742339774	-0.37074023391580807	-0.7356746178172827	-0.024058582200462638	-0.5469455705185092	-0.565576551916783
-24	0.6464101059805812	0.4842685150794483	0.0708490906357137	0.48078536865918053	0.06432384236308009	0.5719208106860131	1.0418957445542196	0.4164596189474724	0.04979575412814209	0.07911052534872322	0.2238416666101471	0.6106588229020519	0.7783368806261358	0.12002501606440143	-0.1764799799039716	-0.08099557438904983	-0.10031673286859655	0.5737230763255363	0.4846412527246101	-0.26730781726105624	-0.34268024477270925	-0.4656721937820239	-0.09151569730779777	0.03711652746366283	-0.33733564530080573	-0.5027681576432911	-0.5514798150444149	-0.38787627122224466	-0.08208210000533663	-0.235109060409138	-0.6347550137706276	0.16688972669427504	-0.4195775379078011	-0.444876312086329
-20	0.2517113381229586	0.48444017645596804	-0.651826082014423	-0.20762702770264457	-0.3621852686797626	0.24521422324258793	0.7430974226310004	-0.05535231516691235	-0.4059689034702663	-0.2608651512235504	0.0578455960780235	0.41732686652676476	0.5084583150424075	-0.24613451895559643	-0.42009931696684755	-0.1950352485024106	-0.28214025426202954	0.3912868489876816	0.3592653265465555	-0.38078552388373227	-0.4017975618231594	-0.5755763039362138	-0.20329934307268652	0.08178149888133208	-0.36857253220008956	-0.5306962715101573	-0.6933328491825778	-0.4655784952806735	-0.026496533237555582	-0.19087511252849315	-0.6314690097124567	0.3215714982973782	-0.2970490746150897	-0.37784939908950954
-16	-0.2716203921136019	0.15929119248704196	-1.177304622538761	-1.0343371603600462	-0.9552234983168997	-0.36589717772610075	-0.09397322660800485	-0.8493664243234514	-0.9440802907949848	-0.6757504922971899	-0.4080793251225003	-0.18242968572810714	-0.08865228272943683	-0.6864823681665484	-0.723405538163048	-0.5397576080046137	-0.7165117245703764	0.015056174210443769	0.11284236581445801	-0.59354823677887	-0.634800730533055	-0.8632541873117646	-0.42845556031771354	0.008884002432148926	-0.5029714690861067	-0.6769542080953899	-0.9446600055686065	-0.6014188512876547	-0.05145325126174227	-0.26077330046618347	-0.7310832720418264	0.4013633717893893	-0.23224183858410166	-0.381992368925775
-12	-0.7060521227176644	-0.3512441507054484	-1.3105230298333372	-1.7040020184410336	-1.4916785917767812	-0.9979675386981781	-1.0942709418325685	-1.6313888985453235	-1.362763639824123	-1.0100046370755327	-0.9630995368483452	-0.9190714336079124	-0.7779377679257274	-1.0281726095943602	-0.9859106515788081	-0.9626930331720033	-1.208271023560737	-0.4127751280376617	-0.18036439969301538	-0.8343764522467345	-0.933088955907574	-1.1974707811639937	-0.6626083238084896	-0.1560260351533286	-0.7037027460451292	-0.8810067750622013	-1.1832191914248902	-0.7099611145214548	-0.16109393496372215	-0.4169351746046122	-0.8833515621771003	0.38584193489887436	-0.2510980063297683	-0.4372347582268379
-8	-0.896954176545528	-0.850213287114282	-1.0290559504277013	-1.9959188649330182	-1.8038761570209678	-1.404815431862728	-1.8453203393122664	-2.0875649399503526	-1.5148863754172228	-1.168931600480433	-1.386777516678472	-1.4885138235657773	-1.2988824811566722	-1.1509922713783867	-1.1413842410834307	-1.2929539647837007	-1.5496485194182021	-0.7420048098903814	-0.4365003395980921	-1.0276796791833123	-1.1691364020393642	-1.431414004526591	-0.8029271939986521	-0.3533141604086267	-0.9081636048276213	-1.0622472736242359	-1.2939062085862283	-0.7160394173663686	-0.32266971387459203	-0.5900924190881628	-1.0060185168615976	0.2874372594252001	-0.3357667616473113	-0.4955887185935769
-4	-0.8139196613743106	-1.1701686352749783	-0.5025194274612714	-1.858992571905616	-1.842850561257589	-1.4682884179237874	-2.094908947423876	-2.0820865578535885	-1.3792221511351084	-1.145836231199754	-1.5477619132065346	-1.6953530268780923	-1.4873212538361225	-1.0370966169876008	-1.1740931242863712	-1.4153196775942638	-1.6217796761574752	-0.8752485491589233	-0.5966131672101272	-1.1210074396440934	-1.2530235020472962	-1.474194999787537	-0.7984539250241978	-0.5159063922254462	-1.0505069467724686	-1.1534837455237077	-1.2258430688426047	-0.5934151992120673	-0.4753643858351902	-0.6987218243124046	-1.0249865029205807	0.1537438925199303	-0.43012332807664067	-0.5033874499009439
0	-0.5446010218221886	-1.2365957467329374	-0.011197372311395242	-1.4226070606553938	-1.6746151405016174	-1.2337430684411894	-1.845544452776056	-1.701547022338223	-1.0637413236464037	-1.0017759774664863	-1.4454431497319544	-1.5229991635971185	-1.3351850475933373	-0.7665658573823868	-1.109025475563017	-1.3101682629885298	-1.4380185567788981	-0.7977488616829297	-0.6459414942645403	-1.1000295849683588	-1.1653814286372846	-1.3264303173908314	-0.6696134788773206	-0.5964465722284006	-1.0864642831074662	-1.1248054475995923	-1.0119516823968497	-0.3758280267763452	-0.5541050420122742	-0.6842638236889649	-0.9097825861849228	0.05236282931458917	-0.46654835225568764	-0.4260727156372215
4	-0.23212088585899657	-1.0802496644402952	0.20264886268473378	-0.9203801131852968	-1.421189304578346	-0.8598704316364089	-1.309139009985147	-1.1748067110918206	-0.7423575501772716	-0.8172664025653543	-1.1807779043903435	-1.1051896782628259	-0.9658579205922965	-0.46728816510477195	-0.9877208446360664	-1.0451382372218143	-1.1135467262763943	-0.5679366574253507	-0.6095335468161782	-0.9874895786149217	-0.954675075981706	-1.0661829683088182	-0.4892689275309653	-0.5821503386104729	-1.0106614802592992	-0.9900515650548339	-0.7446007113730851	-0.13679008151327318	-0.5188568817390236	-0.5378296957742211	-0.6885106546184893	0.041507851227628824	-0.4026060690251739	-0.26682844690666047
8	0.006899947283132629	-0.7989518026207495	0.06439332647755157	-0.565565107825015	-1.1872143715448082	-0.5197332488289435	-0.763169405917726	-0.7280668597912939	-0.5571565613984907	-0.6493325813111849	-0.8827280975943238	-0.6297656281783662	-0.5496264682244482	-0.24936164852603912	-0.8478825070908699	-0.7300600987121953	-0.7878778556958888	-0.2799742810810052	-0.5299310670824628	-0.8306696393975117	-0.7055435758897247	-0.7991124967426583	-0.3393768361583078	-0.4932177352373652	-0.8597064592590458	-0.7964481691279252	-0.5244024978749245	0.04876734304036459	-0.37626677656542906	-0.3065811685927935	-0.4360340226608692	0.1398271467731682	-0.24840897258983813	-0.07053302210642899
12	0.13691283727887818	-0.4970624136296053	-0.2979250840771419	-0.4426847685127605	-1.0119626496514609	-0.3117840580221013	-0.39917644757577925	-0.4680599260433752	-0.5407471643146763	-0.5138647543331094	-0.6369928701530696	-0.23829789399540918	-0.21447540765495093	-0.15936952789124023	-0.7145522814829772	-0.462731091999975	-0.5507126436634477	-0.020621603302747125	-0.4417006958300034	-0.6831814033425766	-0.4977099584888103	-0.6044279917715429	-0.26993298462427084	-0.3688428094611412	-0.6985513550287773	-0.6042769536020635	-0.41165748134630015	0.13824249769117053	-0.18105101539677196	-0.07566829751699043	-0.24135513542750972	0.3128609053342171	-0.06744213385243769	0.0910175663915063
16	0.19894935140447761	-0.24113625227128593	-0.6321865900290959	-0.47983962176291717	-0.8717155434534267	-0.23053756298034178	-0.2521744066070495	-0.3625555327321725	-0.6099061354497285	-0.39854115147104474	-0.4583879101624144	0.01973930368804185	-0.0042376918611227365	-0.1757308389280035	-0.6036272033710074	-0.29539793655201296	-0.4154493500234026	0.15781313141079475	-0.35886883645051065	-0.5888878092202935	-0.3778913905616478	-0.5081320392177308	-0.28164702582775847	-0.2505491369597399	-0.5963995441637916	-0.46719577790560335	-0.4073961366858096	0.13384801115574912	-0.014906107410407135	0.06630936993308313	-0.170633568928971	0.485867856706346	0.05220902697971518	0.14840127490246055
20	0.2603958838564186	-0.051617722828004114	-0.7167971116088404	-0.5143977986699899	-0.7241878491237499	-0.20535534568437794	-0.236872866151717	-0.3132636539179476	-0.6329653843157649	-0.2933416359170984	-0.31625485340380377	0.16382352966431962	0.10148680929548629	-0.24184961555931792	-0.5316869603084678	-0.23479372203674995	-0.3482408514767334	0.23935446082719136	-0.2819012396370837	-0.5741338715362911	-0.3564895680486961	-0.49422365302237736	-0.3402627995960124	-0.17234392420648262	-0.6034879073165189	-0.42081949008552794	-0.4708617317709357	0.06885232013961827	0.047239292293728544	0.06237320958721463	-0.24324510930159848	0.5786964878730383	0.04198610772022818	0.0664443521014168
24	0.3570958962961429	0.07599545996075595	-0.49657285088097863	-0.40527802603441904	-0.5562646971009683	-0.17020663576068398	-0.24647489127872696	-0.2564958327493219	-0.5247762189967227	-0.20930889196002547	-0.18362948252092298	0.22552266660018092	0.13570569421361234	-0.3101697854317251	-0.5170763717947884	-0.2626376741454058	-0.32013749995466995	0.2319220745668502	-0.21367014890606847	-0.6444039924564409	-0.4203680743094612	-0.5360923395926944	-0.40678423540409037	-0.15580297967198106	-0.7343078833160337	-0.4771991956106786	-0.5546880350413503	-0.017952401145670715	-0.0290988068292988	-0.08962965734025426	-0.42775115262753644	0.5479243979925394	-0.10829124572354294	-0.13419984247180877
28	0.462781457924683	0.13987591827363252	-0.11835717379966854	-0.1314334866066389	-0.40535595910726613	-0.11744247347267418	-0.24243232546633214	-0.2217066431408442	-0.3142772905044387	-0.17509868696827294	-0.07370538990962254	0.20365932532389863	0.10049934659856609	-0.3696708669865927	-0.5723344073150654	-0.3587954929352997	-0.3433492771063015	0.1520861681436225	-0.17273120538493292	-0.786071060103374	-0.5497116432616171	-0.6246032699074033	-0.4635438013294355	-0.20975871331184845	-0.9652982925839132	-0.6255081876220986	-0.6358589513937255	-0.10426165137193462	-0.22300466838800187	-0.33765980516059824	-0.6598331911593988	0.4108934094068535	-0.3411933473078964	-0.38076725506015474
32	0.5077974187428066	0.1209057640957013	0.15933941264454352	0.18888656747335597	-0.3395484379301829	-0.10000094001079322	-0.2744922929032413	-0.30532729548614174	-0.13420709933729186	-0.21384093111407998	-0.0365358292134047	0.06589680148415071	-0.033382970755454947	-0.44171619303760584	-0.6927067619954378	-0.509700714254969	-0.46444144727748654	0.018339453218768245	-0.1914724553757628	-0.9710129474919704	-0.7262328248761857	-0.7726581673187874	-0.5201547132710862	-0.33042615568659767	-1.2461107937822784	-0.8359072783346359	-0.7235798221439312	-0.19042375635707107	-0.4692396211697913	-0.5993657096989052	-0.8716474749492651	0.2366480225310307	-0.5593246207420769	-0.5784648642240259
36	0.4332321275263417	-0.0018508776509970298	0.13266140189055653	0.37472218180461936	-0.4100648452419227	-0.18408185197130367	-0.4251432110066184	-0.5834389910272634	-0.1368979510188831	-0.31791412750087183	-0.11877176135593763	-0.20782618172149753	-0.28881621287859727	-0.551290391483797	-0.8493666627420299	-0.6992067080964282	-0.719377933116454	-0.14562652968355974	-0.29685982986840564	-1.1624342173791615	-0.9291446781541657	-0.9936845277493664	-0.5971909150304764	-0.4991506921563611	-1.5175197086167511	-1.065077182941737	-0.8414399602626533	-0.2881095700142467	-0.6888502818835619	-0.7967534641176939	-1.0180889342352977	0.10900721671477728	-0.6745936257496652	-0.6540826542552773
40	0.24158960519830294	-0.22378401401763365	-0.21014325267664602	0.2964859597349959	-0.6108966454341052	-0.38928720256748306	-0.72455489452535	-1.0295569870704182	-0.3930521597475374	-0.44434174783101055	-0.318718790203308	-0.5781878218358093	-0.6365899427554053	-0.6965262872276462	-0.9980165337160598	-0.8964454509036545	-1.0865094634280918	-0.30656117123452187	-0.4875623571483874	-1.3246397938662993	-1.1289498777496512	-1.274830695748342	-0.7037859541290256	-0.6822940689980457	-1.7307584242038634	-1.2666130033939065	-1.0017460559348845	-0.4044779826919413	-0.8252820947791559	-0.8874234534746506	-1.0914683314423055	0.08091133067445312	-0.6543476565052796	-0.5934448823250905
44	0.011474772327479543	-0.493832169716481	-0.6655214412098871	-0.03318663305606052	-0.8711460210740357	-0.6581879241538175	-1.1003023358221624	-1.5005706510805028	-0.8301510789892751	-0.5354592786621334	-0.5698405489839594	-0.9371643042745126	-0.979629633337525	-0.8380904772579568	-1.0993522377868414	-1.0550073358602272	-1.4750471077870946	-0.4240656484387671	-0.7229628544674188	-1.4343070947673946	-1.2888401714209792	-1.5674807985785022	-0.8252742865707101	-0.8376556017707736	-1.8618630123814621	-1.4052895272060744	-1.1914904087501987	-0.5335174189448987	-0.8684455730446599	-0.879270789787501	-1.1207216949777616	0.14493580125932404	-0.5395450578418812	-0.45273110156196567
48	-0.1375592645509964	-0.7214422207737483	-0.9269245243511773	-0.4528211343776716	-1.0870755883427392	-0.8777520038378138	-1.4009164536392344	-1.8072574093012495	-1.258205410641696	-0.5540291056950221	-0.767814813105857	-1.152321454953522	-1.1897249191764092	-0.9181212163633022	-1.141197320917887	-1.1298685045326102	-1.7631978944130993	-0.46544569613244924	-0.93492257359017	-1.4899427853160148	-1.3785599435333258	-1.806057090967793	-0.9315544343317059	-0.9286661124624723	-1.9177699040631258	-1.4715074263614	-1.3802273238620628	-0.6614809019554095	-0.8559410550441567	-0.8230935314378188	-1.1575298280101354	0.23695331752079946	-0.42475703251409364	-0.33622300539959266
52	-0.11111706467230673	-0.8141670802541486	-0.7687063793801563	-0.742823241265726	-1.1765249937870672	-0.9410927271924507	-1.4800382815186948	-1.8253476573634861	-1.4741995297405284	-0.5109379874680927	-0.8274824598401289	-1.1401764125647518	-1.175811883818775	-0.8980125166154878	-1.149658200222392	-1.1040168972751863	-1.8652561855906686	-0.4255848218186443	-1.0589332553830912	-1.5152647457013018	-1.3942249978150643	-1.945522422646927	-1.0004991267693317	-0.9410673952184851	-1.9332941721742603	-1.489115353639332	-1.5434000453128842	-0.7808762173010906	-0.8518275001000137	-0.7875041941787352	-1.2559313742399667	0.27129170230081784	-0.4107955087780571	-0.34935441524993815
56	0.10599011901083161	-0.7219514232527788	-0.18707892251465538	-0.7472804169861316	-1.1176865072641724	-0.8069340566289166	-1.2842491832733907	-1.569122787328629	-1.375616666181748	-0.46088689449295817	-0.7305258494052943	-0.9179889536568795	-0.9387986636301274	-0.7851678113187283	-1.1756765812754764	-1.0026340459305065	-1.781333918842408	-0.3341607443002156	-1.0654540035050555	-1.5484714468961496	-1.3662207092123675	-1.9891091534939123	-1.0347057554824066	-0.8902189113075586	-1.9560677955832542	-1.5063989124412152	-1.67942952685726	-0.8973027445072944	-0.9112486220241169	-0.8251922109750616	-1.449125047839724	0.1898069525933314	-0.5522196874981438	-0.5466173277405599
60	0.43817129620550666	-0.46645486237059347	0.5848161563413217	-0.4608437407302497	-0.9516742205434205	-0.5213852511593673	-0.8901424385485048	-1.1824482649513117	-1.0202152703276464	-0.4668037879602277	-0.5350821600755916	-0.6005024298765468	-0.5798530563973399	-0.6338914020746574	-1.2626479832241686	-0.8841075874895226	-1.5988978107138425	-0.2446309023879663	-0.974354145451064	-1.621245618541636	-1.3474725450827612	-1.987557167757169	-1.0592762205082629	-0.8143689015808485	-2.0251288362871875	-1.5724757870073582	-1.8072570516733817	-1.0225687001160162	-1.049634811612317	-0.9473918056410551	-1.7318135456230135	-0.0036848180368642216	-0.8281705358576787	-0.901396212686199
64	0.7560176234231176	-0.13808383012717904	1.197294828253061	-0.03383763125936342	-0.754053352359504	-0.1931773866306135	-0.46977349997169654	-0.8565274455379766	-0.599576292908365	-0.558117090246621	-0.3441021135702363	-0.342635392277629	-0.2550497346637548	-0.5216340409460316	-1.41739081978569	-0.8126286247717353	-1.4449659549470875	-0.2101261014401552	-0.8444249608654685	-1.7406432584684575	-1.387275811507536	-2.009078736001172	-1.1028097840122428	-0.7569302301369696	-2.153271192836218	-1.7107391314229865	-1.9457406948555434	-1.1582415074669568	-1.2330899207453898	-1.1188396187190859	-2.0555663056927624	-0.24293912885841654	-1.150990006401891	-1.3136351075384927
68	0.9403999424079754	0.13971672916900058	1.376431700092349	0.31033423464624516	-0.5938598498609691	0.06227647124898841	-0.202598615969315	-0.7208089810292534	-0.33686208639926085	-0.7090900522449065	-0.24976523157479433	-0.25722619826223314	-0.09921021734461868	-0.5105521666034357	-1.600804086458236	-0.8253829458378613	-1.4132727348885554	-0.25611063773343345	-0.7429326157886126	-1.882257814423476	-1.5026850662439266	-2.094414944129225	-1.1714911431299158	-0.7452688198346857	-2.3187727869618238	-1.9012366485277807	-2.086597437358801	-1.279634830105109	-1.3923410142077604	-1.2725055185615244	-2.337271922886187	-0.4310589123809954	-1.40419852379086	-1.6487913090085888
72	0.934281704451163	0.2571690672103602	1.06859326092816	0.395054577783711	-0.5075896965562888	0.1736595030214823	-0.1882812376037066	-0.7805955390295519	-0.3699645986753042	-0.8539341070549916	-0.2893088452664221	-0.35866722374006693	-0.16280844766519637	-0.6197736843673813	-1.7468410686258442	-0.9153091288345439	-1.5130943021719305	-0.3650282016121143	-0.7130858880159153	-2.0007135817559347	-1.6655515390306654	-2.226541036706405	-1.2362545697471043	-0.7785375694645879	-2.471521371323485	-2.0833444542737523	-2.182394022199946	-1.3349442448290527	-1.4526618682424766	-1.335938331092107	-2.479931109842902	-0.4855209278723068	-1.4880024157148957	-1.7876228048967815
76	0.7526459078859761	0.1534608747660901	0.45222985630299256	0.1744981105690324	-0.5030754195863325	0.12993676927662412	-0.41129624739755094	-0.9377914643452558	-0.6883560997749768	-0.9328342056564473	-0.4389829922560086	-0.5680735096894095	-0.3987746526663628	-0.8232898691372132	-1.801952119092476	-1.0414714786937795	-1.6728455978119934	-0.4853246795798793	-0.7602524142144278	-2.0545813985449803	-1.816088910286032	-2.337350124179935	-1.2471201388343565	-0.8329283574055725	-2.5540563995727457	-2.181127065873799	-2.163360351822586	-1.266397472998943	-1.3661595548469823	-1.25822066943072	-2.4021015106589094	-0.372388242735042	-1.3507683243026505	-1.6642721849384365
80	0.44671201593148674	-0.1765203918530273	-0.1839780504826894	-0.2688562565214443	-0.5861995801430657	-0.042884800474850444	-0.7728850822008744	-1.0765899392603262	-1.161281940389273	-0.9415817236969535	-0.6467356665495224	-0.7742524127485697	-0.702702639712968	-1.0739864083831105	-1.7635160640061072	-1.1615698308228113	-1.7945274069301302	-0.561145661844657	-0.8617902972397771	-2.03344392263094	-1.8976287793886355	-2.349585288791378	-1.1671923369502784	-0.8805285669983757	-2.5296120579749157	-2.1407465880704764	-1.9773698995257483	-1.043823477970678	-1.1315592498820402	-1.026848313600084	-2.0672526307364993	-0.11288154841771832	-0.9953995917938034	-1.2777790990993574
84	0.05478296042558441	-0.696782467990244	-0.619744180068292	-0.7944269756286946	-0.7825282792361591	-0.3185756794515636	-1.159887072495761	-1.149186727483409	-1.6274266201892384	-0.948194143762351	-0.87618183868446	-0.9067833400720423	-0.9740455126011963	-1.3340084519084416	-1.691042180560241	-1.2633736101678321	-1.8206759645270754	-0.5616025314457068	-0.9891025399031163	-1.9690095136520809	-1.8909194421710778	-2.227014774421884	-1.002402899118651	-0.9074686146712948	-2.4016060768527874	-1.9593329380158064	-1.6283825594797328	-0.6893235427618837	-0.7917608002699781	-0.6674002392131086	-1.5007286033887588	0.23867259859384363	-0.463019340061381	-0.6766304356657874
88	-0.4261147071093597	-1.3525357212250682	-0.829969463637103	-1.295072433062959	-1.135676023476993	-0.6934908014908338	-1.5076910219273938	-1.2081652849211724	-1.9895344922379556	-1.0642087432695522	-1.1330840559008344	-0.9791958903385896	-1.164727327267171	-1.5930210311724056	-1.6825303988892262	-1.3758602107596853	-1.7742435887364079	-0.49663942926902466	-1.1283955545546396	-1.923587675006384	-1.828814501913449	-2.004075998968515	-0.8085058311076753	-0.9210069156281723	-2.2154269162510674	-1.6912533002115022	-1.1905065744860202	-0.2776141159677929	-0.41356667771828043	-0.23127385915539322	-0.7884680608869645	0.6278491600397417	0.18874357593090083	0.06706272048707787
92	-1.0233128044995135	-2.0826091713776593	-0.9803190802619013	-1.7452651218219617	-1.6742410617519516	-1.1761648625242436	-1.8197685434173059	-1.3610118593185971	-2.252989763293681	-1.3789082730765136	-1.4541903697492375	-1.0733077498994112	-1.2872971263809296	-1.8609843207104018	-1.8223619415049355	-1.549325462244335	-1.7433048442695378	-0.4096512188105482	-1.282696482280912	-1.9574016283206703	-1.7792475178619578	-1.7733725264598597	-0.6646785123256017	-0.9384735798983432	-2.038037294964314	-1.425106760241673	-0.7835469822174432	0.09387531852862786	-0.05838335290711967	0.22217895034485194	-0.05463828505191861	1.0245811913371314	0.8989813901138656	0.8774072505733034
96	-1.7396449998802794	-2.815815203233157	-1.3014374938531632	-2.1827206556524903	-2.3680076539334647	-1.7523481801613174	-2.1375617926988784	-1.6837210612702531	-2.492453568841437	-1.8931173038369764	-1.8665189695916917	-1.2770463195983388	-1.3852622474028176	-2.1432988589533144	-2.1280865615521467	-1.8156919433528302	-1.8209326221268303	-0.35095322043503424	-1.4540795051102353	-2.0911424107207393	-1.8053104831892215	-1.6368513065973282	-0.6278727038743686	-0.9649588441327744	-1.923868293673278	-1.2424445120914007	-0.5204837905140602	0.3503107121683001	0.24167688129919496	0.6408722384484815	0.5739450440221194	1.4264931642756482	1.6039994914565772	1.6799328284764727
100	-2.507018082964821	-3.4624020965896958	-1.9236414383958358	-2.634989254974489	-3.1042587678735596	-2.3523554742549653	-2.482991450716523	-2.149222606954716	-2.7708332468647923	-2.4936296876891757	-2.344360822480716	-1.6130673844619423	-1.4862277470258338	-2.414932721716602	-2.5265181000817263	-2.15282272749006	-2.036621088608026	-0.34664231451253813	-1.6208713013733915	-2.284880393935211	-1.92429863920747	-1.647650952947625	-0.6946664435014154	-0.9761201714666553	-1.8840633583184536	-1.1790888279709628	-0.45422810201404246	0.47534608720929034	0.49171179408859467	0.9880247687190088	1.0033131812513625	1.8429987384041264	2.2319617215071723	2.3963713585432496
104	-3.1816368022698738	-3.916300525314318	-2.771263115561827	-3.0543920916688942	-3.7083701993775	-2.8507006096392207	-2.81749438528153	-2.616307252000416	-3.0712366026584705	-2.989574424825097	-2.7958967615109853	-2.0061891028297567	-1.5746356209099863	-2.6138021879961206	-2.876352541337151	-2.4776883062749557	-2.3244080484832406	-0.38328525327233376	-1.7292776064128024	-2.4486653742956195	-2.091082329238957	-1.7781670048641975	-0.7966075519476521	-0.9215303040126236	-1.8778926086697267	-1.2102580039939528	-0.5539436922392745	0.5158816562979268	0.7223067265393879	1.2415803639536287	1.1929520338456907	2.2718279304366713	2.7023465565164644	2.9405980035925494
108	-3.5931391625285376	-4.076988209921438	-3.5851578621946842	-3.315815917226514	-4.007740010633382	-3.1085743825629812	-3.0490722579268326	-2.901535026854016	-3.2930495655841643	-3.1966760077830507	-3.094098798569377	-2.315665000791081	-1.6035820205256244	-2.6628827981474728	-3.029304258327694	-2.6780915192699632	-2.552935116998062	-0.4181560267381418	-1.7106429295265617	-2.4826798376344237	-2.2183964196462798	-1.936443562386951	-0.8370991328085554	-0.7505151014452804	-1.8335187388858247	-1.2689237562567246	-0.727288542341782	0.5498486743396098	0.9635526513567837	1.3874475920933451	1.1524481744279946	2.683577292342661	2.9374213144526204	3.226019612750469
112	-3.622076263819614	-3.888170232492884	-4.055248250259529	-3.2756178296357437	-3.9080469509638185	-3.0377557200983483	-3.0798573416198596	-2.885798685417306	-3.3097407734277655	-3.027100078569465	-3.136723748870695	-2.4102413593474648	-1.5310291013209856	-2.5097482141072205	-2.9008090422824844	-2.6673493317970847	-2.5981378489701177	-0.4060291935683044	-1.5172411165077744	-2.3284013212545305	-2.223855728256764	-2.0207543322088766	-0.7494214158210581	-0.4474490869669183	-1.6898038344635138	-1.2875553337014447	-0.8759199954806227	0.6344113929943651	1.2178106277236636	1.4123779499634463	0.9188516712831803	3.0234930438953445	2.883381836287055	3.1862823882719384
116	-3.2667848981394902	-3.3778719816755505	-3.9794025320672324	-2.870164148713615	-3.4430680188034266	-2.652091496447423	-2.8680322097846718	-2.5862533980876474	-3.057089082628882	-2.5370781357606313	-2.903263084710981	-2.2449235859458825	-1.3575125898419582	-2.1625811999080495	-2.514179223388636	-2.433773749882534	-2.418733829113621	-0.32852813518548457	-1.1581828564966457	-2.004931206409593	-2.0791580624538777	-1.9827184627065195	-0.5446580038624501	-0.05685868472406609	-1.4384789430539808	-1.2414500682004788	-0.9543568467840536	0.7626342754182835	1.4437553846147557	1.3002542224480698	0.5277898298289578	3.227414838271849	2.5296935971287624	2.799608223522489
120	-2.653281205154136	-2.670412295275069	-3.3548610125716603	-2.1832613889885275	-2.7666826178316923	-2.0716447777896194	-2.4602420267932468	-2.1477549021854725	-2.5917098456751897	-1.9033585738764274	-2.472328895048863	-1.8887337398526827	-1.1343624563187493	-1.698355908874295	-1.99262606594536	-2.0535860009797444	-2.084450478059412	-0.2067632967973851	-0.7090715748050728	-1.6078736741479067	-1.8305349303759022	-1.8582608652882007	-0.316841571723169	0.3220001152968759	-1.140170332891	-1.166854736243123	-0.995678064693491	0.8569077231706834	1.563322897778758	1.0363187763752457	-0.002599419088059233	3.2446589387989904	1.9176926564436918	2.1052937454475837
124	-1.9744695375183006	-1.9495058010472093	-2.361258262394719	-1.4292482101595005	-2.0871095604654184	-1.470744844538069	-1.9718023488806253	-1.7591922238757274	-2.073136324416713	-1.3398609127548717	-1.9857832143238427	-1.4852467737845971	-0.93583309414146	-1.2346545426667934	-1.5029827318391835	-1.6561180311351713	-1.7381768182738788	-0.08764214046523686	-0.2846371226276891	-1.2686659065640773	-1.576727982354899	-1.7462217763681913	-0.197746619082914	0.5731911048722591	-0.9027511454678122	-1.1419345111626078	-1.08776509487176	0.8053328970603578	1.490402933172519	0.6183695777539524	-0.6656750423790855	3.055601589117623	1.1318095893894649	1.2005658119407865
128	-1.3946567738607272	-1.3883244956250667	-1.2508485285649336	-0.8580315091404414	-1.5738228519758812	-0.9960302089339349	-1.5279159507322269	-1.5473248919521447	-1.6789748626280614	-0.9938610767067454	-1.5772442777866398	-1.170540687466727	-0.8141128996321846	-0.8778111912499263	-1.1761709421979953	-1.3575221265850983	-1.5146183929349895	-0.014495359697103487	0.01216528468487847	-1.0917106839273503	-1.414406892066478	-1.7465271905672495	-0.28632160948943347	0.6161856039702513	-0.8296480753932856	-1.2389222352219367	-1.3135205474115237	0.5219553695852045	1.1701029509566017	0.07034569215895349	-1.4416000806651192	2.6776206425774265	0.2779389314786763	0.21813365761996553
132	-0.9697583889319055	-1.0729097100826062	-0.22229720595978775	-0.6242402776216377	-1.2820808855112258	-0.6961993557518786	-1.1981986730841532	-1.5109379253386908	-1.5004317722585268	-0.8749731160961115	-1.3025183644787912	-0.994956312051728	-0.7649105767965086	-0.6729758960899006	-1.0441012356146302	-1.1971226900393843	-1.4613466225921927	0.00011254153622538497	0.13893035019130306	-1.100593683325089	-1.380017396303694	-1.8933200788379905	-0.5917332157453972	0.44483777768357896	-0.9636418795097872	-1.4731626473426336	-1.6893260436322006	-0.0016108258819516298	0.6113302096191068	-0.54928213219245	-2.271297210680931	2.1594107096511617	-0.5411566482232494	-0.7070296388895129
136	-0.6277338846570372	-0.9552573537550466	0.6444253905238612	-0.6941354853270967	-1.1314867706341762	-0.49926993124793323	-0.9600193476280641	-1.5319981536332972	-1.4807203970717822	-0.8516691305592453	-1.1078196736022552	-0.8915416575810744	-0.724559186059763	-0.5811859950650866	-1.0233914826304182	-1.1093490095740408	-1.5064489803427001	-0.013772265950836473	0.134368121284746	-1.2198462455468932	-1.4192407095362685	-2.1214704459987823	-1.021207210823494	0.13297809626860982	-1.2549844948554556	-1.7769319966275696	-2.1368632262638747	-0.6807556135156323	-0.10234872970966528	-1.1497175664484385	-3.0479664725597515	1.5696380098767666	-1.2430343596546087	-1.4681088887341773
140	-0.22270168307821234	-0.8710221030178605	1.3713726962751656	-0.853064356080625	-0.9508290266826395	-0.2524731748882318	-0.7129330021024525	-1.451460953862574	-1.4391066991711703	-0.7184524517993631	-0.8562763311701719	-0.7114691716351095	-0.6040248259553	-0.4985855507183501	-0.9567255949660919	-0.9506013965448169	-1.493404980703697	0.0027257373953337746	0.09632185822248222	-1.305878755133454	-1.4046546185315298	-2.289042467060079	-1.4225345814075299	-0.19998551854663693	-1.5750881393719787	-2.016730541859539	-2.507277005541072	-1.3688955272445547	-0.8326667526203138	-1.625248904893223	-3.6375145820331993	0.9827243064864499	-1.773109312349196	-2.0047016093184977
144	0.372129379763436	-0.6139773114915433	2.009748453788178	-0.8063877800609294	-0.5634197578510309	0.1976522500293116	-0.33495139991116496	-1.164358493726232	-1.1666831940758924	-0.29781845136790797	-0.3994745006012261	-0.3061057917495876	-0.33804905329232116	-0.3085508040744234	-0.6899541002973705	-0.5694646224903102	-1.2644860712551114	0.1071523201740503	0.1299304511842939	-1.2122640579134485	-1.194693085515184	-2.2453451099926696	-1.6572931963085957	-0.4439686227556586	-1.7700037911549493	-2.0480179734974646	-2.6469166212010893	-1.9182368468491173	-1.430345054829888	-1.8837931108597243	-3.922723044981941	0.46570873142917896	-2.1046738571434846	-2.305529111763327
148	1.1836429804481732	-0.03817008053560117	2.570672505564119	-0.32576614536053344	0.12768408623883168	0.9254233813762991	0.2513255470606239	-0.6715100390646405	-0.5416542277965781	0.4724706697456181	0.3417934170676576	0.3918720771909312	0.08240036645589187	0.061022601867626924	-0.14733444117064173	0.11410280288259912	-0.7438417058284317	0.328222095137658	0.29598006531374205	-0.8577343203823417	-0.7045934182497592	-1.9069560718074081	-1.6639208751630172	-0.5433905706991461	-1.7273532108564427	-1.781086321148636	-2.4690427717814027	-2.2376892510184687	-1.7834424927506585	-1.8755943727822797	-3.849432935532581	0.06961774063414955	-2.235115999300722	-2.3977384506723665
152	2.1135792678876024	0.8569319226564012	3.0111339016230816	0.6280788167354815	1.0912346812353757	1.8844630670653082	1.0375548574954772	-0.061197515422568995	0.39434572954750935	1.5059732160693042	1.3273864950999041	1.3310985531578539	0.6090958699106976	0.5988914951462695	0.6292053445188921	1.059376475520522	0.023184752033229533	0.6540890319522522	0.5837879166168976	-0.26555794410415834	0.045414846275824296	-1.3015890088597997	-1.478296633802755	-0.5113925324880022	-1.4249134027745098	-1.2258056371257804	-1.994209403725176	-2.3195404947845923	-1.8509862376210204	-1.6102027852412695	-3.45011018835657	-0.17583572820138216	-2.1823241655564454	-2.3293213785489604
156	2.9800491257768806	1.9072852086550267	3.2758114255214856	1.876118536027111	2.1769337599151477	2.9230019972435426	1.9322655152173238	0.5601246342822324	1.4438751899504518	2.6024866038419505	2.40361737598101	2.3648767411606078	1.1655518979209119	1.2120207517540897	1.495688792267145	2.1110966152296857	0.8929071999894309	1.042937633742263	0.9238101816695261	0.44577348119722304	0.9302441454289166	-0.5564707503574365	-1.2007981508455343	-0.40656518833509386	-0.9354106760250033	-0.4909866141797658	-1.3380910124373797	-2.2225732747230147	-1.6662411647689754	-1.1518186301714664	-2.829708807476644	-0.2623646252683791	-1.9792936990356618	-2.14958905630987
160	3.598605862114955	2.8431806492547644	3.351736537100423	3.091489545646277	3.171449414829164	3.843526115250253	2.798681967345018	1.130689141279806	2.3389575422361792	3.5294063002169134	3.359990826706658	3.316046229573345	1.684855337657465	1.7654331877958225	2.265675539018489	3.0576023978283917	1.6906939702263422	1.4454466068013427	1.2294318644954703	1.114043352175409	1.7677804187011512	0.15995138843206855	-0.9339033341670842	-0.28927025125902744	-0.38793921372696855	0.2605670683957813	-0.6562887413621342	-2.02692889655486	-1.3103009429274648	-0.5943925961746265	-2.1203527397027764	-0.19775854001183896	-1.6658440786264845	-1.8937836837638828
164	3.8574516675832586	3.4011032495459745	3.287678233429147	3.9354467292607294	3.8742837808067527	4.475426185752637	3.503454199528652	1.6491937595690962	2.8605244087477186	4.109729756469633	4.009574403176359	4.045098771372801	2.131417984349522	2.139863962492871	2.7849984098691896	3.713278999490228	2.2842307033087996	1.8244517995547738	1.4419734441590497	1.6022082526763095	2.3914728104293967	0.7112579923792035	-0.7270516734840426	-0.1837323750387067	0.0935947743675396	0.8794606901852758	-0.07546214740297462	-1.7875071718862092	-0.869716165254129	-0.02619163126591232	-1.4268102609850528	0.0034907008433127107	-1.2771995035350248	-1.5743427236862995
168	3.747359504775277	3.4344239148213447	3.1619181553164846	4.193338383577878	4.162765969256872	4.72784756420469	3.952843417678111	2.137937540378594	2.92776154732613	4.280292500179629	4.256262768489809	4.487874973410416	2.4964427884968927	2.281074279748043	2.9891445561280623	3.9875042337832274	2.624704592753751	2.16142582347664	1.5541967114309498	1.8528287363956655	2.7136807373197573	1.043374416578074	-0.55970072604966	-0.06808093918062451	0.443414388967614	1.287442919341682	0.3540152600410271	-1.511298295020093	-0.3993015279225246	0.5002952801470931	-0.790560124308654	0.32936495459369586	-0.8337667563368664	-1.1812837094046302
172	3.339059106025863	2.9703228398669888	3.019107334143844	3.8483333490485405	4.0222310918345885	4.604032981692584	4.105174531108819	2.580974333922509	2.617680543012574	4.098262299680958	4.120010842411693	4.651157367407347	2.77529882684009	2.215600723394793	2.9181194231744487	3.9092118641383675	2.7416846682945866	2.447602027435511	1.6014331538776074	1.9029166650411784	2.751078121868893	1.189993020867932	-0.36918541695844515	0.10437723222844289	0.6727989299000093	1.4984111748057427	0.662539301630014	-1.1676670283400712	0.0926748139306571	0.9793677305290431	-0.1900731320350651	0.7748000006187387	-0.33834242735316494	-0.6925408822694467
176	2.7301306655619166	2.1825289671153767	2.8264002728628044	3.064299098861289	3.532504549644516	4.176288117355056	3.958678950805467	2.889156334258316	2.1082160419642535	3.6971118356821693	3.710549822022143	4.576716888316727	2.945281974985753	2.0278546758951737	2.6840119294112657	3.5970125107548423	2.701801054808857	2.668817036566328	1.6305400091965756	1.853958959667043	2.6017463141557093	1.2345199553792305	-0.10325311843313952	0.36825251486309846	0.8485875704321378	1.5938600261501457	0.9242924428491862	-0.722754357420521	0.631327389076828	1.4383591377182847	0.42372375619719865	1.337742325266324	0.2144698346206785	-0.09367064362956652
180	1.9973139712451087	1.2972854343085924	2.48952292767452	2.0917563385603755	2.824679129144616	3.544111242883034	3.537795534738579	2.9304945394914714	1.580493088546565	3.2206330218064276	3.1697819152911375	4.308125008196516	2.966722957750223	1.8135753824221998	2.413012975322523	3.1965689578413046	2.564826720437887	2.799710505092665	1.668354983885953	1.8168069078351836	2.391162866277347	1.25713693778215	0.23826654195233649	0.7182638030991254	1.0480066511397432	1.6710622268448163	1.2059950798103798	-0.17260688499740653	1.2456145255111315	1.909741039222862	1.0813912125941516	2.010039324453947	0.8219308832397654	0.6030616745028062
184	1.1811829775552143	0.48775061841843514	1.9229137848942548	1.159614083223379	2.0330583997895064	2.800410978876297	2.8889629767911527	2.6067738467205306	1.1371281118293448	2.7694511343652297	2.6138040953447486	3.8800067803650573	2.806162588664022	1.6342582661375664	2.1932415906845213	2.8185868192082153	2.3628365933843867	2.8136308122169438	1.709647055124169	1.861800904341763	2.2171244565299846	1.2980562415728818	0.5997527226564547	1.1091465922008947	1.3174931969757735	1.7937951042662688	1.5315618476346429	0.4467786241218551	1.9413572500805387	2.4061162411022643	1.7665265753968218	2.770017140070588	1.4604426585518115	1.3506126369708902
188	0.3012347809815512	-0.19216209601523407	1.1287176580541924	0.39490318198636376	1.2568356959082159	2.0173125216096564	2.085817570188529	1.9344985436235511	0.7717714290207027	2.3778936802909514	2.0999484009176226	3.331562749080678	2.4684336123133366	1.495982404746567	2.048753017974979	2.5056605275788444	2.1094911045220694	2.7041630676660526	1.7311861471336918	1.9962177226211675	2.118997806921163	1.3540018762735515	0.9056836939833575	1.483632799217444	1.6563156801367473	1.9701207826464675	1.8790396404508882	1.0770596238599706	2.691910021661222	2.911924831667872	2.421370738591827	3.582533827319718	2.0858464188365273	2.0765376038575885
192	-0.6159111245817537	-0.8001923540893277	0.2324786776395187	-0.19602593730072113	0.5462975488221473	1.2511810032726511	1.2325683801049219	1.071343419231153	0.40392666953148326	2.028628344182405	1.630395169910137	2.727345936565041	2.016814226780592	1.3623524869855004	1.9505087087976678	2.239795440740934	1.8257185174623423	2.5050716336899503	1.7205826000642106	2.1778852884619395	2.0825686402193146	1.403522249492946	1.1132940025831848	1.810472126204449	2.030227894425559	2.1655814592998883	2.206891531140781	1.6708418088689934	3.4507424744267507	3.395706406603057	2.981868497949411	4.407870758371929	2.649337523447174	2.708390705900008
196	-1.5180880985078942	-1.4323048555451547	-0.5604096040881841	-0.681479631133891	-0.0859353763675639	0.5545197711295742	0.44856485611197416	0.2574079626260168	-0.04506825271791107	1.691365356943397	1.1826529473009535	2.1586034243443617	1.559437032577082	1.1923016279635437	1.8536455584456053	1.9793251702880237	1.555872674828513	2.2908527793266265	1.6988415675186987	2.3534772336668057	2.071532482639146	1.4393205606360844	1.2472598521213574	2.1079645103639364	2.4028646885286866	2.3396623075542244	2.4891993936634957	2.218588823439129	4.176816929762168	3.834178438043019	3.4197797688927416	5.215237604325466	3.1214506547320098	3.204142562405923
200	-2.3327567518465613	-2.13285159526204	-1.0660600635316015	-1.1278474302426689	-0.6394473298140785	-0.018269484816559187	-0.16340059000722246	-0.29730713292399324	-0.5815458283046872	1.3610427345245129	0.7464841585385875	1.7200211243118442	1.2089894979470457	0.9805036162416599	1.7379124120703229	1.701519723410985	1.3624449933939584	2.156392092028778	1.7214138464381497	2.498068326365103	2.0650637097672946	1.4867558441772106	1.3951675856651626	2.43803142885738	2.7638947893932966	2.4823183950694183	2.7383046081071973	2.7532274653540667	4.8567628737852155	4.232875336450468	3.7661192322059405	5.993494495518516	3.5105373770772967	3.5724441914961926
204	-2.9887523575664305	-2.8448769974407893	-1.221044418113143	-1.5378121098792996	-1.1021454306432537	-0.4197502125632795	-0.5536830411283298	-0.5155589567519276	-1.1141874762061121	1.0748344632668336	0.3435085407167392	1.4713324271247812	1.0362592909399102	0.7749825100405802	1.6289532143473715	1.4253395759835779	1.3005455699509962	2.181597704147757	1.8546923352145077	2.633502476718965	2.0782561249714133	1.596410866521513	1.6630817609759878	2.8725962566328898	3.1362035195324087	2.6279623442103697	3.001313201956104	3.3282754337203255	5.509238229193538	4.628150928256448	4.0994038478348145	6.750612718704632	3.8620800874476715	3.869366397625198
208	-3.4405982407487494	-3.4302892598330046	-1.1196649046285623	-1.8451923085356121	-1.4448014461279228	-0.6283895357479111	-0.7437297087011815	-0.4788140940498234	-1.4921367130753682	0.8961291290546302	0.018835110542307788	1.4094574415861154	1.0430910560975273	0.6580941064431779	1.585904236604192	1.2021776407407332	1.3896521294794417	2.3978486000556334	2.1408123915981423	2.8134589124218454	2.1533880179396827	1.8163418723978202	2.1164407676667545	3.449043742054941	3.5566282182542635	2.837564699638206	3.3334364806891066	3.98179911561831	6.16642187469007	5.066215979182911	4.503274429395706	7.4987931062199555	4.234552372731635	4.169999112091393
212	-3.6787295248612706	-3.7479033375528346	-0.9621813869025432	-1.9566409538459673	-1.6336656767607056	-0.6631782634203929	-0.8106359222926355	-0.36216023472902015	-1.5820114572637396	0.8775751568572117	-0.18582357419304912	1.4714083634420334	1.1719725102399063	0.7033272367839923	1.6656765895750885	1.0846425267491506	1.602420326001885	2.7755243708153507	2.571458810036011	3.087052337481821	2.331157916859143	2.16283535411273	2.7410204341348865	4.141005982434369	4.04463814667914	3.1613545337969113	3.7657656574540255	4.70847224000434	6.844262582664967	5.571695790528768	5.018289076532919	8.234107950402283	4.664416301394867	4.528931606302363
216	-3.718155374676281	-3.738439073660714	-0.9422571635298428	-1.8151135398813902	-1.650055046683926	-0.5798358306550433	-0.8401358106382604	-0.3148916057742653	-1.3411755527967186	1.0275760863109542	-0.257504224127086	1.572003241384772	1.347921964103233	0.93369424107374	1.8868268680618427	1.095871803377904	1.8807537508210113	3.2392430223697932	3.086827270343717	3.464140644864115	2.6215970450015873	2.6089456015520835	3.4461753281370124	4.861440646295378	4.579940307498042	3.6054119972753838	4.286955345774379	5.455391870076557	7.519578914730708	6.124407275949712	5.615526185162979	8.92236611974614	5.1393060554449095	4.949900614638933
220	-3.5794892220722776	-3.462222328981507	-1.1382647724023418	-1.443084474734858	-1.5033484659386018	-0.44494464881139145	-0.870590923018644	-0.35604047685376977	-0.8452151396392608	1.3010625806384726	-0.21723568384636904	1.6562856393958565	1.5250797233223954	1.3075555529960419	2.215159649024569	1.2193428247183913	2.170005792861106	3.7034926320985546	3.6009538082760195	3.903630246797113	2.993727199625403	3.0978441160190275	4.108876694795761	5.496897683570398	5.103888021934478	4.122709263883152	4.84905861583958	6.143854125723611	8.128824213485482	6.660335523955753	6.208084567608564	9.501504874082295	5.596446976837126	5.381916986228861
224	-3.281292430222613	-3.06773447215889	-1.4706994257988648	-0.9379269457024882	-1.2295242516946387	-0.30177077574834066	-0.8649230577566174	-0.358492969561506	-0.2545314126740966	1.6197937686078625	-0.10270816806849518	1.7326801971558596	1.7109931664183777	1.7415347055334676	2.578947537586684	1.4135935270859266	2.4480616984548584	4.109177102204671	4.039184560114539	4.331696022541302	3.390048495316683	3.570915451570853	4.632811057791802	5.9553999750458475	5.544574723550123	4.633455741628064	5.391225801207799	6.703925592662838	8.591262795691959	7.097923737725218	6.693759424475615	9.902055715356157	5.9494190065856065	5.744328961174454
228	-2.8432054447869284	-2.7060387066231093	-1.7481596425742363	-0.41960638655579957	-0.869482574651844	-0.14368228578054001	-0.7285444122040287	-0.13041610982869759	0.26745617322152765	1.9169667910814499	0.06327902509686958	1.8682004166165604	1.9561021278585582	2.158976311001135	2.9099948332749177	1.6438683229904396	2.7345020701987073	4.443670738445117	4.369040955003167	4.6827669025448255	3.759584655806423	3.996216763897339	4.991984354767056	6.203876002860889	5.85392616701347	5.065690981473055	5.868824943983911	7.1045498668588785	8.846949554995142	7.378745060410987	7.006972295236341	10.077643369026612	6.131577476279509	5.9691433755848795
232	-2.298467391886747	-2.4462387500036504	-1.7713984206298827	0.03831735616188873	-0.4432458270326147	0.08575574286982561	-0.37036809231709245	0.4469073999565672	0.6400810463957305	2.1785724108051756	0.29452389404323337	2.1416990702915824	2.3090240897055527	2.5334539349488585	3.1846792617501074	1.9077274751181434	3.070695154066698	4.733028876752643	4.609317767903607	4.938226210524121	4.088183392693466	4.379308212667675	5.232337461612616	6.277187331563735	6.03484247591339	5.392614827846138	6.270694239996876	7.3616795353991415	8.889260269609998	7.500483970778674	7.150888424938906	10.030070279547113	6.133072837603859	6.0378479805139555
236	-1.7075318054957203	-2.248187536285542	-1.440014239490229	0.44573387391086977	0.05686794207043439	0.4594922352157023	0.22522373440622587	1.3091173138945036	0.8999105669189232	2.4505605635761127	0.6336033924318298	2.5828840667362907	2.7662396361128403	2.897447817162797	3.4361278924018817	2.234582895359197	3.4828781993669784	5.011754500133401	4.811272132170332	5.137259947204226	4.405524719559493	4.750333774017302	5.431640611286426	6.254283889238748	6.140507205718634	5.644179329927063	6.614710791099753	7.520417194452714	8.77256677320052	7.521923046194517	7.191494923554647	9.813956235903294	6.009593948450281	5.991185650004326
240	-1.1502231330441468	-2.0038299509955033	-0.8048822859469935	0.8773472286961661	0.6537538154308817	1.0207890246368057	0.9638013219341588	2.202913517158515	1.1695113152540548	2.812122099452198	1.1208820314718027	3.1391625325101673	3.251761428252494	3.3111183559743362	3.734357109178222	2.661957734062894	3.956359138036666	5.292552457798478	5.026201235479007	5.356099115200294	4.767091262225726	5.14018629683673	5.646114335110166	6.216814979116062	6.248541339357006	5.889718994529303	6.929785710958563	7.62565706235107	8.591218926673514	7.538508396189264	7.220676880725843	9.517826056292066	5.858670696725612	5.908332809789925
244	-0.6964383703768245	-1.619761462890476	-0.04116915901041868	1.4073317015402127	1.3569997514796057	1.7493035749138774	1.6710680680999894	2.799059383954783	1.5756854971204093	3.3257210170702804	1.7581329301314534	3.694054117412912	3.641041984902101	3.8084812068151734	4.1427554979634	3.2032327571103685	4.437486637355994	5.554667458815168	5.277133928326908	5.665343270303317	5.220643984011524	5.560379014281705	5.8752965778787045	6.211283668094872	6.4225220518083725	6.201221927245031	7.2357253845635805	7.697881679173116	8.43891904607659	7.639481525206792	7.308992367410826	9.2290239101096	5.774319157326763	5.866267666310924
248	-0.3686259677639958	-1.0870519849034679	0.6367890222684525	2.043998713101118	2.138508314455522	2.56104277917852	2.1772539560660724	2.863698475283284	2.16520618845733	3.994096984315899	2.4921283659003635	4.12960766703346	3.822693576698114	4.3589262852288995	4.677899348846178	3.829537381993945	4.862835871816758	5.7585391852901875	5.5501022198740575	6.091006263613386	5.777677044586352	5.9980630723197255	6.066168769779611	6.2341265521009195	6.683202249819652	6.6179079842374335	7.533105831200463	7.728042583027631	8.369444825976117	7.8687906066590925	7.4743623544811	8.999768234418882	5.804032311090856	5.901941284537507
252	-0.12170041321784052	-0.4898253368885388	1.0708138915683054	2.709433071925208	2.9343924448313614	3.3485476886129906	2.41479157791813	2.395805829675049	2.871263496779077	4.7547330736277775	3.235793343957482	4.401824940058336	3.766378154782191	4.87323902807101	5.299774633378388	4.482044685491786	5.202404009081989	5.87820051616483	5.807611927628449	6.603190882223809	6.408599360498309	6.429636462190801	6.153868182857752	6.24522446009292	7.005919438793687	7.13184784042277	7.809585074734597	7.693473319656658	8.378918626611377	8.20980546785866	7.6829471394159	8.831493355388169	5.930755600260657	5.998106941338169
256	0.14422193133181274	0.052607234434583296	1.2257569997357665	3.279312363928174	3.674545040390024	4.039696206384	2.4717116293491275	1.6538671213355562	3.549901714899054	5.514401898766683	3.9161348244022607	4.581546295042815	3.555365315043951	5.25339649781433	5.9367537348585495	5.107591139295734	5.487257943604502	5.928987011245346	6.014469131543441	7.1366491137565955	7.062411767294857	6.840826017274473	6.112154945200617	6.1988653980151405	7.342286568223983	7.698441485995432	8.054621676136204	7.582180004050195	8.41661355754648	8.598487832294811	7.8768501082866935	8.683260895740448	6.086115344894045	6.097446426255818
260	0.5429590926767065	0.47297108053956644	1.199487563919522	3.670336475642349	4.328469265499888	4.643457400996124	2.5648000175570953	1.0482989523169837	4.068873395183625	6.2074894748366285	4.522721756006763	4.83264683456998	3.3637118254613014	5.460830674689291	6.533130629257384	5.697154030721049	5.802971348416532	5.973049625575017	6.162456973729622	7.632578830522071	7.699199180237905	7.239941578705768	5.983113273773486	6.076466545022166	7.65465877507692	8.264373758431336	8.273139932725611	7.411737423303763	8.419631936750285	8.957908607754549	8.012101153172267	8.501375176900348	6.188624843231425	6.137805923224233
264	1.1454411716151802	0.8113946298140658	1.17620038689244	3.9116833111230944	4.933576571406221	5.250699030017185	2.938900463313632	0.9534708237417044	4.391899574635397	6.838505250831358	5.122359739722314	5.333621488456508	3.381418219612154	5.5545210698079694	7.085924130669332	6.299100859950792	6.248736365754219	6.093385681026813	6.27672575319576	8.073454836489045	8.313162782661184	7.653927783715241	5.864984497521439	5.902140125631976	7.940198401431197	8.794038750380194	8.487304666071616	7.229574185238291	8.351427057161743	9.234311080506407	8.083572367286255	8.254060724399757	6.185140117288075	6.087810977824335
268	1.9387254666017708	1.1981906860617735	1.350903150008792	4.150610913287805	5.582086549016938	5.983835205229182	3.740744104477648	1.5334591826823427	4.607159602931029	7.479351024817626	5.823194489082027	6.179744228019472	3.724012603894281	5.670675263392882	7.645650844344048	6.992940885054482	6.880524617943287	6.349300845328199	6.401707156231042	8.488943078543064	8.929465271339545	8.107398966347192	5.86224173019438	5.733885273761857	8.230050066196219	9.278572059093388	8.723335244088977	7.092428666327958	8.22321222136485	9.415839171478757	8.122318247315384	7.952270964572104	6.073487266465235	5.962378486838531
272	2.820521824391318	1.768087740248837	1.8519188118908219	4.571924674888884	6.363676055100255	6.917691690145592	4.933746325434113	2.670573943071292	4.875015723317989	8.215979555367486	6.70237444139112	7.318188171983556	4.373851288242975	5.946956619506862	8.275694826212813	7.8336238663304	7.66858528108424	6.738822919997826	6.574717505067914	8.927452064862694	9.575043654109031	8.596903779259259	6.026594623608774	5.635833249168106	8.56316182835568	9.723422025926794	8.990732170293747	7.037462693566344	8.086436251251191	9.52587697485084	8.169092157719751	7.645722846754755	5.896432861699852	5.810957893959113
276	3.6333219913302837	2.5563077862095174	2.6838641098925957	5.27694462397558	7.2942600066081775	8.01347062948717	6.298258288694374	4.025188435882298	5.324058996110045	9.074516273475767	7.735826949615643	8.551120736467135	5.180844293865427	6.431980116817452	8.993644691648699	8.79674241706038	8.49274347068435	7.188312035531677	6.800725442882309	9.41057393559117	10.240901921165692	9.075711227391208	6.321645243896557	5.645918831875797	8.950397468857497	10.124250386426029	9.26553056284946	7.060433369930467	8.001260737245047	9.59763047656177	8.24061868494395	7.396769028108401	5.712505326153482	5.686241612383122
280	4.226754177866069	3.446161261440881	3.7123572732657486	6.198764785375014	8.276186922158836	9.107705093277227	7.521691780173372	5.195306764837213	5.958794101929368	9.975241635886713	8.775611855285117	9.61025998550205	5.926264747916038	7.038334351889338	9.734177564840069	9.760341619644615	9.182523704233349	7.580670337611136	7.044774991368926	9.901488279139329	10.861695262188672	9.46156022544047	6.634901506838572	5.757093891867323	9.353257155645549	10.449915859541791	9.49034879195714	7.115253907359197	8.000177363224346	9.647046064815914	8.310801485059724	7.247272473157474	5.562274441980777	5.613014683857065
284	4.51689337543676	4.204942692630611	4.697910773813964	7.10222004050978	9.11650178514955	9.965342496507409	8.329009988736896	5.886759266295809	6.63253734821417	10.743864985996908	9.593057608226147	10.264625523400719	6.41556404401344	7.570294837911989	10.357366535739812	10.537695858099465	9.582850432043422	7.807138900119192	7.2443857010090005	10.306803677285927	11.327300996791939	9.6645879501476	6.8308710879478	5.919360622719846	9.689642881724968	10.64366242582509	9.592147802930592	7.134951096640521	8.065219858787668	9.658345198088167	8.316995599729143	7.194789391472354	5.446913705425111	5.572742448088381
288	4.514704692886134	4.59361265930068	5.372244344499131	7.688509921689453	9.60610959488753	10.378001186871796	8.593448617219643	6.019361003937096	7.112135869189579	11.18442151106869	9.974948857872315	10.413587543898648	6.558492167126702	7.820897559447247	10.706751796393343	10.952077837949247	9.618061995064872	7.817999343207005	7.337820034574372	10.516892406613904	11.526576013073486	9.62492082073115	6.818986875483908	6.062609180402612	9.868959401963156	10.646293613257411	9.511904692476449	7.064123612688484	8.134205797639375	9.592070555311158	8.18986604530158	7.1931671914642425	5.331387506375966	5.513567433741934
292	4.312070358833528	4.493896949866159	5.536756024686806	7.751959781148398	9.621628736999227	10.258723233071382	8.371168115461511	5.724153981061816	7.200795632301916	11.178630800634092	9.824651693334788	10.11827847787177	6.394733889647085	7.685869197513991	10.689022990896111	10.916599246119876	9.321302390406403	7.644829730759695	7.29320285863111	10.463997814462292	11.40134713155372	9.340819335242381	6.599680407073981	6.128618224883172	9.838510488465813	10.429213497533514	9.232562995488847	6.886765462654092	8.133374193637568	9.410379386031115	7.8913569251140805	7.1779813585252885	5.1694855559485475	5.380656705622911
296	4.0345225232305575	3.978522052256833	5.146290289283478	7.292921524708481	9.191598869005357	9.68318459927057	7.8488564293107395	5.244597421756223	6.8471407717446136	10.75250432160742	9.212572074518812	9.558845495885766	6.055100425691345	7.226865273349378	10.32677743211831	10.4756412241619	8.815560318624197	7.380993347606238	7.123453599110956	10.16203019437508	10.979615183765953	8.872087456237828	6.2621350130287405	6.095664485800112	9.612981771994203	10.01646993015518	8.789366699915917	6.63345430606708	8.01657579305355	9.10294053640449	7.438515644366526	7.100943547440493	4.933252798976619	5.147157656072059
300	3.782836904511755	3.2823152459243765	4.342658985617871	6.525509817814222	8.490915277024413	8.858339287327226	7.243900757620333	4.808387744207645	6.180086597098197	10.072953198750367	8.349913576025429	8.947052933038304	5.6871418809355365	6.645628435522426	9.754963850187979	9.787198042001126	8.258996942649015	7.133110505214504	6.881238443167314	9.706002210907299	10.370010349794804	8.31801317022218	5.936595901759583	5.985816463616514	9.271618819670026	9.48380849351174	8.258234003197815	6.36514662089244	7.791029910444286	8.70032689758945	6.901516420105864	6.955789548478359	4.631726253259629	4.830404269420613
304	3.5950541405510466	2.6911637715105186	3.413702240908208	5.770269856189525	7.763593654104865	8.03425214646351	6.711554987174826	4.537308681476525	5.44674538190869	9.373812651809473	7.496992092277969	8.43918893590745	5.386829839457423	6.181468471179181	9.161271072145892	9.05389974215575	7.780752639199482	6.971194249672376	6.637094004086454	9.230021453442042	9.71801659991505	7.779342154889078	5.729128346283632	5.852788910394027	8.923062301995358	8.932709671355768	7.727110843222854	6.143203719841464	7.514843921761706	8.26619909106833	6.376208766097665	6.780930025146644	4.30839299067875	4.484092701081098
308	3.442246428381917	2.403936618457621	2.6866519383309915	5.290199266428687	7.208963852801313	7.399455051813777	6.299997790643107	4.424488533293352	4.8870525236721205	8.844700790962735	6.848839742535002	8.085154512973178	5.167569147414568	5.985809787896316	8.697520234083353	8.43525312201358	7.433178406068234	6.901293260316388	6.450901492044339	8.84335229548274	9.143710113327925	7.319582443830622	5.6709813928476756	5.755245194209637	8.653670289125705	8.44958780062729	7.260922890450891	5.998986705892833	7.265501480832397	7.870177249111646	5.943277820840613	6.63512275927942	4.01792143760963	4.169859875641549
312	3.2556424058733104	2.440735810793301	2.395485395105545	5.1615228522638175	6.894327146289786	7.011556130826575	5.9656748621048665	4.373163689062583	4.611617553511814	8.545959451079776	6.457651122001662	7.832948664916088	4.976288306070113	6.045406803126707	8.41295717022661	7.987143973212086	7.182375889764193	6.872321588331429	6.348448737328641	8.581985451965382	8.695075013142262	6.945217591870529	5.708928093801674	5.728754029115388	8.488614060904736	8.07261655676704	6.879035932339135	5.920156940772035	7.098608475882668	7.558029632559656	5.63685749538134	6.561446650151469	3.7978200816589847	3.92667983971072
316	2.973048441056396	2.64493011760503	2.588926070352628	5.251567350480081	6.738704187545734	6.793283922210179	5.62735985288823	4.2685794722551	4.557080257354341	8.393870332506244	6.229202731617746	7.578587036072206	4.74593733542977	6.200399859986365	8.24457071130116	7.6569456860818885	6.939128858212806	6.812715036357898	6.31391428307013	8.401713350064568	8.339919069214725	6.613235456935998	5.741071209717835	5.769667610860235	8.385848024176891	7.781845549963324	6.555045111318754	5.860244736180867	7.018479806346204	7.333024006449273	5.435741410836619	6.5591502024033606	3.64891909631715	3.7525603676466677
320	2.577593320060806	2.772373907719057	3.1203341405288962	5.312882886824298	6.573752863499305	6.591046793509353	5.2232961522787535	4.041565884876594	4.537454593646568	8.221894243462904	5.991185650004326	7.231394272666557	4.4479899294132155	6.244210227459982	8.066785792011254	7.332183342541484	6.6128473114902	6.674192411738151	6.301290973012889	8.214144685987353	7.998117426706108	6.261177524017485	5.675133213973668	5.838124260467673	8.264929750556398	7.516223411656905	6.237536891447778	5.76417683099739	6.976011258632382	7.156578522733378	5.27916763880151	6.579545481282532	3.5344982057979295	3.6078298000799482
324	2.1105911678432667	2.621186726627989	3.724308719768777	5.129972444933807	6.245694144692564	6.262880786342287	4.740561950158917	3.692908516143221	4.358046520674236	7.882904032831956	5.594312176885241	6.760562402822578	4.113607873067508	6.044867977139298	7.770863990237632	6.913664323517576	6.161221965492994	6.457097990899543	6.257423861917588	7.944090346306625	7.595243434803346	5.844993576551404	5.476839051724069	5.876921162072601	8.054328898121806	7.208938580431992	5.882058128764953	5.597155556852427	6.89484451460513	6.968769532729034	5.099668966769349	6.549022658025854	3.398921719552703	3.4388484868011404
328	1.6605515438116607	2.137882704105539	4.1438307657524325	4.646692264269206	5.704604611299162	5.753014073152038	4.211257447100751	3.280901185335295	3.9359989066885346	7.336519222810077	4.994327532556551	6.205324157306696	3.8165888689956313	5.6222591258198085	7.329568844409657	6.373984797597421	5.613478646410825	6.208006366314816	6.147283538556749	7.575977783149106	7.108463746243528	5.366931424895846	5.185335623047202	5.837583050294478	7.731614093333555	6.823487741408824	5.47874878453785	5.363229261208904	6.710912210687191	6.718268854345375	4.85609482492826	6.4061732130434965	3.194783441106921	3.208339444643252
332	1.3292925324257194	1.4477231465981464	4.244319905055606	3.9962470430568082	5.034132944748532	5.1202216019103295	3.6933824922772787	2.8929130957997344	3.3521377955680376	6.675448877646844	4.275905121498078	5.655255780246998	3.6347176936888204	5.137255655669813	6.813249093973737	5.77302931281708	5.061313139534645	5.994608863954423	5.972173198880452	7.164487343819367	6.581406099869143	4.8815541144147625	4.889911639265488	5.703069195653625	7.336127739504181	6.373433097006773	5.062191473577838	5.1041364540932745	6.405169470828013	6.3870467978391	4.550935256912092	6.13367651344462	2.9054174349863033	2.9159216807178394
336	1.193367359009437	0.7990680912824127	4.054241647021104	3.425035468037187	4.409340847326957	4.510223377284656	3.252612344159159	2.6136851244740775	2.808608286442271	6.078057273777915	3.6096837429463613	5.213138090323199	3.6122212318773324	4.800239550868842	6.350311740101037	5.226204858936449	4.622154224170026	5.8731522411836785	5.7730798575557225	6.804914934143704	6.102588638156898	4.476767051838119	4.68387221107475	5.497237668463338	6.9489164176973715	5.918017849285736	4.699369895514382	4.880698668555106	6.013515934066599	5.9997529832041305	4.226899613198954	5.7687563750532105	2.553698771704996	2.6000585490385104
340	1.2810033527456968	0.4534769344801571	3.7221476937732567	3.1675600925580993	4.011629094485868	4.090248574420429	2.954733602693213	2.506544583667921	2.524183982198215	5.717647538054562	3.1696391025626163	4.959586130971901	3.7442245388865856	4.7560195802773615	6.058884128532134	4.846243369264656	4.3926496394833565	5.866882786243453	5.616535649424347	6.582427961896592	5.761248574016257	4.238129128246285	4.622215259326122	5.275346265825318	6.6523866485485765	5.5368714192788	4.461664188564482	4.74706553214323	5.609233365202061	5.613778576982577	3.9456455607932073	5.385799871198305	2.1927795354793886	2.320332998139525
344	1.5665032824066538	0.5696474299353746	3.4188568505753696	3.3340825950368407	3.9439811606967017	3.9760770697343197	2.8608956264744427	2.6035575800965707	2.62057637506703	5.676954731913405	3.053357355038206	4.930782782503362	3.9877729315211967	5.008810507526088	5.9882869569269275	4.690534102995186	4.411943901367016	5.962415680136777	5.5668449261306145	6.529672129357668	5.605639443549758	4.212445725295994	4.701982486297581	5.100479589936247	6.492881758509393	5.297312723136802	4.393820274703789	4.728971946220894	5.270131097839218	5.296504484155688	3.760001173063062	5.06222771320177	1.8851823759166415	2.130246157036196
348	1.9802104184699927	1.1290962667568498	3.2453811086732656	3.8610205552848194	4.186220158498193	4.181430329256136	3.0110104007994187	2.8966813014329205	3.058068744567937	5.910039409974825	3.241217605036927	5.109564768288554	4.285495747236804	5.428150640134349	6.099451049663843	4.738756167845361	4.647001731584099	6.121318324846671	5.65770576955966	6.614371759881127	5.624678597554423	4.38584326590435	4.871387946227539	5.016878115385358	6.465350134738571	5.229151712566704	4.4938311463384935	4.814374911550926	5.048161970744607	5.100828634735171	3.692791929458335	4.846782195252065	1.6807154374603979	2.0544350095377815
352	2.4302864013348198	1.9367849777913624	3.1985447326013308	4.548479545553547	4.607487190057887	4.6088151815401295	3.394258967412986	3.3272418891825297	3.653425207450793	6.266761763963104	3.6087787060223766	5.428262696866243	4.584159839500328	5.824953541354197	6.29013727507352	4.907165038117191	5.003120409731617	6.296459182101016	5.872928604557046	6.759785158256669	5.758553013567741	4.685003268811152	5.057563292132003	5.030075060542469	6.524034006813309	5.3159155711428125	4.711513030554524	4.9587874287339275	4.954104411015038	5.04819010413687	3.7300963307618553	4.744961726606549	1.6014791686632577	2.079952473157438
356	2.824535124323202	2.694821827760438	3.2006888308777777	5.149352060668569	5.0242795817363	5.085139738595583	3.924219836817761	3.78942750927722	4.166104306193024	6.563356382965251	3.98338507600249	5.784525379835174	4.840904700454892	6.051100238781278	6.447288496905755	5.089547621274884	5.356973157709073	6.445801241813075	6.147406085706098	6.884600621961316	5.930409416484675	5.003170477633101	5.197378622284375	5.104064451682568	6.610702497958018	5.5049748281728075	4.966818796969266	5.102220999233609	4.962645041334051	5.1254916061694855	3.8307475946984093	4.7270164370400405	1.6386270481699934	2.1651332323723094
360	3.0889398973678026	3.1188545148307276	3.172426454163855	5.46626852562771	5.274992452654825	5.4284877640043465	4.445079792244049	4.155479897497924	4.407190311748891	6.662884218559914	4.216908444248349	6.0694765891377145	5.021805273728631	6.066353782596527	6.497215254592202	5.203260885453117	5.599062905480424	6.54019783276127	6.391353591041118	6.939214688901066	6.08060215368482	5.239540563706246	5.256609426578191	5.177339063924325	6.682850343997786	5.729760155516656	5.1787710059067935	5.18907498003239	5.03031967800401	5.294047819122828	3.945086230808047	4.749992358612891	1.7588676169811002	2.2588796558569357
364	3.1849801459961737	3.054068319239292	3.096113912394856	5.420816407822543	5.281177507418262	5.521506295568814	4.77890681013901	4.31456326349032	4.319586742939307	6.529614432061671	4.243195523039403	6.201049789031354	5.099353300571416	5.940659984848687	6.430848105406736	5.2196259366813305	5.668904290191787	6.566001875512282	6.5269527270513015	6.920915109326907	6.186669810887729	5.335134969592823	5.231959329747116	5.189466940175444	6.726721269790343	5.933462127963784	5.292111860265411	5.184177385592851	5.113791929685352	5.504031644276264	4.033618916818044	4.778561580037342	1.9157227229388387	2.320194238526838
368	3.118380300278092	2.5427594120676984	3.0295882148546873	5.072731005258992	5.072589384623363	5.36192368107304	4.802381026540925	4.2196187866487325	3.9942011732347034	6.235930903903005	4.098635663174889	6.155882819846074	5.059650408368189	5.799232945105659	6.29624555905468	5.16825054771192	5.573424802060047	6.525871260379228	6.521252615676533	6.863621694401978	6.262018664762432	5.290947900765175	5.141750322711688	5.106161581499051	6.750625116470714	6.084368690387957	5.291506753913179	5.0804476609707105	5.179858671461909	5.707660183801213	4.077579964833274	4.793089854536795	2.060830587906034	2.3292272032104533
372	2.9378485605452918	1.8122050716422733	3.0669231337362555	4.593471038665052	4.7723965524345	5.068778978901782	4.517197597542927	3.9176587959560303	3.619821062485586	5.926371559439206	3.9019782444666893	5.985902294304774	4.9169578428104845	5.748361573011196	6.169826491991045	5.118924128006134	5.382277951956708	6.438544257120704	6.400414450698417	6.813544733011076	6.3390307266407495	5.161362634979066	5.01336287186396	4.932732569638333	6.767627222140678	6.179247840539036	5.199563966974902	4.896836268459431	5.206541525093272	5.867849335160691	4.078924645616012	4.7842550156919135	2.1532413905139056	2.287324184364832
376	2.7250020435198117	1.1852788895245483	3.2758746064447877	4.203751076575269	4.550131309465392	4.838555800619514	4.069623936868742	3.5401415735510153	3.395177117358788	5.757667526967193	3.8033733271893975	5.804414734490769	4.722633349892903	5.824019417363636	6.122963413038318	5.149993406644733	5.198937879787762	6.334929450253399	6.2355556330604465	6.804950696930479	6.446899397785644	5.0248074404690986	4.873336779688195	4.708836066755131	6.779813272524951	6.234494193548966	5.060317503550831	4.668321120873534	5.179001795090781	5.960571274013504	4.050736417080002	4.741529452750469	2.1651465838127053	2.2078657094525305
380	2.574543946441796	0.9509947275946966	3.6522204783736343	4.096574772982338	4.56076716225226	4.8665819045221435	3.6999378110931254	3.254392854103394	3.444798460846177	5.8413529248577145	3.925131549461944	5.743772492212235	4.557251441893705	5.988964065689866	6.199181541050232	5.317523942873371	5.120182501263455	6.250124915555401	6.1077947462370155	6.84888933359933	6.597199900183271	4.946979033377999	4.744198310318193	4.48911856471587	6.775565607130402	6.27233360614264	4.918691622713333	4.434540737400052	5.08898876812688	5.975290283375756	4.006416310685553	4.648739803021361	2.0863380379453935	2.1067151970125986
384	2.5635788375980204	1.2431778876388655	4.117866982553824	4.359900940377806	4.8840479727458685	5.2610025273056245	3.6344227699072165	3.188689700659049	3.7687466049410063	6.203869327140691	4.313304413395842	5.895956978217167	4.499575126731706	6.168014033957291	6.403528674170779	5.632965550505912	5.196151243442259	6.209924682197424	6.068500503477337	6.934566957131794	6.779847127963098	4.951190935985773	4.641482341491833	4.318126667564575	6.7386565038300335	6.306721671393953	4.8028635857438084	4.227979649359558	4.937992083480034	5.913719162315388	3.951331605471845	4.49063919840954	1.9256085108777468	1.9959200570259108
388	2.723908179081655	1.9830325791836927	4.561692703173995	4.9327673787507935	5.48728035495088	5.98955772795033	3.9767107863159716	3.376785508213328	4.2497310531132335	6.775887949048533	4.9191274518748305	6.267190440567246	4.590798843237228	6.2945594628675305	6.702444059616042	6.056592925992753	5.410330281902973	6.22148559906887	6.1163449132991685	7.037940484397656	6.968302709152332	5.010886179670506	4.571627605340074	4.212685574385964	6.661723596919779	6.335454447963255	4.717745292196504	4.066876401170113	4.741363513419833	5.788368687320588	3.881270637249684	4.267117012694583	1.7085896687285231	1.883129115118603
392	3.0295076293751544	2.9163527415077666	4.891139018107604	5.616263852244858	6.227680667412604	6.88420580079532	4.65277289169526	3.743786087120725	4.706143844166713	7.412761192679841	5.615159497389247	6.767807943423182	4.810106265321469	6.338981135576422	7.030477506053462	6.506335718894126	5.685958371111864	6.2711205324152335	6.20186565740698	7.1292981921442955	7.127204400187912	5.065161215391629	4.529384601601513	4.158234108916751	6.552432520535556	6.339939101424833	4.64900540131781	3.9534606833778465	4.526749599471935	5.619125352024009	3.7865590953592907	4.003048886682824	1.4708222113667921	1.7738786891020142
396	3.403757325161832	3.7264480496736545	5.061064707375849	6.146029456833841	6.894565088031129	7.703429202657644	5.438670144654909	4.1351179972197425	4.966691958285503	7.935899237623692	6.23801802013919	7.242886524987395	5.075145708622036	6.304262622175308	7.300385933564147	6.878484708585644	5.9141082614355	6.328316672560134	6.253711207813192	7.175002079968357	7.217657547847723	5.047254549634837	4.494464862920145	4.117415894603304	6.425664885510154	6.290885909410009	4.57203673162078	3.875096549740858	4.322483528668077	5.425948606143326	3.6572370436838444	3.7424430752680364	1.2458406655328385	1.6719901519523368
400	3.746597518998392	4.170363892516497	5.072731482096149	6.309160693452004	7.284081440654872	8.22963521786963	6.063983425089083	4.389941681268757	4.939710604593859	8.18783185798982	6.645496351629938	7.537795047802393	5.277742849376396	6.206341250962574	7.422280769682173	7.079121571787581	5.998219474907221	6.3603992301573555	6.215782626671159	7.14007757291542	7.2039260682376165	4.915863501535171	4.4370550997289095	4.0492916004942945	6.289761050556647	6.160933955850166	4.464855182819121	3.8113675021264894	4.143559922247257	5.222924219296294	3.489143839609948	3.5299761206195273	1.0551131937090812	1.5791640241807188
404	3.968996037952881	4.174113263081982	4.950761782544474	6.041302665716415	7.276243191468119	8.35615823543349	6.336414321160295	4.416514862354011	4.643100249965531	8.083846071814373	6.76456020554686	7.5660028266618395	5.335372911334166	6.054508193942352	7.330014687151451	7.055265408822909	5.893753513714674	6.3462147552481	6.071906074452626	6.994627458078789	7.06137035494397	4.672843921307672	4.329386223352798	3.9267310997050977	6.135261043317328	5.937712177544118	4.317605484551975	3.7423353100705548	3.9823951620645595	5.01487873718606	3.28660511140732	3.38832162955261	0.9029170251938033	1.4931169710608694
408	4.020619859081088	3.843228807282864	4.724462497227152	5.46430443337803	6.884119016432747	8.124399164668528	6.222137912299645	4.227903355414437	4.188626278792411	7.644130687487535	6.612279398436215	7.344211559826789	5.229893194345838	5.846765026589655	7.008723718114	6.815145475347123	5.6240444041356135	6.280587180493139	5.8468956799706735	6.726246339981972	6.786713583023887	4.359871376474072	4.158483971587019	3.7460184002712165	5.936726078303444	5.632947430693946	4.135431756069048	3.6549708750952057	3.8125924967828206	4.799589144986695	3.061694614309759	3.3065736210309766	0.7793624381415519	1.4073395693533033
412	3.900058736491189	3.387587300330831	4.429479110978505	4.831398474892956	6.250775321437548	7.694664458874842	5.844878658796567	3.927571763612887	3.725907793174774	6.9924225630648245	6.283005221716283	6.9798784079756455	5.0142178408864595	5.585509286129878	6.511434061776762	6.429200156192146	5.267593370489668	6.172286018046847	5.587372765739431	6.353877051523921	6.407668574367846	4.038606156643099	3.9355399509249227	3.526742926276494	5.669705853452703	5.284245477686395	3.936213721827763	3.547532311065925	3.6068494228851575	4.575985896955047	2.8320903706572764	3.249579183003487	0.6716199500293287	1.3153095212152954
416	3.647637596457715	3.0076677723288543	4.12221049221693	4.395963657724501	5.59140442390186	7.266593914759083	5.410613046337073	3.653474560096542	3.3730056200697947	6.316004260329257	5.907438263283394	6.618275148848323	4.783785807929426	5.293972955689179	5.9497523157583485	6.006904110047648	4.922591196983273	6.036433204669139	5.334109769705275	5.9307350962629055	5.9827980844127095	3.763742675815456	3.694849720209365	3.301871529825807	5.331237302671512	4.9455265873977785	3.7430128956706503	3.4287712487436974	3.357121935951572	4.35159920547445	2.6166438990332574	3.1811737933904274	0.5744805321494296	1.215468642027062
420	3.3234207546249164	2.8039767671363376	3.8859007260441465	4.27729367129926	5.104387270437856	6.988772851465153	5.100869642730673	3.5084926993480843	3.167664281476904	5.797673687602272	5.600302205251466	6.374581320880827	4.625292289500238	5.016492830962503	5.455538259083756	5.655420289066163	4.6638679386643185	5.886243805329093	5.101972567074812	5.528758988726772	5.585832104885167	3.5605454354990123	3.4803662212239064	3.1026861589297763	4.9493594044657385	4.667323100703935	3.573536148585721	3.3117170250249486	3.0833675783511096	4.142937649757373	2.429011100358425	3.0869088094975643	0.49319642657691176	1.1127279968778268
424	2.9836931153306687	2.7535831858731883	3.8118169211469612	4.40060376009926	4.891454684305537	6.900850278597535	4.990853297030655	3.5129218012808714	3.063587180985889	5.5453781941596665	5.418750749258423	6.284386142122952	4.570759761714336	4.800952422418555	5.127411829400721	5.437236295323812	4.512563694051208	5.729620919066813	4.878581034740872	5.2089786398026945	5.278528200173974	3.4174194249655954	3.3256151592214267	2.9450991079360436	4.5739521864804455	4.4752602464220015	3.4312870415840253	3.2052688517707555	2.8240008282887845	3.9676611323318616	2.2724032344665908	2.9814679547375316	0.4372749913619597	1.0153684590453278
428	2.667004101695417	2.757573597621536	3.954055537731203	4.541835296607919	4.923070895163214	6.932411653182157	5.030258166010756	3.599185219260709	2.9647769853125094	5.548803315458391	5.346685872883972	6.294663890204913	4.581140506622209	4.670890796312603	4.984752642444006	5.344017492153405	4.430639255781484	5.5681824543559975	4.638621795386994	4.9898943775079285	5.081867205187097	3.2933678543864615	3.234469882428231	2.822267763641671	4.2508392226661	4.355168331594589	3.3002824700001074	3.105647079256163	2.610819809997669	3.830682506426479	2.1359841769649464	2.8937330172911944	0.40723177687825646	0.9266838407961819
432	2.394085162794017	2.7244417598603374	4.281496990838209	4.460999000730468	5.0678672662576	6.9568939033339685	5.090626703761172	3.650804510435925	2.7846968103673877	5.688583359661145	5.312906728682147	6.298532946896805	4.567204463871749	4.607230174830264	4.958486067650703	5.303096757851202	4.344095219134753	5.399334417062571	4.365028847164176	4.835339057158397	4.963798987253989	3.1380627076075487	3.175763599007114	2.7076032093352236	3.9960865873534783	4.255966652615313	3.1492068688037778	2.9946916027754344	2.4453961787472327	3.714962473073014	1.9977043816674018	2.8402240204627907	0.3848901083288593	0.8381471016703504
436	2.1764116232282333	2.633316510227736	4.665415752075938	4.048968781739006	5.1683616507695005	6.868328077141561	5.047616469036999	3.5643303304326936	2.49891733492314	5.794962391527574	5.233173833985992	6.195792659375438	4.440040100331724	4.554909217778524	4.925841795882537	5.216044412795109	4.184560288354678	5.220515237979134	4.06406258510666	4.672263610487604	4.854172694348396	2.9164619372167198	3.0968997400295906	2.5676448280357524	3.7874753379564647	4.112824906455715	2.9457986280453614	2.847863905392232	2.293895715644017	3.5863563923888018	1.8347966624665828	2.8058955598561024	0.3360867491819801	0.7304941993389985
440	2.0269942232453686	2.5408191616758686	4.923296439138475	3.39637970066874	5.123651014743468	6.640377027912394	4.850108611259292	3.3026480591359806	2.157663578307916	5.7316589210758275	5.056320654500864	5.94695375848392	4.163329590776445	4.452704895221624	4.7754831193517555	5.01230143235248	3.9275464912435663	5.032547938038666	3.766026487378904	4.432959068550286	4.682733047106679	2.62666725449196	2.9504356309786006	2.380010598849449	3.580799332161133	3.881632556651846	2.67537473956796	2.6487588815571557	2.106609100745166	3.4126186284689273	1.6376897055286221	2.747175686576011	0.22656273784656317	0.5838797673742645
444	1.9639221380240561	2.529983037283061	4.9062862272368415	2.7468185355454184	4.937567698410305	6.3389620620901415	4.5413837318202415	2.913885586057453	1.8567891074031226	5.464865193874661	4.793487059888576	5.594321713628381	3.7785963916745606	4.269991387076974	4.471061695254623	4.692133891656919	3.608653059431507	4.841360079939827	3.511827936842715	4.100678910392631	4.422751415530404	2.304674857996563	2.7208356788605306	2.1477172320500695	3.3432438289156883	3.569118967581858	2.3555290639533735	2.404036992679169	1.852798934073353	3.1883354106513986	1.4216103517879761	2.6183690958672807	0.04416013125356719	0.39427104492779436
448	2.003434414573772	2.640565388688438	4.582758891933064	2.3629538953250084	4.70956228974524	6.08571098698491	4.227902401740123	2.509814732890622	1.6849533276932285	5.082064138932937	4.517011631051696	5.242847429390036	3.3923094186965947	4.028496255240402	4.0781927005800185	4.335205544016817	3.311048022493679	4.660522449170812	3.335542193574415	3.7321979905313296	4.115560044388262	2.014430040995596	2.4393749175472252	1.903605217895885	3.083467475735501	3.241410008829776	2.0389814325351723	2.150921339326526	1.5502738913496066	2.950713627041131	1.2283024756891177	2.4066023765838254	-0.18539810133855542	0.18672506464067848
452	2.1500158255653843	2.829809181698192	4.070065011238966	2.3850719868524175	4.576306808361707	5.9955854264519575	4.02223729071763	2.220878595467039	1.6786847072180273	4.749636161256612	4.330650318656002	5.013566958167155	3.1312529961684428	3.794708957628143	3.737287988763718	4.068385113934858	3.1302006165629455	4.513138282825392	3.251135341065354	3.4397134694039373	3.859201898368024	1.8260159446390205	2.177212709651992	1.6994910197265316	2.8570225166667162	3.00220846371837	1.7993144943585349	1.9502879331939773	1.268231865541919	2.7723252703290426	1.113061663678437	2.15154671125793	-0.4019598950727953	0.014477188662396043
456	2.386837953263364	2.9901974125707165	3.5850291161622945	2.763820164378226	4.6345100285821905	6.119296535300994	3.988548983994213	2.141295189219604	1.8086937620274204	4.626441943885763	4.320779312668962	4.988385664743183	3.0827071588886654	3.6449313071731657	3.5909850506717933	4.003643025780445	3.128575555531892	4.425663460048198	3.2453477300722757	3.334826461001759	3.7601928616001756	1.7865600540831195	2.0144674727124205	1.5803636272584396	2.7376985480806515	2.9450580999405416	1.7004115538581186	1.862501497334684	1.0946959229487438	2.7278556754858734	1.1183291645425182	1.9320324610568405	-0.5369148240838735	-0.0616423262589532
460	2.6680192880026685	3.009008638414336	3.3393185054392704	3.296611539146949	4.884106623716179	6.416599734318442	4.114768971544801	2.2891449870488336	1.9981148192502889	4.776147353511456	4.509584415494277	5.16997145301153	3.2488849081028963	3.621212950146867	3.702967872807277	4.175430764146771	3.3006312763804524	4.413209904018849	3.28034900790749	3.4627859505010803	3.8713624379643967	1.8949437093575727	1.9990373799397931	1.5572514494679763	2.7692820955930735	3.1013028543373213	1.7628464654283909	1.915591115883507	1.08490323746474	2.850381128744031	1.24599611444602	1.8245724393554945	-0.5492741451700703	-0.004941190580469315
464	2.922541134131303	2.8351766991559537	3.432006350435359	3.7394959832192027	5.2223133908981785	6.772420866079992	4.322518814617695	2.5976633959989033	2.1578040068506525	5.12556551592882	4.834146010591585	5.476098523619249	3.537222853313023	3.702493658254641	4.013351907134107	4.512233245901407	3.5671059995235863	4.462555874048071	3.3035697853604598	3.764392843279025	4.151217450151508	2.0934674686982673	2.115983719251771	1.5934591253103985	2.9267918989673722	3.412695399251204	1.9455532978528427	2.0826077408661883	1.2210289209055407	3.102288476740839	1.4454382621510953	1.8574217511011712	-0.45183592920666654	0.17151930884925823
468	3.0719699782059355	2.5137944158029373	3.7942883872556696	3.9291167160015648	5.492905602892001	7.047369939177316	4.508305538239204	2.9435229227135826	2.2217740956478838	5.494344220594667	5.164683328940408	5.774279579842732	3.7976596259556543	3.810963144217354	4.359369266947752	4.861619460229253	3.8059196376077735	4.527293670668071	3.264171115263399	4.092318524518963	4.472138393555127	2.2853836955544238	2.287174695916113	1.6166490275574528	3.115480415107801	3.7482345009583704	2.1566324179559055	2.2838623466050176	1.4112560713423163	3.382230988546259	1.6284755427253474	1.9902445027647275	-0.30911064069906286	0.40268635648148365
472	3.0535948199423917	2.1615538542532944	4.22294186479586	3.840696325142041	5.56031464126551	7.133759003748023	4.586506831987078	3.1922979274260626	2.161103481558509	5.680076584780279	5.353035436466574	5.9344253390209225	3.885948171341268	3.8489470384695985	4.551160800887353	5.056577669728486	3.902200927419008	4.539147365553915	3.130564443313736	4.276038159064881	4.675665366765636	2.3710071980695684	2.402698749198051	1.552888270272144	3.211703292367303	3.9590301413715974	2.2899846972823092	2.4160644947087393	1.5310978850808827	3.5672786145744197	1.7058651404227188	2.132073873858974	-0.20698328263953444	0.5957825168826346
476	2.8441731857970582	1.9035534810643508	4.484257686737419	3.5615677743636187	5.372832761550868	6.99459550998927	4.5181760673890885	3.245257131012446	1.9768922279037244	5.557393536841733	5.293423162447159	5.8799977154095595	3.7268590833029878	3.7490768337962095	4.465898025681478	4.9929594867531195	3.797217121073959	4.436655510191344	2.904290907202893	4.204976548068758	4.649190414134726	2.2892126979251275	2.3713538586827068	1.3665771449872244	3.126742831918966	3.9465870757597026	2.2723557891694695	2.397125476507044	1.4872198067309708	3.5707025437802526	1.6287032324678146	2.1894793455157973	-0.2095157796815185	0.6710386259303021
480	2.4761815008588384	1.8098590328298372	4.430354107161599	3.214859715928059	4.984894739916792	6.670871717776809	4.3159809003580785	3.0709566992473123	1.689376349952264	5.139761911767001	4.9689330929234	5.615371213086955	3.346179476872754	3.509425869664332	4.1106023684669415	4.679779517756225	3.5137009531954084	4.197275151146063	2.6233479910420883	3.885855903351388	4.384294498818416	2.045948023398931	2.1654803698226046	1.084710833671891	2.8584299015355996	3.7106373216404527	2.09833907551275	2.206254953536187	1.2691578833008113	3.3858115587581663	1.4142482245024866	2.118427032844235	-0.3252375415696775	0.5995404109123008
484	2.037091726881984	1.8654719544042109	4.067132462723421	2.8892035411368586	4.529241073617256	6.258223517829876	4.029965867358273	2.712373011416687	1.3343428339647874	4.572425353903734	4.461922157466419	5.219695554906252	2.8586518692321827	3.1976747432083856	3.6197256950541865	4.235942829881444	3.145938150092548	3.8575463197589226	2.3524146020624332	3.4423363121860113	3.9845373529923784	1.7149828629109902	1.837907667288135	0.7903681973529618	2.4992015298687114	3.3508071814814313	1.8348643733428767	1.8984790992488543	0.9581888293869886	3.090797416512893	1.1405709953121685	1.9487639616402077	-0.5026279675191333	0.4175979782528411
488	1.6490594107001117	1.99306308719975	3.541699877380089	2.6187529497786652	4.156408776279759	5.8668675274544295	3.724478473796669	2.2684090080209867	0.9707608794498518	4.062249650235749	3.9223287006531025	4.8119635460479815	2.4195241867013473	2.9221961424482137	3.189578048282539	3.8341777227872833	2.8186323571567087	3.5070841223863085	2.1611056273257154	3.055771104726936	3.6162059215797964	1.407403346323052	1.5004317722585268	0.5849574789537274	2.192837948031121	3.019129268653066	1.5902659852885532	1.5828953941435269	0.6863341314153663	2.8094532418844738	0.9095899439734951	1.7660835936779695	-0.6589174253993817	0.20833636767716437
492	1.4305331670883241	2.1081006473722597	3.056190959843674	2.4110710560006434	3.968579759114821	5.5799240925099465	3.4519321831334637	1.8533574295934885	0.6812517029728453	3.777415504455252	3.5051031024175554	4.498545158472588	2.1530706828116997	2.7819909979199955	2.980795852764741	3.6188790706819343	2.6302704744688246	3.2502384103730386	2.095594639255641	2.875346653354461	3.425599566393917	1.220627304810058	1.270457145344345	0.5362480269244547	2.060399288697528	2.8458979057939247	1.4607266150788045	1.3713020051666405	0.5659927115455541	2.647091858856286	0.7952362278887669	1.6605584579504373	-0.7275598030794699	0.05803102240216129
496	1.4549943171959383	2.169279569870996	2.761750929535428	2.2857267798888845	3.982599725204912	5.430853829977377	3.2414746202645497	1.5582206209895773	0.555314658670292	3.774044504173846	3.3095290577300576	4.3351259122115975	2.1016316360818297	2.8230783868085694	3.044692270221216	3.6439421084909704	2.6142649584569884	3.1583800236115502	2.159902328760028	2.948969833557985	3.47096323090646	1.1964877813648398	1.2168296544824269	0.6432468874903376	2.139452690444959	2.881154053089555	1.486011143747267	1.3263908591160898	0.6327621324775939	2.6404125623796197	0.8084799030872635	1.6763886170977869	-0.6940802914261741	0.014345861003835935
500	1.7219482616818564	2.1933185998853766	2.6952922276158175	2.287938827460204	4.136225689935452	5.404748902980297	3.1004669588011016	1.4262307846300095	0.6568183882342711	3.984948148203133	3.3466803943061816	4.316110600064782	2.2166366521183742	3.0221664829245727	3.3107347404815304	3.86046265581113	2.7337818076730596	3.2377092756543053	2.3163824022937867	3.2106943049430927	3.7044236566475957	1.3085160222395276	1.3314615454436196	0.8377568104573466	2.3705120026820246	3.081519119112002	1.6364182192494836	1.4355211221691146	0.8334034660278775	2.7484624316441733	0.8982453323573927	1.7914878084728387	-0.5995894655348272	0.06893154961348592
504	2.151584142974755	2.225023025617098	2.784609549167657	2.4568438467938916	4.327772129576355	5.4565982680837655	3.0223543567644304	1.4491451942096072	0.9827142333015083	4.270042408652773	3.54651927052588	4.392137516376739	2.39308833471731	3.3032326614904615	3.637523880357761	4.155796517370171	2.910221569343071	3.4299490365214855	2.5060663159994507	3.5281507879825345	4.009912003883514	1.4834564886786437	1.5407166442118712	1.0223623488363247	2.637353890436048	3.345631590979362	1.8363912059195882	1.6231490332630876	1.0637571784818738	2.886743299825321	0.9868799423096982	1.9377607058238722	-0.5107275234679222	0.1718710954618344
508	2.6093096667214524	2.2884097041527407	2.90760611753693	2.771750204717702	4.4665932542563835	5.534463391635954	2.9936203881022356	1.5773310621492136	1.4389898740677054	4.496117580506304	3.796930780361181	4.500686634144671	2.524585717502987	3.571749439758445	3.893910398188841	4.417083729082311	3.06497906864717	3.642570247990284	2.6758732728156027	3.778207530973028	4.270585526174595	1.6419290262729238	1.7459098056582245	1.1215532989795685	2.8343412804568913	3.5736715703383086	2.007913822826623	1.7924790337129508	1.2300238578258849	2.9805056973547073	1.0177003119523433	2.045921320518139	-0.47695883988122867	0.266271083874773
512	2.951817505059584	2.3541386068035637	2.970980636725069	3.1291952054174126	4.5084214096683555	5.596807465727818	2.996591322008919	1.7420822337989919	1.8609200669034962	4.59885023863316	3.992943753651696	4.592997062530994	2.5510156090225617	3.7529494667667787	4.02159213004421	4.582301605099501	3.1527604977163146	3.7916784190768347	2.79737543353484	3.906004895838969	4.42534207180438	1.7356038049747111	1.8696674061300684	1.1168744535858026	2.9200248644538176	3.715547552264652	2.1083972400839133	1.8728542280595835	1.2964056697539288	3.0042490883317483	0.9866512392882725	2.084789747696617	-0.5020840155322864	0.32091599621811584
516	3.077088825086322	2.3453421533498204	2.9585356637645464	3.3777432356431607	4.4616041070827	5.6182370044005205	3.0075492782953397	1.8766491365735618	2.078545565125712	4.596856582479746	4.072303284853921	4.643898952203505	2.4766650137360355	3.815837135217622	4.048040856631486	4.652650821383069	3.1697032371602325	3.8359253309676853	2.8685553001459	3.9367413421419823	4.483753669862471	1.760923381174213	1.8859922838278047	1.0474318239469806	2.927096359492116	3.781809082019843	2.143059963537658	1.8492135954898758	1.2924770084174122	2.984848253343499	0.9399726963153041	2.0709736294911427	-0.546834050228416	0.3422400942744766
520	2.9589347764649547	2.1862258855935917	2.9194352553091885	3.3947536859633725	4.366550434532161	5.585471615994475	2.99476694304624	1.9296860646165364	1.995554561345071	4.556038368166298	4.023123730992491	4.643007743557074	2.3499681890284485	3.7720727825296545	4.046652306830304	4.664093005802422	3.1350572030069825	3.782187452303922	2.8979968951490815	3.937051286294032	4.494751442051502	1.742961402307209	1.8177936031223043	0.9756448244257717	2.9245138094498087	3.814217080976717	2.1460208838640447	1.757332320544852	1.2780467239537232	2.9684348031438503	0.9384865141062269	2.0446312375898774	-0.5614272937905096	0.358901201772542
524	2.6496064596037217	1.8593825054907522	2.9162833617014234	3.158714286458607	4.262779701914518	5.490573869194274	2.9230306074729624	1.87381934646535	1.6382359224919647	4.531151283268195	3.867242326509345	4.579965579867363	2.222694629779471	3.6553378012875166	4.073197354523294	4.642157542906144	3.0626892966192596	3.6638052371029306	2.8831410335227705	3.9549085994050746	4.4946927910811905	1.7030138926424419	1.7091546015502779	0.9406475997063919	2.9587185308142554	3.8394296072344725	2.1450457518779813	1.6516454178118076	1.2912938562216079	2.9756073876594327	1.0111567948561322	2.029833311678142	-0.5268110619595723	0.39110952516992253
528	2.256537670160334	1.439562317074683	2.970628254066047	2.77011846796645	4.168110836949676	5.332403646357531	2.769964211146161	1.7108162598331311	1.1467558116570271	4.527339447035143	3.639026155820887	4.441716659775734	2.118743414297904	3.498038044680876	4.123778332789144	4.576015937695938	2.9463593885419925	3.5141630084005406	2.8044044900661658	3.9814479250521804	4.474453437952358	1.6363282162361001	1.5965236385091433	0.9326965189273637	3.016496889127852	3.8413808248809134	2.137179846136122	1.5707278211990885	1.318253633031898	2.9794931336518196	1.130443927771819	2.0112769552949388	-0.47410899281010044	0.4295683790328605
