time	FP1	FPZ	FP2	F7	F3	FZ	F4	F8	FT7	FC3	FCZ	FC4	FT8	T7	C3	CZ	C4	T8	TP7	CP3	CPZ	CP4	TP8	P7	P3	PZ	P4	P8	PO3	POZ	PO4	O1	OZ	O2
-200	0.9767320131437299	0.8623125531359804	1.1083294125230874	0.12298393218461261	0.3327160767261195	1.4490689002644874	1.463333841443987	0.525252877339788	-0.01773500065498196	0.25424781377497135	1.0870323153707415	1.0897428961897038	0.4815407383205119	0.20721323735849734	0.3490723362692508	1.1182903023142228	0.86465567132083	-0.14851446412260325	0.19055022251180398	0.4205413450113858	0.934861240410851	0.7804716805780214	-0.061721436523531605	-0.13801263237917458	0.1985270673984713	0.6499739272873488	0.7785662392986524	0.19707521746469792	0.08897934831565484	-0.08507855960108092	0.272069751529429	-1.1163365812727075	-0.32397076405746444	-0.6456773860842073
-196	1.1788084477226473	1.0546178791122482	1.096905824752857	0.04784103843411983	0.25115194853315387	1.2106571166943612	1.3818743194023382	0.7375991921875763	0.02056612069182706	0.09541335677852887	0.755128977776405	1.0272431347660795	0.5394229875296894	0.159322768047532	0.09009665973089039	0.7674258331950349	0.7182812076553559	-0.2593514018663341	-0.06019338577689556	0.1185139414656126	0.5707904086007018	0.596378026887082	-0.23195110202878252	-0.4315701116156209	-0.1601869608887873	0.3051678828640924	0.5008883463611109	-0.005784367662220207	-0.21037398225598902	-0.34524542006110887	-0.0028126584294951135	-1.401333328523741	-0.5851675257213855	-0.907995042892622
-192	1.2358417479784323	1.0449861261687314	1.0141859028959697	-0.20193797298945373	0.043348245213260514	0.8871501661790454	1.0748350593132798	0.6704485995531602	0.03681068858151187	-0.13683660293840294	0.36884614732124016	0.7892144302469576	0.45819446328828434	0.1401061114111739	-0.2141562843876292	0.4090508510275639	0.4741426992366358	-0.44992449766051285	-0.38074955248070114	-0.17613372162218438	0.19343633900918641	0.31326302806917905	-0.4926704751927416	-0.733811734254176	-0.4721299397946198	-0.02964787922764798	0.1566314544299449	-0.2728016369607782	-0.4597950566127192	-0.5628250227069637	-0.30422204656086216	-1.639933939608039	-0.8380389788450009	-1.1247040004944409
-188	1.1216548652940093	0.8359202721471641	0.8769660569937898	-0.44371759779482084	-0.1612619157534363	0.5886120781342586	0.6535378081987611	0.33544805561250196	0.06419114007240331	-0.3277872196504747	0.05990380033627575	0.44926553851186224	0.3062560848610093	0.16501866239369356	-0.43735349067893065	0.14543276988504533	0.19504718433249674	-0.6227266772760329	-0.6225453599470839	-0.36041507033904757	-0.10698645534922034	-0.002071670251324616	-0.7334122043212553	-0.9218717790216796	-0.636088012043019	-0.2846272580590037	-0.17083473460458007	-0.5130412565629717	-0.5848826155200785	-0.6740481836467027	-0.5473499284276446	-1.7368757680910065	-0.9998887752083726	-1.2220044105194718
-184	0.890857157842202	0.5388402329191918	0.7258368116172979	-0.49947216980714554	-0.22903098108164158	0.42248037350800083	0.2909221939848066	-0.10843151780408708	0.15841874440250608	-0.3697710325918848	-0.0664416624418281	0.13372737135502832	0.18168568565273793	0.23539663791829202	-0.4845103013203692	0.04014860828515108	-0.029250165373743166	-0.6812222582784007	-0.6676887852977379	-0.3784861555080374	-0.26747846535861736	-0.262362509303495	-0.8470794537138385	-0.9206066108348714	-0.6094996317733867	-0.4184640635415633	-0.4010453512079931	-0.6465095861324602	-0.5572291002509991	-0.6547144038836566	-0.672931192606432	-1.6494239527066374	-1.0199141476630014	-1.175542232406492
-180	0.6485062225181052	0.3081116370528271	0.6042820199968565	-0.30743527334794607	-0.1039950845000109	0.43204215059872786	0.12283351241332109	-0.4356810737577228	0.3444905570392568	-0.22875291051330526	0.007942698875877856	-0.05116565885142712	0.14621460400859018	0.3290380827225729	-0.3485868266364586	0.08171079287164579	-0.13310478594076003	-0.5905365332952629	-0.4990481721676063	-0.255873858282661	-0.28467410730967885	-0.40691795842430634	-0.7884540537954777	-0.7475056629381691	-0.43442851195325277	-0.44045030959506215	-0.49578183764216155	-0.6455643756779985	-0.413439302592717	-0.5362042175106554	-0.6754977089993357	-1.415251013043656	-0.9074680782294933	-1.0255441639756913
-176	0.4908705937390034	0.25017073687333874	0.5421856032034091	0.04040407379201341	0.1553416397225843	0.5685288295696991	0.1725115771706513	-0.47502559303514225	0.5808679446813682	0.028978975416570723	0.19859898040221127	-0.07862959037240604	0.18827058327347992	0.4060030271293141	-0.11887609183577294	0.18547336710355553	-0.11419886321799272	-0.402142046866769	-0.21242673641454837	-0.09000445879623624	-0.21854652409212108	-0.4337706256882054	-0.5986504539634064	-0.5060465919115946	-0.21982787493994493	-0.4074649502480291	-0.4763197588815604	-0.5472097979081314	-0.23961251913609488	-0.3927575637914788	-0.6027206167262625	-1.1375645370372884	-0.7283292990415774	-0.856260893567214
-172	0.4526615131393661	0.3604629626710037	0.5493391142327115	0.3489078870547307	0.40308681028639604	0.7124783378732538	0.34094673309076085	-0.20060951957121503	0.7635474781785817	0.2645706229682691	0.3572799256364223	-0.01288582195068462	0.23498204291144234	0.4234405447282634	0.062028989039215526	0.2338516557272922	-0.03743449216570466	-0.22805142345071477	0.036217309443109795	-0.0025514159287170234	-0.1648475523601366	-0.3988731195392831	-0.3822863092307427	-0.33107903516149656	-0.0895835531476369	-0.3969686915388728	-0.4100033034463475	-0.4307405043694092	-0.1295798268622879	-0.30611595434149613	-0.5272617922822258	-0.9345368123301576	-0.5716145024172857	-0.7514628152948164
-168	0.4915799486146844	0.5252760039419025	0.6127910002495739	0.42895024906577794	0.4829052078452652	0.7333528380952089	0.4629972863428698	0.2478638136089376	0.7736274580496776	0.3351827851415988	0.34438639792277476	0.02910501316292037	0.20051369020381934	0.3520664861850159	0.07000584137646346	0.1343377676194708	-0.003082125207078225	-0.1799618001208965	0.1171071302914339	-0.07854849825339386	-0.21018382853847442	-0.38472774527690107	-0.2523792975729476	-0.31746292034106127	-0.12376404522404393	-0.46978431821469596	-0.3754604747352657	-0.3755868067795482	-0.14025305176133546	-0.32659089482820824	-0.5087424503833344	-0.8811006523774855	-0.5064260350792769	-0.7524682860449939
-164	0.5169529901804149	0.5870562180956148	0.7004784327941451	0.20431828447254924	0.31428188006207486	0.5567991719493197	0.398391901440904	0.6317531450533836	0.5455530272061376	0.1688036020308584	0.09871599798313072	-0.05455672354633001	0.042474660915186487	0.1896490449885589	-0.1363152709141912	-0.1336629387341888	-0.09374010539229627	-0.30574732941681343	-0.0032007475302768622	-0.32296559133051006	-0.3909173299933295	-0.45498502139613406	-0.27290195157768193	-0.4711414861704827	-0.32215675630295015	-0.6409648044615839	-0.42389631164338776	-0.421870319970265	-0.2675700180927612	-0.450992791706125	-0.5663434848791716	-0.9742671822745563	-0.5517346249001863	-0.8419514873228242
-160	0.4460778821173224	0.4346832324020573	0.7702665309532132	-0.24903371867247406	-0.06364988519572573	0.20268669673290945	0.10906822951913145	0.7401818614391733	0.11300253839572628	-0.19916848788044106	-0.3322684458449865	-0.2904519729433608	-0.2068068975949282	-0.036326877681091524	-0.4953953611264137	-0.5082881437820034	-0.32783350265702593	-0.5600982890293081	-0.24894882675736704	-0.6590166671326821	-0.676960705001654	-0.6202313288288113	-0.4297435272810908	-0.7105405908764981	-0.6092016681549068	-0.87432819384127	-0.5572092519043391	-0.5545254335708136	-0.45590954903891096	-0.6294816120467286	-0.6766871792874702	-1.1409134836001833	-0.6751983744740294	-0.9622869467281738
-156	0.25668632919354306	0.07023683172612669	0.7811247686691765	-0.747332630654823	-0.5126268254688947	-0.22623145523173796	-0.3234467796265669	0.4967689799641169	-0.3948575844332257	-0.6443530304852866	-0.8162603357687306	-0.6148138626788539	-0.45726403478568955	-0.27725452114677085	-0.8746435620159805	-0.875383970911511	-0.6475589259010817	-0.8278955796320241	-0.48517936345628376	-0.9668270325092527	-0.9870298479909299	-0.8343204834854318	-0.6451342685623852	-0.9153210497634688	-0.8747763015595601	-1.1018556328610873	-0.7334557753164761	-0.7180551868429382	-0.6331062896956582	-0.7959092239312268	-0.7956396917282329	-1.2814959255288771	-0.8182918408714812	-1.0551485988679883
-152	0.0033716354434003186	-0.3840160360177574	0.7084059697385464	-1.0969920130689845	-0.8658074118689171	-0.5951452836269497	-0.7418693881377936	0.00022237357860166497	-0.8051139692006506	-1.0130847666911693	-1.1973953216838986	-0.9052385068926541	-0.6086968168149339	-0.4752916979710701	-1.1330151529316481	-1.120173093828634	-0.9425470805212983	-0.9820802186966333	-0.5960419759006867	-1.1383126945366202	-1.2237981526948136	-1.0176757548387578	-0.8203390219957681	-0.990523991468131	-1.0250108216155878	-1.2538158861929396	-0.8902729727202333	-0.8467320778449646	-0.7468104939679088	-0.900388596168815	-0.8847847558571061	-1.3206264939344154	-0.9276003218119344	-1.0931994887407912
-148	-0.20606546051927788	-0.7402633409883755	0.5569642172102861	-1.1839531630188012	-1.0051913236034933	-0.79688358105691	-0.9898932551187102	-0.5234777914182138	-0.9738614534585945	-1.1887756556061129	-1.3609350885363203	-1.039195415734133	-0.599475859082172	-0.5750754461074308	-1.1805337637659599	-1.172258612534106	-1.0966719361273487	-0.9434981918355779	-0.5434441552746639	-1.1194190950741292	-1.3103164401350673	-1.0929917069496287	-0.8814683534301765	-0.9098172164834499	-1.0165913079344524	-1.2831281391172855	-0.9713607405933568	-0.8920894838698219	-0.7812088112180976	-0.9250840521344496	-0.925340292501692	-1.2365550963653031	-0.9736188029503267	-1.0848661633757835
-144	-0.2659495764216663	-0.8354017117389274	0.3630025973691816	-1.0167822812158305	-0.9096396542471124	-0.792680559541185	-0.9832341646165714	-0.8366000035144665	-0.8519690611309978	-1.1350058288528306	-1.2734975782666613	-0.9509441232514101	-0.4355797756641828	-0.54016893965717	-1.0088825200358242	-1.0260109875523935	-1.038357016802839	-0.7155451160484942	-0.37722065949568373	-0.9232892370755045	-1.214095827852061	-1.0174381707252829	-0.8072934130313602	-0.7180406433096497	-0.8623328187151529	-1.175447818649406	-0.9448857879624457	-0.8367696383330689	-0.7492746691859916	-0.8785164930097727	-0.9146608091149588	-1.0577892038341608	-0.9501982903332187	-1.052699920857508
-140	-0.12688328293713494	-0.6059349163969497	0.1823269571230961	-0.6998268348191057	-0.6486525519206593	-0.6154786332803553	-0.7386558037228419	-0.8070416430124645	-0.5025660382933681	-0.8952559806155199	-0.9829983090377906	-0.6576225144949057	-0.18161275937003937	-0.36694538500647433	-0.6808592063879904	-0.7305397968921366	-0.7694193105345148	-0.3746718456822336	-0.1930435444011083	-0.6116168483551079	-0.9510856246777496	-0.7958361486369165	-0.6259255989484068	-0.4953919636616701	-0.6107367261725766	-0.9443427300452681	-0.8067066649096726	-0.6899826509221458	-0.6700123531591504	-0.7760089616256656	-0.8515029528100311	-0.8340916016500721	-0.8604276754590071	-1.0026317809540106
-136	0.1780884112391746	-0.11529821873403502	0.06448405219725124	-0.3631959250340225	-0.3340609363227912	-0.3426612010887516	-0.35486218243650236	-0.46917942047872013	-0.06635019166407062	-0.5593195543472838	-0.5872384294942332	-0.2473875426960623	0.0742303503665758	-0.09257856733074904	-0.29403635785252397	-0.3622324755583055	-0.36303099898234537	-0.027837308053425325	-0.07062585634043228	-0.2620714896261139	-0.5743127450748104	-0.4736647295913887	-0.39025100967106774	-0.31012344282052917	-0.3185316316191858	-0.6204841121266655	-0.5729897007780715	-0.47428795575558674	-0.5507476315898425	-0.6231890305043882	-0.7251195889285263	-0.6047905072201516	-0.7043358069756903	-0.908754286855854
-132	0.544567285593331	0.47368287920567703	0.03162763632299328	-0.09516784524731889	-0.06170970558441136	-0.05792931080139918	0.03980523337804759	0.00561663646695544	0.3073641948092309	-0.21875278596484557	-0.19104832362577312	0.1626233454413137	0.26248416238317435	0.211163937512364	0.06113687142195344	0.0037303028999710287	0.06859014165965506	0.23861528872803678	-0.030682809573431332	0.06101712569090201	-0.15485554894450707	-0.11599132389347513	-0.1487756814776719	-0.18764518153975313	-0.030903795656023306	-0.24206736622729386	-0.26941716602968696	-0.21426477974200767	-0.3862285306239115	-0.4137535978838241	-0.5182421790390069	-0.38335752390394146	-0.47826114176163814	-0.7256019097128311
-128	0.8371502735936436	0.9646974181614496	0.06890268606432633	0.08516100772575833	0.12252023785175317	0.1752603198633345	0.34049293312890916	0.4040637900164428	0.5225495086828256	0.06220256521494382	0.12526980010829997	0.4720332610610382	0.355617194469966	0.456582187453503	0.32579323567151547	0.3080092958780062	0.4167495955435726	0.38884392282540764	-0.03719419976618965	0.3178387276254213	0.23434553981265416	0.2127356523864781	0.06922933441803195	-0.11319835455448025	0.22073459569514012	0.1468634601699769	0.07255531829158503	0.06455101801548732	-0.17619803503373466	-0.14526769482175667	-0.22742973210611586	-0.16722871320941804	-0.1897187228181254	-0.4247444261317555
-124	0.9404755210973599	1.1995326250308584	0.1327825632319178	0.20389948733825353	0.22029457930735794	0.3214003137580155	0.49705710881623366	0.5788781628298549	0.5593575225059099	0.2518769496280489	0.3184514037675207	0.628673194251681	0.36600857880690474	0.5675086364722993	0.47536355137016545	0.5092015849608801	0.6128723605894869	0.43675345072149174	-0.03571348628325664	0.48874771471604284	0.53056394919909	0.46233785035706215	0.2502715283273994	-0.057407736633318676	0.4113733162030509	0.495899676024585	0.41384291544379453	0.32983881151846384	0.05545321092910116	0.16111476678701855	0.11517965019471493	0.04086903844886142	0.12672227589084192	-0.02994170777390702
-120	0.8017501214765995	1.1079816790263457	0.1780619020734777	0.2903643839180845	0.2540603273653037	0.36718100216667654	0.5139677511590212	0.5131368028083054	0.4621524501099564	0.3413852444612663	0.3798625757640379	0.6347475035854049	0.32560187495994725	0.5097658621315441	0.5101560937399032	0.582968352753305	0.6458398087408102	0.42135974658440806	0.002447989763099377	0.5660788998616817	0.6915010792439652	0.603506325151708	0.3850261559302156	-0.004179925647255483	0.5181480633051442	0.7534881811191706	0.7076448184266865	0.5405783639610986	0.25791743332594813	0.4546974587881412	0.4384930718795142	0.219343721312818	0.40886908666378025	0.376010476593542
-116	0.4475999463224639	0.7216559034247286	0.1842660750266781	0.34469357045884924	0.2390348458215515	0.31383654395975985	0.4298331726666066	0.3097947828100675	0.2994530491421013	0.33362594162631865	0.32762059486642575	0.5321722017203592	0.260661184129644	0.30625098866389383	0.4449658382625556	0.52566492424808	0.5553600774094961	0.3762735714949163	0.059419505148117835	0.5508224950234915	0.7042412144046706	0.6291413887352096	0.4596484291869419	0.03799254065100532	0.5253572450725262	0.8801909066865756	0.9058829523103386	0.6544719321893225	0.3728786101463711	0.6700209958326211	0.6540855152782192	0.33319365894117653	0.5863969311214188	0.6805263740524049
-112	-0.026698063991612956	0.15642218252266687	0.16454718965471057	0.3417328289463964	0.1756363357639507	0.17723767414644337	0.2934787265997357	0.1172916364688703	0.12747003105882249	0.24257504878788647	0.2004812652771434	0.38005775117286217	0.1815910334770736	0.029555432423834755	0.30714273375212703	0.36274376419989796	0.40909334913918144	0.3148369185128219	0.08903592802456502	0.45801547054047576	0.5913854226440108	0.5545266852683507	0.4591154146523837	0.04955809178357116	0.4378233242901865	0.8662124254291432	0.9736524795745397	0.6442141516633105	0.3676069369571661	0.7569239716492839	0.6958860141350856	0.3569973102139333	0.6139669998880232	0.7939944247226517
-108	-0.48718795057317604	-0.4254452277409328	0.1503091152687756	0.26524352960376196	0.06434003247467633	-0.007501429393574683	0.14582629465002012	0.03483916437770538	-0.02292982296816882	0.10014111523378985	0.051549572367456116	0.23158478678407904	0.08752035327510703	-0.22620540800203687	0.13954924011760458	0.152066856238764	0.27268254688081767	0.2351442271494667	0.05773733541693323	0.3233475974979111	0.4086782921963359	0.4150395680916064	0.38038554691597687	0.024517610607235032	0.2908515922832484	0.7424394469589861	0.9055275894190848	0.5148766623849064	0.2605661445237896	0.7094178181856988	0.5578814730864188	0.29932153149373647	0.4999674844039785	0.6981707197682027
-104	-0.8032764176115094	-0.8615251757804855	0.16215833980627253	0.1391945626797641	-0.07210833561096229	-0.18580678058442607	0.013832442427520745	0.05899051934488154	-0.13775563205271316	-0.04008049135221568	-0.061522330933452406	0.11982639848735009	-0.02017677011462118	-0.3825390925285969	-0.00011548771697508172	-0.027756079961317594	0.18652127636070595	0.13761252130096877	-0.02287324698454892	0.20074561187605486	0.2296570533676204	0.25900810891561693	0.24456655917409373	-0.014682416767065307	0.14464992248254185	0.5739815220646299	0.7329825144381543	0.3095504931740723	0.11993513226030707	0.5731853828263751	0.3052651874464426	0.20860810525200932	0.31030169051027995	0.45995059493286783
-100	-0.891458449497178	-1.0356737349111151	0.18956658196272033	0.02626582042201888	-0.18205107702544976	-0.2967977516310288	-0.08896467812249653	0.0962091234877548	-0.20639152772769842	-0.11385923595292002	-0.09305418259253347	0.05312602953610816	-0.1272326257592815	-0.4068971266010099	-0.05220312611989732	-0.10600227090775452	0.15612941940943048	0.038563471190125535	-0.09639713888864347	0.14576248787794915	0.1194557544553307	0.13384810056271607	0.09644204353778776	-0.024677563396376247	0.061313729578426394	0.43524935731670467	0.5153950439792091	0.09636402105797376	0.031977180310815444	0.4249251772165805	0.04884136828369843	0.15342596134550107	0.14136618340086668	0.20038714954328068
-96	-0.7427814584098439	-0.9121397114612593	0.19327864002067008	-0.006847846770133744	-0.2035042042362623	-0.2977668635479851	-0.1590324636258864	0.033952772531617575	-0.21590763275948158	-0.07277931999666598	-0.02721196964963344	0.01959983999549044	-0.20869308657408328	-0.3213914624682887	0.020490813948633786	-0.05286831022862095	0.15906426270379379	-0.03182948372672522	-0.0962984112454029	0.19024509143480794	0.10910743447413349	0.0704496203074376	-0.01021258902951545	0.033304326152162674	0.07557430099241695	0.3783667674048537	0.3183022729466692	-0.0573673544865853	0.0564641131525201	0.33526816879502397	-0.10424019369986966	0.18840074491617956	0.0760680882202314	0.03689724570137809
-92	-0.4254675794826671	-0.5482113943564083	0.12956376341056147	0.06412062032723148	-0.09814476942078738	-0.1864989544212939	-0.19950777241880716	-0.17628994539574624	-0.15942199487967132	0.08830904193278374	0.11340634496189886	-0.001940018376094039	-0.24073105989712584	-0.18506678892140788	0.21050263888141188	0.10221896294773629	0.16296289820058063	-0.04442958522546493	0.009070930048273201	0.3230836979338343	0.1831319923545612	0.0726047230913985	-0.03550758203839992	0.16682474273047274	0.17639815762806277	0.41039916769362383	0.18834067833555881	-0.11228671641610351	0.19411474417314592	0.334803371776239	-0.09898700540107899	0.3250011197467728	0.14490081333292923	0.028490904646704847
-88	-0.05723352343295095	-0.07646922747855699	-0.016093840781944434	0.19658975253538924	0.12196295677625206	-0.004660367488270658	-0.21487042253604133	-0.4775049972399266	-0.051578592378807867	0.3224779061281891	0.2775483720447716	-0.02761772454262718	-0.21383625214947694	-0.06252818538852967	0.4619439232607362	0.2819596819911384	0.14571812712118706	0.010455282378621755	0.19061261367356508	0.49096503729841157	0.28927045987528366	0.11789447039402598	0.028051681745754224	0.34327053937075197	0.312333046601419	0.49305969352214224	0.1375661786897729	-0.0714259145840712	0.3858715882095753	0.4021814753391884	0.0454485117241665	0.5251708017441395	0.31334721962971174	0.15323506256992867
-84	0.24098463295652134	0.34198576125586216	-0.21017810649259042	0.3030526034333215	0.3939693858213477	0.18313321424977602	-0.20197738656071193	-0.7283860426632603	0.06820181739992381	0.5495884404611775	0.41239270463774835	-0.05430620522497154	-0.13511355187158622	0.007448769155709867	0.6910317522721887	0.4013041247726321	0.11023731501880431	0.1165671047605517	0.37284666205685213	0.6221916659858797	0.36844989564377384	0.17318370894576404	0.15449543258284454	0.5073543774193097	0.419980614317077	0.5673021659833186	0.14692570232012644	0.02756325893595603	0.5465610013513894	0.4823185789328669	0.2536905103477285	0.723476110062284	0.5040311800628928	0.3303063801532239
-80	0.3899490823437203	0.5783213958444138	-0.38040351771633124	0.30878105681660944	0.6314511879237139	0.32249638356802285	-0.1462384607676013	-0.7794675807346703	0.1545197214755292	0.6931893808029657	0.4911613451954837	-0.05703685790801108	-0.022677311616505706	0.02921693019642935	0.8215818980454866	0.4137573827787578	0.08337874689508736	0.24061365364837592	0.47879576562160125	0.6611617190834432	0.3878538598758657	0.21479670649180146	0.29985195322625346	0.6127969011093918	0.45856165770149604	0.5877389892997931	0.18401667429240634	0.13567335869390332	0.6119285806464961	0.5216342793646102	0.4391192186712988	0.8626548030054166	0.6391228421287406	0.4701855766823108
-76	0.3780266931049463	0.5838286265891763	-0.45301222686833903	0.21040658599659884	0.765714583847854	0.3949022581143721	-0.03021570659995741	-0.5667403326030843	0.18473157240003743	0.7169855218904997	0.5246029482947981	-0.003245888735354504	0.10173661981168984	0.04086673249417249	0.8193198421773269	0.3365834644879617	0.09833920722213439	0.34911262900901724	0.47606900214162345	0.5956345781546756	0.35831487088336683	0.24037662087786385	0.4232921291631474	0.6478368623589675	0.4304988075354552	0.5468671904108275	0.22265313509516535	0.21670351867799675	0.571450470435278	0.49839180582099685	0.548629520938452	0.9214835739712376	0.6791335327168102	0.5228381143720994
-72	0.25339096720616605	0.40070789951244923	-0.3979383398976308	0.08719772823491358	0.7747108320703798	0.4188752759848305	0.14856967292468706	-0.1612227406007566	0.1745652104977189	0.638928113754751	0.5479984269611635	0.1225126382595635	0.21653447990584052	0.08606791474546796	0.7051500660259111	0.23852047263959972	0.17018963353580474	0.42229339373781255	0.39352509280031367	0.46061342838341907	0.3248365811252858	0.26508238844701854	0.5024921881386778	0.6371529682285321	0.3749437322686901	0.4748378682068961	0.25261348422167884	0.2598315768834323	0.4676983642690805	0.4305121589758512	0.5824003204900298	0.9185097790416119	0.6368870719088604	0.49755054586676095
-68	0.08975151903618987	0.1323928680653602	-0.25193047459892204	0.051601700354470884	0.6828976256295175	0.4271021772568605	0.3605579128698912	0.2570559077925398	0.16802291529672256	0.5131104575553812	0.5906574711192069	0.2973941855074679	0.2995705895013016	0.18427139474121088	0.538497744631177	0.19567979822822315	0.27928617526113303	0.45697173360844906	0.2980813376530261	0.31591495791783025	0.33523264442682754	0.30470833105403444	0.5354092703652931	0.6196601971240154	0.338346152643454	0.41587141051199156	0.2756107740596276	0.2756904356671688	0.36464154628243256	0.3584095826636758	0.5803015217434977	0.8920538402923363	0.5614956603178944	0.446792541806375
-64	-0.05342373610955811	-0.10994382174867127	-0.10382253650440237	0.17192028419481112	0.5376171456114888	0.43486624846337807	0.5388953076108252	0.4844078111339367	0.2054774308977309	0.3943259408054939	0.6482180936659884	0.4553600240177917	0.3235364846167274	0.315485715069564	0.3827450861804206	0.24197660325469128	0.37200328613773204	0.4577262092001111	0.24782697793855943	0.2115630055092889	0.40566360848049754	0.35629966765092114	0.5306410776092346	0.6176761373183863	0.3415019205531195	0.3966285576343208	0.29226872251152786	0.2806806259221326	0.3062472335712825	0.31554186264480066	0.5859898313986307	0.8714683629921672	0.504276810803392	0.42729931961895734
-60	-0.15458503326487694	-0.25893703037690174	-0.04778918611858646	0.4161101569160366	0.3815173199081145	0.4241260577460944	0.6001693591223828	0.4011571397189871	0.2887404255729567	0.31090930025758623	0.679555295182176	0.5109122978662594	0.25861957603962954	0.42753025781455656	0.27639400889232113	0.34654998691801414	0.3843849589656632	0.4261707652776294	0.25333633954936735	0.16374458331251393	0.5056900369274485	0.39233574172146835	0.49636363857834526	0.6192123278243039	0.36569663789926027	0.40740463034766866	0.29247054383822774	0.28210598159137024	0.2919541291971976	0.3066041461832964	0.6141056998960653	0.8592676498653172	0.4884388732499189	0.4641493547165022
-56	-0.22808213474385775	-0.3138353518668674	-0.13176237013451797	0.6499203427118311	0.2342629426763652	0.3531523636007924	0.48326095816670894	0.03822406744247018	0.3636220684407682	0.2562280886856668	0.6303856952963991	0.4010114361652015	0.08425526299661887	0.457753478325027	0.2199054652860854	0.4302781213387315	0.2754061811169526	0.355767994220867	0.27145457199225537	0.15073947570412857	0.570924340237174	0.37247413302794646	0.4340857554443373	0.5857870563976167	0.3647933295099699	0.40636113183422046	0.25572618777560285	0.2725696854862204	0.282587736131551	0.3058495215800228	0.640076516442739	0.8346300104049689	0.4991729842934508	0.5381253348115607
-52	-0.29941525979740913	-0.3210147611142593	-0.32785287416652903	0.7087836247668898	0.09963635330078385	0.19113178502940914	0.19156078945909688	-0.43045535574952365	0.34625181468327804	0.20862191862840113	0.47463503360123754	0.1285462674233309	-0.18739227903260966	0.3666215529722272	0.1893581594216282	0.4164820302938514	0.05665300772191699	0.24261788962621061	0.24091803966731415	0.13461327518808824	0.5406009541214114	0.2712114446468304	0.34564447315687263	0.4848717140830523	0.2997464530052674	0.34794640453228637	0.16600277977993416	0.23996604918452635	0.2344110155147746	0.2785190336824882	0.620880184990198	0.7771213035036556	0.5006315695520668	0.604306577110442
-48	-0.3797684302278529	-0.3326546541398335	-0.5485218749502594	0.49979126327214496	-0.016231199685482523	-0.050135440997859416	-0.1935334647776027	-0.775147316882968	0.17561019912728268	0.15919190605025804	0.24264647005330825	-0.22546820285615493	-0.4988003062529336	0.16006679792522352	0.16186167258881323	0.2815999083561825	-0.2045897091230099	0.09917364244456073	0.1320955600979712	0.09113147086738449	0.39606377382417757	0.10128737215457136	0.2434532934241121	0.3222741774528612	0.17064556436370176	0.21539375131584798	0.02864231534521326	0.18276679469694443	0.13618876005597486	0.20897145516564272	0.530237732979058	0.6914482695288275	0.46554791809798096	0.6261119826721488
-44	-0.45680618170800336	-0.3683512499569196	-0.6954040509786485	0.07080093008285678	-0.09260165667996062	-0.30879738848923666	-0.5363478050995568	-0.8210815170538606	-0.13723391259831139	0.12610234288325944	0.016875442074846227	-0.5282299505248681	-0.7556790690416482	-0.1097112816782478	0.13533660735293376	0.07541404645476232	-0.4095519770772477	-0.03879318376521962	-0.022311009410318217	0.029171667919417315	0.17834112003122304	-0.08060059676086234	0.15657001694249778	0.15228593311008284	0.02614083320753075	0.03823232641104102	-0.12118366330068434	0.12096556990600181	0.025520592863499437	0.1177862805134512	0.38585919044349326	0.6155959948256218	0.39887556332971275	0.603392718699053
-40	-0.5079532252838561	-0.40701097147224347	-0.713908432111739	-0.39733740587052246	-0.10013804559459166	-0.49939846866406684	-0.7053915840459313	-0.5353069887951167	-0.4962345349180877	0.14424708449184445	-0.10823558988662443	-0.6546165330571826	-0.8592181780102786	-0.36294841674721756	0.12983164158466695	-0.10432785723095173	-0.47274923205227254	-0.11975229501292017	-0.13865193689626015	-0.01274355963380356	-0.02804494269562132	-0.19536788712290104	0.12326882003417791	0.05613687247765851	-0.057748470309607225	-0.11771324992262454	-0.22856163920870393	0.09209269261950856	-0.028058541867821522	0.055207710573762045	0.2484206551001846	0.604957281015812	0.3394519678128575	0.575813351607887
-36	-0.5265529142437018	-0.4140665520704272	-0.625813542216512	-0.6807758790948047	-0.026365296848607556	-0.5623316750634033	-0.6428303702336988	-0.050222623966494205	-0.761732099517241	0.2328045511328442	-0.08328901955318514	-0.5544457421609501	-0.7538464050333663	-0.5245318995584052	0.16628949302174112	-0.17093774633165304	-0.36824816372404084	-0.10148645911819912	-0.13246126439506728	0.006143656078115974	-0.13895177806104572	-0.18353341473494877	0.1694218512072302	0.09686012541634799	-0.021160567125896947	-0.1851114178990708	-0.24633967814239535	0.13121235337508053	0.034443199547591286	0.07222729903105303	0.1894258106932775	0.6987454873563206	0.3370206645562854	0.5982074126399095
-32	-0.5339228497376373	-0.3757536401798533	-0.5126815425326604	-0.6328561290021675	0.10262560073452853	-0.5005773293254582	-0.3955038775948935	0.4096150089889386	-0.8190234878842518	0.3677148213639372	0.06147695317244141	-0.2800700359425951	-0.45842334512364397	-0.5534826503131008	0.24136847196674455	-0.10219060603805599	-0.1442076858217474	0.02362984599167571	0.024642610860239177	0.09682064478986457	-0.11540856183239687	-0.039468303223144166	0.28928410933890275	0.2780856185090982	0.14076651597245668	-0.1329395320635375	-0.16164353449064725	0.2481802248649289	0.21986786965648825	0.18749052238811265	0.24796377059797356	0.8897035695501316	0.41886675252064914	0.703824816357321
-28	-0.5670906290995449	-0.31651711384015335	-0.46760824204640766	-0.2651368372898834	0.222080617582382	-0.3827727427355265	-0.09635513996592465	0.6418152435310921	-0.6390302761156381	0.4802796530518605	0.2233821744047337	0.03460988766157511	-0.06840356422081796	-0.45597392205510584	0.3159052721630787	0.04148198281186161	0.09636687463033518	0.21705117766893267	0.2757256024074975	0.22340388539653833	0.01285033576671364	0.17802250340338063	0.43877023347702	0.5316766487049478	0.365905969411183	0.011823256470214474	-0.00883407143508213	0.41404080286394923	0.46680927158753316	0.36782720592137746	0.4003191282178833	1.1160061331229072	0.5651057944335356	0.8768085815226908
-24	-0.6520655734765259	-0.28684547471104177	-0.5424932823789629	0.25622576410452647	0.25514700944378266	-0.3081817917195507	0.09882325654113323	0.5637570009303187	-0.2974166862608138	0.48748880501692027	0.2775216691639797	0.23871578215887437	0.28112354803634027	-0.28020369935816647	0.3284956804564863	0.14822447262534194	0.24375082490891847	0.4078240682318941	0.5022559153273847	0.31494796196575814	0.16100913245558207	0.3703275015541029	0.5509011135497517	0.7468622307994432	0.5507338629169343	0.1738670612952274	0.14299699628012635	0.5691049084599988	0.6686076504992754	0.5370001779349763	0.5646368846942714	1.2842223611833095	0.71107262193442	1.0536662313561669
-20	-0.780168710169393	-0.3287467054173241	-0.7230727654321072	0.69527351680692	0.15283629259622689	-0.3533393135686584	0.08672478028097613	0.24892873999212844	0.058319888861755306	0.3385409108197659	0.14307109975455626	0.23902903436870057	0.47267535209525996	-0.09748149638598204	0.22802326025612948	0.1169977185156443	0.23399206936886732	0.5246320949660197	0.5870273694476164	0.3005150548977055	0.23141689540133184	0.4463164795097559	0.5669131264678519	0.8257665017260226	0.6002612694843944	0.2648293071259412	0.22206807080468846	0.6491172893347997	0.7237790804709123	0.6087228640446349	0.6389771683772772	1.3127355542418138	0.776694891876009	1.1534122199501577
-16	-0.9065642930030459	-0.4425551284107014	-0.9403567290406224	0.8633916952269143	-0.07663556914054394	-0.5313168154653473	-0.1343773153011794	-0.11255499692156021	0.27863484550699436	0.048891525592150285	-0.17100538270214116	0.04570948321007606	0.45986151579147594	0.026136562162214345	0.005884383790239508	-0.0849136708023067	0.07951326648187312	0.5313236103948344	0.4804599272995285	0.14856988154094325	0.1620843406399707	0.36826586630349445	0.4677662837616306	0.7352743130239819	0.475875138034981	0.22573333921660765	0.1891239280694135	0.6169069989841466	0.5874292239616775	0.5277680145290251	0.5532523379662703	1.173283693212365	0.7080414277320206	1.120501277001939
-12	-0.977764723216501	-0.5826818332265932	-1.1166182728232048	0.7071423512724985	-0.36829361226556734	-0.789023993407381	-0.4728388476354661	-0.3175643972485352	0.27862143446195375	-0.29970094485909626	-0.5681697115858341	-0.24043896733614148	0.28244608569359997	0.05219625295931401	-0.2908730201529911	-0.40258943932932356	-0.14196969532885498	0.4436294127230983	0.23102389217699754	-0.1111745682532086	-0.04381483782196484	0.16990190701503916	0.28822439836211655	0.5260496126244891	0.21563875620757864	0.05478359372493355	0.05640211687152962	0.4827027308674744	0.29590848013554755	0.2982662610629749	0.30720975917500776	0.9082779265360118	0.5092844354169087	0.9574738120700683
-8	-0.9705721115403246	-0.6886412483948624	-1.2111761539397548	0.3187355093061253	-0.6325613244298527	-1.0423370573430224	-0.8000292161769893	-0.25627374584344953	0.06489118172236165	-0.5964367374620375	-0.913698611336779	-0.48902153845344964	0.03730024760484822	-0.021098663977163694	-0.5754592404141705	-0.7233883720253961	-0.3329829267201052	0.3177230648125267	-0.03970103328337239	-0.39733511109170444	-0.32291585125457056	-0.06430403871990346	0.10194487844000925	0.3068177990319544	-0.0842261461277196	-0.19423118184642066	-0.12144046991205074	0.29932945891147156	-0.04929656522940853	-0.01669936995462426	-0.028317088189752905	0.6130156501551651	0.2453000837331701	0.7262669187329112
-4	-0.9134560204331557	-0.7279126625756493	-1.2279969422807704	-0.12540093032647476	-0.8001177886789019	-1.2232625453582142	-1.0153185103531321	0.039961125600773736	-0.2815763347192334	-0.7565064411136865	-1.1012238236280634	-0.6098212584357827	-0.17413820282362608	-0.1628826405465932	-0.7604681830279699	-0.9365354156690753	-0.42826986204738465	0.21878938321664523	-0.204437106331609	-0.6147876366352188	-0.5854149446012235	-0.24506433246251746	-0.01461843397502819	0.1868628854802124	-0.31704747596802574	-0.44000849016678006	-0.27784591843073914	0.13561645115944768	-0.330142616392117	-0.3233331135692672	-0.34680363448321544	0.39082980057269784	0.011835455864588562	0.5171062933263901
0	-0.8711422659814244	-0.7180369478216829	-1.1965043514560456	-0.45660358552092334	-0.8507688620068308	-1.311041590241574	-1.0888136597800016	0.42103084815536784	-0.6509470923201396	-0.7607125024662874	-1.1011117668961685	-0.597393093985044	-0.2971318654664737	-0.32515978731076434	-0.7989459017609317	-0.9890760754409028	-0.4284136880548645	0.18601980758431547	-0.20120486566288973	-0.7010335308495368	-0.759118435850439	-0.32559877551842675	-0.020754447154454878	0.21788951699558193	-0.41718864335587963	-0.6130673273820549	-0.36981153394790744	0.04255440447911403	-0.46806913496096975	-0.5393826351852784	-0.5590094313813004	0.30365338844881823	-0.11199101777411936	0.40168356794031423
4	-0.9020325518722144	-0.7110126000572827	-1.1385942668778282	-0.5880160316880096	-0.8122874477859023	-1.3304094042567007	-1.059774515337327	0.6973373872317019	-0.9520988440317284	-0.6590455157806806	-0.9661585068151398	-0.5251529799553967	-0.34368812951099403	-0.46204572799375554	-0.7064302545831648	-0.9081459618528123	-0.39664152164452676	0.21416760927010792	-0.06703966839076918	-0.6571075899699912	-0.8212245085963157	-0.3243803373730045	0.06775294227183425	0.36684346106416577	-0.3892883052534086	-0.6864683610750615	-0.39923122424418955	0.029804840608687082	-0.45929092052848175	-0.6301069243734884	-0.6354169829538318	0.3427167824198643	-0.10490798923708591	0.3952334513222303
8	-1.0152720187303248	-0.7488785963224591	-1.0454050276111553	-0.5323540554911098	-0.7327688317871741	-1.3226925101264038	-0.9974924300758731	0.7347920518443218	-1.1362876863401337	-0.5373400436186275	-0.7950489500953555	-0.4946302461056861	-0.37282800580308456	-0.5467542396092633	-0.5525283799526561	-0.7792031149264695	-0.42007812751568335	0.26139667564199304	0.08460258671142876	-0.546588538697206	-0.8023408035048323	-0.31009891550926605	0.18854106915078772	0.5347773419229799	-0.3009776763469617	-0.6828157884524475	-0.40720862047381967	0.06647421402837388	-0.3715131273426592	-0.6197578891365557	-0.6146967395521659	0.4354297209713396	-0.015014071910919425	0.4498412895766165
12	-1.1584650248843	-0.8225096443390733	-0.8875905848981789	-0.366805045870705	-0.6480405314296508	-1.3133954968671007	-0.9557860469528695	0.5142469393144442	-1.1915322512107254	-0.46794944883456296	-0.6777202469881091	-0.5730805382564799	-0.44531288630588406	-0.5770494327281183	-0.42639654767146856	-0.6952990275948194	-0.5571716413735808	0.27887824107332015	0.13116608526969042	-0.46175882103685356	-0.7627429346854347	-0.35732448010827944	0.26875352791643325	0.6123851522243229	-0.24310043392793268	-0.6551010592133384	-0.44409593827657745	0.10578110042329324	-0.30403986496456614	-0.5730707034901168	-0.573910473328237	0.4855671810765357	0.06691365672145157	0.48450890061122054
16	-1.2522376744125614	-0.8669336416291046	-0.6556374414103179	-0.18441401375463712	-0.5707424268617788	-1.3020020690470504	-0.9508095955684918	0.12920358744425434	-1.1290146083937138	-0.47732049106249025	-0.6572383625602982	-0.757288334841876	-0.5830070361676667	-0.5740093574336698	-0.39763939280251454	-0.710448918933065	-0.8023011664161568	0.24020579396636887	0.010346874568565069	-0.47753253458574335	-0.7585231642645701	-0.5004255162955985	0.2652913623310734	0.5390174375276616	-0.28192812133180956	-0.65591120554308	-0.5352492318944752	0.11669035226447484	-0.33506962572377846	-0.5594203458013445	-0.5802210554732541	0.42424946916279027	0.0570871977556871	0.43390098104600006
20	-1.2480130164108376	-0.8030965903986761	-0.401119260967328	-0.0593839435270185	-0.5067231046280873	-1.2814499107432267	-0.975352404039242	-0.2783373587256715	-0.9768201684131301	-0.5485110269049377	-0.728689430304401	-0.9861502026455555	-0.7598965744860171	-0.5763189778082402	-0.4934509384094601	-0.8240654447730724	-1.0904406281596828	0.15253500601880918	-0.24904389616554376	-0.6185091122270193	-0.8179091790529893	-0.7145215254863508	0.18521332694021822	0.3326770654862125	-0.4295665014865548	-0.7133774739374205	-0.6647125465776825	0.10191251311797793	-0.48493140813464414	-0.6194226726151852	-0.6526956541748558	0.24436476764971612	-0.07574482243010823	0.2875030331505437
24	-1.1709991663931818	-0.6018863305154478	-0.23939487277624705	-0.040273912149313786	-0.47865748284607146	-1.264293071415816	-1.0252822611672094	-0.590133546292954	-0.7857958654591408	-0.6471689327113008	-0.8627460577163374	-1.1822849482250395	-0.9209207869166893	-0.6257187708315584	-0.6945368033993562	-0.9950540636689128	-1.3306120600484255	0.04904996218814386	-0.5466223345307084	-0.8498958327770099	-0.9335678792271351	-0.9280173755103749	0.07964012006679606	0.07890584299908131	-0.6414728744523666	-0.8207403400680275	-0.7813394645991153	0.0952556652405931	-0.7090606075504617	-0.746587989829524	-0.7512713651762812	0.004304295860539491	-0.2903151504816243	0.10018933539129139
28	-1.115249750182617	-0.32617852009437087	-0.3032957009764242	-0.15647038777900726	-0.5362700210383213	-1.2955150571539436	-1.1179426880267702	-0.7596241812600814	-0.6302725060762564	-0.7536836247488957	-1.0369696590945499	-1.300264832074813	-1.0192090247170889	-0.7506749611021645	-0.9514477824984906	-1.1758536070700123	-1.4544060193534905	-0.03385040155447431	-0.7707455734820635	-1.0986599894441678	-1.074908611444747	-1.0628827783452266	0.01248555068499637	-0.11707172513252671	-0.8430612662010952	-0.9457176899874755	-0.8275270441143083	0.13708960975367449	-0.924704668571412	-0.8948292113600056	-0.8009927848619954	-0.20290104993614175	-0.4924074100936896	-0.03528923159868745
32	-1.185358878957635	-0.11520905763625675	-0.6654336435683547	-0.4192734648132472	-0.7356364708447228	-1.4343838655496715	-1.2821187940652072	-0.813310203883021	-0.5940485581658514	-0.8767766930378165	-1.2499836651714262	-1.3488900627412306	-1.0445709202142743	-0.9554268097597153	-1.2087156742096388	-1.341875907371061	-1.4508928023900094	-0.07722589354090899	-0.8609763362127794	-1.291439887600939	-1.209380981252942	-1.0783140632107462	0.02274141641179979	-0.18548381281752602	-0.968524095951013	-1.0512289974374547	-0.7736747245328651	0.2436392897176641	-1.0545493337709295	-1.0054055426962751	-0.7367132883545163	-0.29741108342421907	-0.5834783300927158	-0.0390959157552695
36	-1.4202408754730744	-0.11140827061420226	-1.275760289785912	-0.8079941848382152	-1.093913790801976	-1.7107658343037784	-1.5231978854822978	-0.808855948790202	-0.7382714729743005	-1.0369722816989133	-1.5078883133011023	-1.3731799091001926	-1.0241415474783782	-1.215698239118157	-1.420892115820246	-1.4962694607150806	-1.3663872445894494	-0.0844594312562009	-0.8347289541150461	-1.3858566249190172	-1.3169600930342482	-0.9904376243380695	0.10413192186290851	-0.12283117293101956	-0.9887133215737156	-1.1126277418655677	-0.6360361560021953	0.3914443244587806	-1.0617876026048885	-1.0359930965970154	-0.5411515818284562	-0.2501844757439248	-0.5108746277308565	0.11157135637247657
40	-1.751111979831797	-0.37403458262422645	-1.9609821985325775	-1.2510762183074007	-1.5538577994216127	-2.088938707799667	-1.7954595043627746	-0.7883320430879305	-1.0608501407542281	-1.2371692626235182	-1.7988495781304605	-1.4156053030513065	-0.9990455483008641	-1.483253356049762	-1.5589348038414728	-1.6534181791522415	-1.2746629682783674	-0.07111003231930095	-0.7660697679251737	-1.3824427092934812	-1.3930565083618378	-0.8603802301618857	0.2119708502901348	0.015286634637563386	-0.9167959666947121	-1.1245925398089922	-0.469478814608671	0.5260794745514462	-0.9605405306406641	-0.9781308745484318	-0.25699785286867516	-0.09188482142137921	-0.29329743907310907	0.3693432202550896
44	-2.026403183589268	-0.8331418612426189	-2.497102969540758	-1.6319420296474427	-1.9880671450965797	-2.4667844710058544	-2.0079100081293673	-0.756668446537777	-1.479626175005758	-1.4445071183927651	-2.078412289140331	-1.4846287928291262	-0.9953646634720532	-1.700293417452472	-1.6103315312736592	-1.815930004303462	-1.2361687390588445	-0.04963480296120341	-0.7332139592732329	-1.314901348608904	-1.4415056669080335	-0.7599178533441482	0.2903551153958453	0.15242533347269935	-0.7932504991530883	-1.0970312329251477	-0.3409073344206638	0.5893592819592764	-0.7998942116569139	-0.8563654997185307	0.03065306871840865	0.10939215096034549	-0.00981463303174185	0.6396647675576702
48	-2.095061773732694	-1.315530654446854	-2.7191810539257433	-1.8256242229145456	-2.2495880070156486	-2.7174410751398534	-2.0661890454578127	-0.6917927843747596	-1.854111189929415	-1.598218436974408	-2.2793655337959366	-1.5490674933423985	-1.0085868809984848	-1.8184637977464668	-1.5767297704942376	-1.9615379522390601	-1.2671312061742754	-0.019494911606563733	-0.7662366013254789	-1.2257609336423116	-1.4636098109486002	-0.7332172375286873	0.3047178677971744	0.2384334051549639	-0.6604542715563902	-1.0441796753269565	-0.2966817907949111	0.5503973350933821	-0.6327855571029316	-0.7115116101420824	0.23175470472474347	0.28777700589956207	0.24037802158701252	0.8273673632713582
52	-1.9057848405405287	-1.638251777327435	-2.605249398329604	-1.7651245549459547	-2.249796623271836	-2.7569341589940004	-1.9343351076879896	-0.5833039269025433	-2.0514709897698746	-1.6449886518908092	-2.3473024309022446	-1.5665937622571944	-1.0161404584025095	-1.8196967794251775	-1.4758131466798137	-2.0533382840766836	-1.3398535217789382	0.027121525189350584	-0.8292196968123663	-1.1454296083141229	-1.4552787505600884	-0.7803155164091041	0.2576030784301964	0.2755662791924151	-0.5441135750384463	-0.9778740977393877	-0.3446657350898094	0.4200676072959071	-0.4904651629462648	-0.5811870679486899	0.28640726136375944	0.4119079698653363	0.38346874617081156	0.8790306426743072
56	-1.5520687064085517	-1.7083829598209639	-2.281512254676747	-1.4892215691160535	-2.0112924525025413	-2.5916051799192283	-1.667852397522476	-0.4588057685235573	-2.014420504252456	-1.5733084638927681	-2.2744893970284625	-1.5180978736696127	-0.9996782516035575	-1.723484154164551	-1.339544650510492	-2.062218899288637	-1.4060000145700031	0.09201575792445897	-0.8466075041376985	-1.0821586819983418	-1.4110523426669885	-0.866041658122293	0.1827739174519771	0.30955544035957616	-0.4482503820069332	-0.9061549879084067	-0.4562235761091173	0.2437256270454033	-0.3745110323510356	-0.4863729464648974	0.18386942101786052	0.4932080494826136	0.3987799276774121	0.8001390079323883
60	-1.2342895238231106	-1.5728859861716669	-1.9459106873020136	-1.1415317029742327	-1.6634237724268457	-2.317316526284348	-1.394292112644912	-0.3764293184313212	-1.7982004835504954	-1.4251552784223978	-2.110339874661528	-1.4246518575938958	-0.9641807054971963	-1.5808918436191055	-1.2074747055085484	-1.987591500032473	-1.4277473652078454	0.1605827953337413	-0.7574586849162139	-1.0268783543409752	-1.3324693407749375	-0.9462628936718595	0.12222496389286198	0.3932192017640987	-0.3640655567990998	-0.8365107157568183	-0.5844283089187474	0.0771626753647037	-0.2679328017622707	-0.42867770682823053	-0.03938148160766742	0.5685132131528075	0.3175108126730174	0.6420447810175426
64	-1.157557365355952	-1.388518925975833	-1.7520040229432532	-0.9183070636452426	-1.3789693082326095	-2.0693061299531164	-1.2477931944814609	-0.3873898377174608	-1.5542423685887325	-1.2752227751006844	-1.9392238806401243	-1.3362061943650512	-0.9392554140218881	-1.4566302262723134	-1.1140441866404338	-1.862242336339855	-1.3983823025683622	0.20399142750258742	-0.5627779350377099	-0.9665000414288405	-1.2331165044168926	-0.9935885642715203	0.10293362263678887	0.5461547956982706	-0.28311479020164676	-0.7776594142353291	-0.6851959807262538	-0.036879081185928655	-0.15353403946736718	-0.3941836943210965	-0.3146970264118873	0.6717803461280143	0.20099210688390112	0.4734033036200639
68	-1.4196829759993852	-1.3272218670714502	-1.7312087968986491	-0.9743875836566986	-1.2826480833094764	-1.9503554056516927	-1.2942932811484222	-0.49623849862695524	-1.4563362561650233	-1.187366482597891	-1.8359818412203044	-1.299039002953457	-0.9600165462097666	-1.4055352175512181	-1.0732232305133333	-1.7365826324487412	-1.3408142294410024	0.19506211529597528	-0.33534175072881345	-0.894715843325929	-1.1345494956935822	-1.0061221097339559	0.1279937472688192	0.7364732604506118	-0.204347639760027	-0.7351644616639382	-0.7288641911224413	-0.07770977149655453	-0.024877108570709558	-0.35740035682088694	-0.5583173618525606	0.8148370960643772	0.11586832225871106	0.3568705013324939
72	-1.9605402896973283	-1.4815744124199677	-1.8038253738637475	-1.3454949821833961	-1.3894196713654046	-1.983917469737794	-1.497402068172243	-0.6503058059486203	-1.6156673390604805	-1.1796048849841252	-1.8283262206646818	-1.3280061449854246	-1.0451415750819133	-1.4558309279878934	-1.0721098157517401	-1.653911824819025	-1.2897351947646667	0.1255626377273421	-0.18717989278264996	-0.815436659184659	-1.055843350605736	-0.9979166363316685	0.18295724643768216	0.8953092075631699	-0.13198617067392332	-0.7032539230711037	-0.6999542695493137	-0.040821414337806124	0.11667755961762222	-0.2827639870657069	-0.6855340582705661	0.9894655917935266	0.12094034969074491	0.34374320420262744
76	-2.6050634318383743	-1.8280121041875086	-1.8721460056721504	-1.9328892182186788	-1.612497087222171	-2.1217448657826354	-1.7490799382872448	-0.7706861476513724	-2.0279619642554985	-1.223334547768921	-1.8906799507089749	-1.4038025105319722	-1.1867933243351778	-1.6049382646094195	-1.0814549895639	-1.632616515806018	-1.270773526798014	0.013492945547608163	-0.21165834313836643	-0.7397755365767653	-1.0031192277377532	-0.9800845359853022	0.251877724488429	0.9562808847125455	-0.06836391968156182	-0.6584925038878507	-0.5897621497522962	0.07607841472491265	0.2753607027731038	-0.1251199093282295	-0.6215073450609412	1.1890221804162815	0.26972114971727396	0.48501375195119345
80	-3.1745445648152457	-2.269596094123336	-1.9371544073787477	-2.5644447738751306	-1.8368180943843917	-2.2998487891305737	-1.9527498434355643	-0.8201678374564054	-2.5876173907752436	-1.2785958019400079	-1.9744055221299734	-1.5018980465162994	-1.3658003772584726	-1.8314881278527437	-1.08005821432176	-1.6668411451217697	-1.2938384977099342	-0.1099369374122171	-0.43394079694860954	-0.6814279539070012	-0.9674777364146228	-0.9498039460043803	0.3274196378070729	0.895972786071779	-0.009380974783160504	-0.5638713226387092	-0.3933700611196443	0.2788344912641655	0.47128066301568183	0.16306044120150928	-0.3154941491267784	1.4308119976158795	0.6155547484115413	0.8396326878329816
84	-3.595238199693648	-2.7228586604991	-2.148409122764875	-3.092396251500311	-2.0092096278007685	-2.502154582382008	-2.101471418797078	-0.8541274049175102	-3.153161517765351	-1.3409087624073774	-2.0534162469518527	-1.6279729563618703	-1.5765405853521983	-2.113294357686295	-1.078502413887761	-1.7422858432650306	-1.3601142133705462	-0.22461321893249414	-0.7980883697387132	-0.6542187316589559	-0.9331498122497361	-0.8946949220956657	0.40846767918455384	0.750871596824782	0.053279887750336485	-0.38510233066604627	-0.11576797783948505	0.568226455207517	0.7362886648662085	0.6141805633297143	0.24019698738012554	1.7599921182065936	1.2039488523604067	1.4624038897785492
88	-3.937585820747028	-3.1861534038209705	-2.733568184626724	-3.470031252683105	-2.184663290230105	-2.783565991049564	-2.293180459908518	-1.0079311106983215	-3.6220483688459297	-1.4638136588332176	-2.1511802619027764	-1.8274292899723663	-1.8359582377810328	-2.435917371321824	-1.1236456604244809	-1.8520770026176563	-1.4710007868820882	-0.3361259988404656	-1.19472551044186	-0.6704958660363477	-0.8890392757857871	-0.8059879521047855	0.49159765119413795	0.6022427662903047	0.12558002738241142	-0.11037313165216273	0.21960306112158096	0.925801274823221	1.0957473488799272	1.2241768806067603	0.9958447788845068	2.229030126665941	2.0488641210325595	2.371428960534934
92	-4.360027779061568	-3.738046875099082	-3.837291469422488	-3.7633318806047016	-2.4928421911243914	-3.2310304560147958	-2.6652271680298596	-1.4186494314615894	-3.9756798643825393	-1.7335683063607705	-2.3266541899112854	-2.155069345755262	-2.1666698401107394	-2.788087122553652	-1.2751824823609181	-1.9987646290859897	-1.628012891473769	-0.46970051408435337	-1.5121589860884765	-0.737382648513654	-0.8350871184245972	-0.6892299634698226	0.564721821312862	0.5379490242727603	0.20681974239584489	0.2374528193439173	0.568894504064473	1.3060655560897085	1.545990224749704	1.938102359646862	1.8448010636482943	2.8613169121026516	3.1025772016394018	3.5108730704358244
96	-4.989875780858806	-4.4622697717538715	-5.369712816032622	-4.087705125024995	-3.040963880490639	-3.8850519559046877	-3.286111823368404	-2.1227910465050916	-4.2644867789365755	-2.205721372757505	-2.626326554343284	-2.622225039537355	-2.562129014222164	-3.148311607041512	-1.5633258780109893	-2.181467527603896	-1.822857971357504	-0.6451460106773763	-1.6832288461149407	-0.8503597357261254	-0.7803149203626579	-0.5649815783541372	0.6105991586527822	0.6107467397528735	0.2911363534729439	0.6027609690706737	0.8766998030462504	1.6446974235971719	2.0412249513588536	2.652412646272662	2.6439046792989034	3.619066467684635	4.238202561168464	4.7334060549438295
100	-5.814435944182265	-5.348664747085519	-6.968841058302584	-4.512988555958094	-3.813503017334111	-4.673224914196115	-4.072981347291173	-2.9902203007542525	-4.55042551799126	-2.8422419953112112	-3.03240036198809	-3.1554903904401352	-2.9598681851997806	-3.473679056934149	-1.9518781851125697	-2.377176755625403	-2.0240788408674755	-0.8488965609098733	-1.7047592358463484	-0.9865113471873378	-0.7330867033569587	-0.45646855119852564	0.6208689197123639	0.8156114200026993	0.3747787764146907	0.9157699919467837	1.0953214140894376	1.8840949487801049	2.502094500900226	3.2402076639384028	3.252176038160505	4.398610580783004	5.265536294994373	5.824356541233634
104	-6.652031404866612	-6.240581496695218	-8.123299578184488	-5.000476824533213	-4.637631404611907	-5.406753526388322	-4.796258914282212	-3.746262302477022	-4.850272166404142	-3.4945120723234453	-3.445111504439747	-3.6030652432072117	-3.2491464532835104	-3.703135004230805	-2.33414101011333	-2.533721440593935	-2.1750154440325398	-1.0250645850050393	-1.6223752457665672	-1.1048450442076048	-0.691537497681831	-0.37442624474405667	0.6089881047132157	1.096337554071003	0.4626513707877892	1.1184662552251554	1.20357811147084	2.0010824152968736	2.843857758017703	3.591134777539091	3.5721344857627217	5.059666620831527	5.9825210420244925	6.565093500728199
108	-7.227673035493335	-6.879188520229375	-8.411488511783052	-5.4116673332911995	-5.2474703656271435	-5.855879768845696	-5.18542336108409	-4.0932130710254935	-5.114162908993498	-3.954343308955452	-3.719968786384349	-3.8004147910487958	-3.320642939766817	-3.779417743677492	-2.5714476043628216	-2.5871195727833367	-2.214998716484082	-1.0984955998342922	-1.49634265521868	-1.1585648030594022	-0.6440696104000951	-0.31396153489953826	0.6083593949217123	1.3739545310617378	0.566511868000237	1.1830660074882042	1.2106585472058322	2.0162484594938124	3.0090060158099727	3.647251119941967	3.5730044751556664	5.475596890930086	6.242447360490556	6.808277112937706
112	-7.312066059724843	-7.0258917631146	-7.730227450881001	-5.5833601810632825	-5.416296468411348	-5.866910919635716	-5.0809731355177234	-3.8697326085617734	-5.25339649781433	-4.0520839588856825	-3.7434070015809104	-3.662972202589653	-3.1345882336630737	-3.67944311166672	-2.5590093071224964	-2.4973483022580343	-2.116221899411692	-1.020724174783454	-1.3707576955519258	-1.117242095033849	-0.5816627726174413	-0.267041682522806	0.6530044062340128	1.5793439109981966	0.6926962119733392	1.1139955492504199	1.141564723947355	1.9770044038449084	2.9861092492051835	3.4175245675587136	3.2853069222473894	5.5797371723444025	6.005868896579803	6.529344065393653
116	-6.845023614767538	-6.594801886120722	-6.375771506424697	-5.428111539487475	-5.0835046639842325	-5.45445869976031	-4.54360388562323	-3.1579601684948124	-5.201392637471994	-3.7506482506471004	-3.5045449645252877	-3.252090684309402	-2.767061703371507	-3.4362828644779064	-2.286141628215474	-2.2823815288139566	-1.9152349185272286	-0.8112248757861742	-1.2615317074396335	-0.9892739032564128	-0.5150066601148333	-0.24344086585570782	0.7492449264683237	1.6744432407065193	0.8261292555932097	0.9336503124506514	1.0120155785758878	1.921388263619725	2.8053231168491246	2.964717619086463	2.7714681555393366	5.384873376602256	5.351500020821037	5.828223690576897
120	-5.971967205228629	-5.7160696839020515	-4.916839587195549	-4.9892840259469695	-4.3974852450924855	-4.807909476539174	-3.8449666403015477	-2.2673442306494076	-4.960109698170286	-3.176640264120257	-3.113607398755108	-2.763733380015652	-2.3917167126352017	-3.1326587121072764	-1.852329249473709	-2.0231149145546015	-1.710697408171749	-0.563413856991213	-1.1641216248684927	-0.8273746946426471	-0.48045113561444636	-0.2800532572351332	0.8583171345974839	1.6562613207008494	0.9250307655821549	0.6648842675588469	0.8120841363430867	1.8459025574809624	2.516181701029454	2.3746788441784625	2.092847818812747	4.968982683987728	4.442005623092875	4.88198994357626
124	-4.971920954549157	-4.683300483323508	-3.918922891259235	-4.414102543176751	-3.642739763599597	-4.199103344805998	-3.3323049461155474	-1.5909180601007498	-4.596906650381231	-2.5635397369511463	-2.748062842106608	-2.434543603472509	-2.196082348047344	-2.862814657612786	-1.4243292772571858	-1.8274228526707468	-1.6192935664301704	-0.4027246822679774	-1.0696873637848947	-0.7084307652707105	-0.5242835270042532	-0.42458563935847476	0.9076379514666743	1.5474700888664512	0.9350201463934209	0.3249321869752641	0.5146439062476461	1.7024061636858463	2.162480825686501	1.7266349748887126	1.2954524722770875	4.437564361812584	3.4627153786018443	3.8757569692033016
128	-4.116631497480039	-3.8096122645515753	-3.664961328790075	-3.8618037603151905	-3.088628999541439	-3.8394625089983054	-3.238187304904197	-1.4035086596339714	-4.1952605141577415	-2.1324598735375653	-2.5524475510050304	-2.410545343035052	-2.273273223859536	-2.680783741858381	-1.1517223090657525	-1.7680181220239153	-1.7072497563173552	-0.41503158106922666	-0.9741779541215528	-0.6925163251558613	-0.6696190817139154	-0.6977284533050859	0.8292042592094085	1.3838994468081138	0.8200109580317526	-0.06453889592088674	0.10629773113116016	1.4292200767672376	1.7703371003276918	1.0801024409680717	0.4213953305572491	3.8840668103383273	2.5631976062909994	2.945981733513649
132	-3.541165342927093	-3.2736802018482773	-4.023264874790963	-3.406362524969097	-2.8452351021456956	-3.7653806114497486	-3.5417156130062697	-1.7117555098231303	-3.7963640594000876	-1.9747720906944166	-2.5465824539739397	-2.651769154529292	-2.553917163122902	-2.565818780143024	-1.0849164696958469	-1.8265652610438836	-1.9354861925849858	-0.5877014383736794	-0.8749891497455157	-0.7811112980194912	-0.8825784303316707	-1.0551867458405482	0.6053085311865867	1.205314752396631	0.5938017353324597	-0.45818862203311106	-0.3769937148112744	0.9997503732235536	1.354901191151652	0.4818260955566536	-0.4648327815717714	3.366642705046797	1.826512093700878	2.160144323617205
136	-3.1960036673916816	-3.0401594562067813	-4.539222705824721	-3.000339262062933	-2.8100531030279785	-3.8182506464877735	-3.965968598843093	-2.245322937064869	-3.3737640295680023	-2.0038251826239333	-2.5989797049708	-2.932847969279841	-2.8258180546941087	-2.429586881225502	-1.1435639829373634	-1.8805795860494172	-2.1557428782395234	-0.802228031517202	-0.762463686925367	-0.901291010488436	-1.061540600957563	-1.378137704230803	0.29228305742856014	1.0497062179765777	0.3308750978699124	-0.7761751393748798	-0.8356296995046177	0.45741468552497905	0.9370883083526158	-0.018971973982237433	-1.2593948809298308	2.9076006339096243	1.272879478101901	1.5336050948523845
140	-2.9017972872903655	-2.900532953568582	-4.697001445355567	-2.5204503472589113	-2.7363829543644904	-3.7339720631739453	-4.121600617493129	-2.598918908233282	-2.8591980861955255	-2.0039842078157926	-2.48737930623523	-2.94956492632992	-2.840544216613716	-2.1644773428628565	-1.1547840804508445	-1.74887096440319	-2.1694109385077494	-0.8891129471265435	-0.6159762724583286	-0.9292734241865555	-1.0638836595377679	-1.5077991447527435	0.003796783731977601	0.9481134986781734	0.14506489001842043	-0.9161147452112941	-1.1297241420833286	-0.08815244563019296	0.5557867274557211	-0.3637952199334036	-1.8310314370656275	2.508825534208427	0.8864521361858432	1.0633820268486047
144	-2.4739124712472575	-2.6096880370055313	-4.201182831647672	-1.870532388732865	-2.383707040490507	-3.292814484865764	-3.718307247310785	-2.4500820574890643	-2.210302585743375	-1.7509800151485975	-2.017291779193327	-2.4780154165646575	-2.4524345336031197	-1.71047794387024	-0.9430398321184125	-1.2773861852819899	-1.824164624376971	-0.7198064905113071	-0.4123234142383719	-0.7459243517162704	-0.7629654984284642	-1.3132531609757363	-0.14115451240664248	0.9172506309239109	0.14298379385134194	-0.7875733355665001	-1.1334733934395242	-0.5048055040012149	0.2646228962416052	-0.49547830098940926	-2.062124962368708	2.1700477545309216	0.6450152976917138	0.7541155796084924
148	-1.840850110174688	-2.0355527349577693	-3.1235027234371557	-1.0690158578585505	-1.6600906806994211	-2.444549554374981	-2.7260036399680883	-1.7320089296480938	-1.4679759703766637	-1.13518547725173	-1.1339699001292498	-1.4990330896677588	-1.7094451145881797	-1.1023328276459543	-0.4227511574085318	-0.42271751058664103	-1.0973188849401074	-0.28287863659964285	-0.14423431419673355	-0.2970179311882732	-0.11014530034866461	-0.7590645532516981	-0.07867084423706705	0.9522577500142984	0.37534636164313134	-0.35424634724823784	-0.7940626720407472	-0.6994718295557197	0.11356401414809288	-0.38235273860717717	-1.8991272401545054	1.8990755033229711	0.5360487685974736	0.6206343158311203
152	-1.0906132432105164	-1.2357192008290836	-1.8405574513695797	-0.26312798195209025	-0.6768985969619548	-1.3401713337440782	-1.3961716855085136	-0.6662670953141446	-0.7614389042703311	-0.22126230541632672	0.034989658654802684	-0.21962927226405476	-0.8417381622997117	-0.4661045062694883	0.35549145847212976	0.7116132956658126	-0.11963217675283984	0.3006429962673929	0.16322588879382685	0.37340479994911974	0.8303861597076757	0.06540346874175154	0.16621391433235674	1.0252523396356077	0.8121996501443698	0.3395743361482724	-0.16223925311135085	-0.6609536392690577	0.12704637614598982	-0.04040562723806395	-1.382656451549106	1.7109900669768572	0.5559013471873349	0.6717169267861335
156	-0.42246675384670407	-0.42155444515607526	-0.8132498839826606	0.34590235265184227	0.31499844709975544	-0.25354507501484375	-0.13019953635245302	0.3618883183402413	-0.24986132916309084	0.7886229733583446	1.233426448568942	1.0249459717622358	-0.14552099966025134	0.038208238684031975	1.2313204972650549	1.9099193763195796	0.879140792057574	0.8381340482531776	0.4546049523796834	1.1380623550291957	1.8967212390695767	0.977210936463291	0.495032935084772	1.0973539324711468	1.3588459457422175	1.1774049967603093	0.6262650473995457	-0.45638871077705057	0.2956738762543039	0.46567812444416407	-0.6350464208781987	1.62399243898453	0.702444730415676	0.8942762590718204
160	-0.03642537063104389	0.16318422514723405	-0.3403330138673805	0.620453832967196	1.0633714172218616	0.5580882415986226	0.7286245208464046	1.0138932440908615	-0.032697860068975154	1.660850878336967	2.196609729942985	1.9356291245227963	0.17516760483862048	0.29672703072018136	2.0153860994953794	2.9338488504723825	1.676399107515241	1.169660803702774	0.6663805825575104	1.842714543458555	2.8893904613024026	1.7785919859803732	0.7914774397894313	1.140199419957577	1.9035446595769463	2.012400860473986	1.4100975954693868	-0.1852768505902272	0.5863062724569443	1.0461600992492637	0.19020105850359129	1.6558629232561766	0.9693267917001765	1.2512067524791293
164	-0.026158122279762257	0.37466454411326705	-0.42885312329736164	0.5697882757106233	1.442316170865643	0.9736002659058483	1.0567747327826449	1.1673356265159567	-0.08920655377038439	2.242185586990393	2.7699978281657294	2.385854238208475	0.11351119698237463	0.29946440382690237	2.5775172645342646	3.6198067573708763	2.1544763987505333	1.2538707224659946	0.7579366545614611	2.3734548031964455	3.6472451594775044	2.341236585428057	0.9851863955419708	1.1551591128748244	2.36902379391503	2.721772663874034	2.070182079810524	0.08152379074971573	0.9630028581147636	1.6218763548910566	0.9700499748534105	1.8216789914868232	1.3455485071542692	1.6958848195174356
168	-0.33278563534639677	0.23733945130984074	-0.842410443086436	0.3499967745050607	1.49984967329912	1.0459171507177725	0.9836922263105138	0.9570362543738768	-0.28330266404150445	2.5183355744676197	2.9662711545439664	2.4619107184241655	-0.1438478972856303	0.14385405146518784	2.8971192763616243	3.9375765224224666	2.3419773519514555	1.1891887157933634	0.7366527896402221	2.7019717625110626	4.10420035279707	2.6546573571892362	1.0887746783424168	1.1797003716248144	2.7415282657070907	3.248367539787552	2.572375052633185	0.3419597736308057	1.4063435757416212	2.1536827033027084	1.6534248548724395	2.132518524507876	1.8195635034397961	2.194134229842424
172	-0.783943651127422	-0.08970469958783701	-1.2778111663981655	0.1683077211899015	1.3993108237223288	0.9403132772546908	0.7800586799954154	0.6648251993560236	-0.4426724303513232	2.588311904094413	2.929892055743603	2.3842630326155683	-0.3336552671114741	-0.022655716108700045	3.0479719561870566	3.979694356407316	2.373936647143593	1.1515332431330023	0.6567721350300422	2.882714264267256	4.297444809554047	2.810137741623346	1.1829656332666558	1.271585699685673	3.059907428645326	3.6061906723527635	2.9607241078965942	0.6546841843288318	1.915440792969763	2.64600753116127	2.2591779174986386	2.589544051308099	2.378453725531847	2.7342915465938917
176	-1.1931128471768886	-0.420446365010176	-1.5497318467113876	0.15290930828589241	1.3000950780469211	0.8195986131002375	0.6774128658357784	0.5346012698027579	-0.4625029850249955	2.581185334364481	2.837416403282379	2.363457673781378	-0.27442693641041005	-0.08522591718375484	3.134854070378101	3.8943297764684215	2.3996958672018485	1.2869859901359877	0.5934053644457041	3.0083272381169843	4.328278530637089	2.9340097830128697	1.3613922561605933	1.4794380627473218	3.3753499899521815	3.8511497877163565	3.310352793918774	1.0897418233061005	2.492669814492136	3.124077789048497	2.8363747525129144	3.175011626810526	3.0006205959855627	3.318255416121722
180	-1.461481805926202	-0.6542594416312347	-1.6760054784421379	0.26713794402387525	1.2534987894835352	0.7473050933090063	0.7302814107576876	0.6268350466160936	-0.3714623441854388	2.569145911405986	2.7947640348445337	2.4775175985727502	0.027775209326951898	-0.022054757867204892	3.2225961603817934	3.802712192471218	2.494891160388017	1.6230133730919214	0.6061041339830399	3.150895826013869	4.301111687291372	3.111008397830884	1.669732089595367	1.8157528592996368	3.7091421987346815	4.038053502378137	3.671573629646183	1.6709417062533847	3.123831502656907	3.601925602401984	3.415568581540703	3.8479776285294194	3.6490089801212444	3.9409022231739574
184	-1.6262949664063902	-0.8276535251702024	-1.825320954482694	0.32575941003569087	1.1771736115298754	0.6630470139929289	0.7982583621851834	0.7945105413404587	-0.3152276567606605	2.530816071796339	2.7889940668262647	2.638309710517253	0.38651156327891284	0.09104856825729182	3.3009290611849984	3.7458782101470587	2.6269872122243063	2.0495369382610855	0.7104312759582561	3.3234023963943717	4.2742857825129095	3.34069465747437	2.0741290993775854	2.2474210205556657	4.035314072911176	4.189447869213921	4.038023938474403	2.345684522428546	3.7697319889259453	4.062981118434585	3.9816965956295554	4.551300514174354	4.272964943588021	4.573450553791282
188	-1.82602238194064	-1.0751917335067154	-2.1740505640453516	0.11194913806068979	0.9245988703272028	0.4430693376798804	0.6563609225867749	0.7934687713617047	-0.46003481629572285	2.386574500734122	2.721623175425315	2.665693753187983	0.5541592226342382	0.13764615322169838	3.306955090756576	3.689736833793441	2.694945805421258	2.3842897354963606	0.8770669080524951	3.4854729087567895	4.250407685039016	3.5530276208817626	2.481258862906566	2.714201205076622	4.302121628389896	4.296240795732625	4.358959186992733	3.0049741192289656	4.3802370914495095	4.46873425309131	4.4860539323078354	5.231387125158716	4.824035155514574	5.16645334846719
192	-2.2060475293728925	-1.5283807477510118	-2.7761633326057296	-0.48274975893208344	0.40083035725483107	0.0018104872387758291	0.15923520882457803	0.45113363748137364	-0.8823380447998985	2.07619094324445	2.495968812362835	2.418553823086854	0.3779247393603154	0.039005696675049134	3.1853890338583004	3.5770072846700964	2.612743371089004	2.482880824496099	1.0571515533459634	3.5850672631348544	4.205020417087201	3.668348064697662	2.7952377725600126	3.1638307491532087	4.477000225207892	4.345463264938184	4.583549487939369	3.5407881647359063	4.923326003042209	4.789556968040587	4.885612475457983	5.861663326722939	5.278956876778116	5.672012791618265
196	-2.8174197602664597	-2.214083904398379	-3.5204529673385174	-1.3673967088508168	-0.34720361145097084	-0.6294875129065464	-0.6424205883019026	-0.2066480363158417	-1.5024347267365021	1.6274071890750907	2.1009492821101636	1.9016960811285495	-0.09966390554776171	-0.1893401886212738	2.946254484367453	3.388393631963317	2.3830180107986436	2.329591268379822	1.2177906005630696	3.6073706058977577	4.129544724528736	3.662167778305795	2.9771161004241784	3.581674566762805	4.583457458368068	4.352687824703879	4.706539619007022	3.9066276451660102	5.408905015640703	5.03559206644895	5.180717455181664	6.454427702820348	5.654422268896564	6.070612892082844
200	-3.567188492351747	-3.0128521843183282	-4.1959905518451075	-2.2734122218908013	-1.1250005932060942	-1.2964938846279737	-1.5044619999094844	-0.9486201381574851	-2.111323351297839	1.1676619023406334	1.6377576548234944	1.2838783231745345	-0.6532021744448783	-0.43818369397158863	2.680354588417081	3.171528331378647	2.1136324352306075	2.0543756433117353	1.3658034766999931	3.598235359643967	4.057258595713438	3.5930447487714514	3.0708141249373693	3.99662183706221	4.703161227749683	4.374065864963625	4.784432399114317	4.1438012018486985	5.888704285059209	5.263957010330391	5.423773275033096	7.050728303274061	6.000824436295908	6.3835396605493715
204	-4.249757755994026	-3.705260982695286	-4.613185870921185	-2.8800811694863064	-1.6740808444671997	-1.7912310316637947	-2.1097576564928318	-1.4543552361962702	-2.477289908830283	0.8719922282137755	1.2738916841769212	0.816681681001584	-0.9957704518926596	-0.5636121616438801	2.5237963135895747	3.0208897514367075	1.966522331041173	1.867223854119026	1.5452984532441874	3.648199072210081	4.0556611912374905	3.577421656159529	3.181237212732308	4.459475982851013	4.939468371318104	4.4875974541850425	4.911838519092941	4.358603943310769	6.4288000898174245	5.554400430007249	5.692232117586503	7.691770057331857	6.374893649218661	6.661114675870291
208	-4.643149364192702	-4.0771574871121725	-4.696664798322725	-2.9712195321407258	-1.7991177990312726	-1.956288690396234	-2.2354831639116117	-1.4849859438597186	-2.4678418574015004	0.8743312932827906	1.152312395047539	0.701399145739666	-0.9363705492220428	-0.467130600226706	2.58863972963985	3.0214247627268604	2.0683197922938636	1.9455313633436206	1.8100556089478101	3.8433649442911872	4.188069809830193	3.7252395058992396	3.4156751546452924	5.004741656065414	5.359564290820208	4.750889766142364	5.170007215798305	4.661787021311174	7.066123944562095	5.963079914296477	6.040203079232375	8.384736039926768	6.802684289923262	6.9501666847230235
212	-4.625117767100776	-4.026227464047399	-4.504818904947227	-2.5432095463439057	-1.469299789533783	-1.7659685567138435	-1.8706816387630059	-1.0090497706686419	-2.122110123044897	1.191687104077461	1.3092694249475862	0.9811571215653274	-0.4819171118489959	-0.15222425720405725	2.898524038626144	3.191151134063479	2.4361424384599273	2.3380567968466077	2.186011785710099	4.211426247454329	4.468337524576686	4.074765195095508	3.8224763773731008	5.618504510045597	5.948457226039939	5.160661684358277	5.578020081742048	5.105658995135573	7.774504641931321	6.481834872093192	6.459902270219856	9.084103561354395	7.255813580313644	7.2615799720532355
216	-4.246990669971959	-3.6174900440435955	-4.176232804244844	-1.8044410898427228	-0.8388977029601119	-1.3400269712947968	-1.2201942174622133	-0.21653270666766294	-1.6273324448507311	1.7065675215549787	1.6497893291781882	1.518644448260823	0.17275011495844017	0.2777570479056034	3.369492045478446	3.4608781250359266	2.963276617198011	2.9415242597700204	2.64944624231897	4.698013770639876	4.84020756453136	4.5668296698663475	4.362611759615347	6.234706862920988	6.605441553604845	5.641954407752505	6.076967700874173	5.655362114933009	8.46426580199404	7.03049991739984	6.879618150507831	9.703379606543802	7.658335666394541	7.559858303056747
220	-3.7235834504529817	-3.0567157191349517	-3.8523573778164573	-1.0744267674975994	-0.1799830342755441	-0.886968133594361	-0.5996041282774048	0.5771187529298171	-1.2212536304157764	2.214315885675259	1.9928173968546061	2.066465611008872	0.7520081381884897	0.6724204404066412	3.8439652822718493	3.70296572704007	3.4701414020663717	3.55504607256734	3.1302578370217855	5.185235487244232	5.194354521034685	5.070709215713315	4.925793158492523	6.760766012288617	7.1852340516832465	6.074690803449501	6.554173929832917	6.206963046615302	9.017140365722678	7.488141994644064	7.198600274031092	10.15144536316401	7.921624163654607	7.780982951546313
224	-3.3366975700058243	-2.594111912853573	-3.6274797824827294	-0.6343798621373585	0.24097132621960882	-0.605844138523186	-0.27832844783130006	1.0848371955184957	-1.0719898912067547	2.514958136884594	2.1634349768376566	2.3924670159017403	1.0431466076263178	0.910541651334221	4.163959492660841	3.796815862606344	3.794310321764892	3.9835877317942145	3.5413398653265546	5.54643915683399	5.418769345907545	5.449294553350008	5.383777604815472	7.119948369169855	7.565277080508887	6.34836147612891	6.896828634015404	6.642302973189514	9.341306662816836	7.750381450158731	7.341586571277508	10.375999424486713	7.991116980404203	7.870615462458929
228	-3.2980272686660794	-2.4069995819356054	-3.5457909017685636	-0.6096377953396273	0.2802380614357927	-0.5970560297196903	-0.3541520228981189	1.176554080853644	-1.2010854452326265	2.50302504861211	2.0814461655517382	2.3920652805969684	0.9980126594141592	0.9569767093338966	4.245350350151882	3.694673528879854	3.870047321085393	4.133433331544064	3.8177537821701804	5.708280072105312	5.456143365435988	5.62715958128229	5.650944218673411	7.287159424503303	7.70429275474897	6.417126162539769	7.046311837525935	6.888971788179528	9.417520499294335	7.782886962314211	7.301979046505681	10.390606853954228	7.879232386723062	7.820324878021691
232	-3.6398370174063643	-2.52029156048563	-3.6226830391018954	-0.9316424703918169	-0.02492454082931497	-0.8230989554604796	-0.7231041770798246	0.9188117361712818	-1.4858910999929924	2.214800829063927	1.800443644746309	2.1287856048243077	0.7388355713310306	0.8744197465754139	4.118099202249283	3.4518597038856	3.7550682926739047	4.049334992675582	3.9457423587360783	5.688653931560381	5.337746129864551	5.625873074632706	5.721949562885009	7.2992825323828505	7.662066440310904	6.326497061969025	7.026017648124048	6.9537553611666	9.311221099233126	7.642142276542848	7.149587613174613	10.269273732007147	7.665254096705444	7.680034141223792
236	-4.1880640877843085	-2.8018958497831927	-3.856510391035342	-1.3861755097677604	-0.47953805206343747	-1.133337256431201	-1.1490900487498275	0.5178260194102359	-1.7304363207043105	1.812476034356738	1.4798107109855168	1.7898801519980159	0.47686454533343203	0.787069616714775	3.913110007896836	3.205269567026491	3.594948044283614	3.880015601852462	3.9680442709875106	5.59064005393919	5.17536781911729	5.550783620171409	5.669637665739252	7.234846573683231	7.571011524158959	6.197240336984088	6.93025491872105	6.914229852385777	9.143756843369312	7.452416878004525	6.999793988674876	10.111159299117773	7.461598377462544	7.538797359506406
240	-4.638375747413983	-3.0345051211990848	-4.2121629608618925	-1.7172956423317258	-0.8188853243180113	-1.3344629969283512	-1.385464307148096	0.2109182024637367	-1.7621711448047908	1.517313476546349	1.30838691857927	1.5892935951161424	0.3985857655475465	0.8206648805879324	3.8064818286158757	3.1130607049546084	3.5500833898558706	3.7981579207847185	3.964331616883115	5.558572755130992	5.116265760855864	5.540696606952248	5.609935269497163	7.177772503850523	7.57785223001327	6.175864204072969	6.883543473984249	6.878254396238813	9.039957023685092	7.352966766866452	6.963491899075367	9.996819470915241	7.366533737657393	7.485900860006167
244	-4.702638614225612	-3.0272443218094574	-4.5883917692686955	-1.7264692739766554	-0.8197227099703466	-1.2728331056883828	-1.2857801881752258	0.16132210154334628	-1.500216599491431	1.521424647304707	1.4191900455883373	1.668761487562295	0.581401406250761	1.0520359251163867	3.946045388749351	3.28575657968644	3.723237266677	3.918231715800165	4.017834176409899	5.716436371675784	5.281913743988668	5.706741318599676	5.651096806563651	7.18382881258157	7.782606582065895	6.37415169060237	6.989906770224496	6.933410150188914	9.077069259614342	7.440551739026913	7.1028775989492825	9.957021688117774	7.42584083589633	7.5718102263969325
248	-4.252789486638227	-2.711217158148121	-4.815898883104696	-1.3366225924124007	-0.3886921395978703	-0.8944562650985876	-0.854783234822318	0.39944523472071525	-0.9735404228426449	1.9133286427828349	1.8346782876423577	2.0428411909025024	0.9758424138227032	1.4849595986067945	4.390735615135162	3.7400329018579836	4.1203260317724695	4.25052927851405	4.181687821320915	6.115184291659032	5.7173495148314375	6.087503417858071	5.848856434360254	7.263796787996125	8.201401689803705	6.823700887618003	7.292287808126829	7.109982949425728	9.258286452760327	7.7330469889903375	7.411610584620002	9.968302701578061	7.620706062149948	7.787738303549521
252	-3.389012089755945	-2.1722123568051197	-4.71297882797514	-0.6034097060227711	0.40559998052236046	-0.261187880571872	-0.22486346903295182	0.8326299765545802	-0.2903303496660037	2.64534329700157	2.464229815937231	2.6080284052805958	1.4512513839320729	2.0579569287793777	5.086977468998658	4.394907940258904	4.658801543871202	4.709453570873444	4.459773529236981	6.711997492056521	6.373753531576276	6.63889358751697	6.186946853275945	7.389046173513641	8.767077423849145	7.46519516013779	7.7586874765965	7.373631458739327	9.521094298166137	8.1695041450234	7.825369338305586	9.974938367454861	7.884701708913843	8.073327044130968
256	-2.3985898434161887	-1.604402180435663	-4.18295191662412	0.3158959440361949	1.3636449540995468	0.47643533228748813	0.41598510637161357	1.3003596034597664	0.41311168566353623	3.551915159794483	3.1462323586184167	3.199546090631029	1.8656846237762323	2.670157664233231	5.888296112452817	5.106248842698781	5.210046278197216	5.160840498292152	4.806275832439295	7.387014847224824	7.127982598428135	7.256075363912837	6.585608942570934	7.510298233144033	9.360918975084212	8.172656992305479	8.295594194448704	7.645450572738109	9.77094457066765	8.640625931858834	8.251281717448766	9.921226476416155	8.135565737211136	8.344293573293035
260	-1.6186240870617434	-1.2062200277391941	-3.2967142975542822	1.224222060927386	2.2390835228655344	1.1400469512766265	0.9081504322011591	1.6466438728720427	1.025218126569593	4.41565846282004	3.717010727080904	3.6668772604868978	2.1245427078013286	3.216426125988802	6.6136894059094615	5.7253041122844985	5.655538544681098	5.484065042001235	5.1450734008588155	7.992999533500036	7.83222530294892	7.817275027565524	6.935896855962665	7.580993156366424	9.861992811099396	8.803755737965524	8.784152008766972	7.8388867180321995	9.924822782254243	9.03567502601524	8.60238263819318	9.778745626556157	8.306761720665627	8.526643731524052
264	-1.272543069487638	-1.0733975144942165	-2.30049132719963	1.9519622276614907	2.8373911309130584	1.5907785852323273	1.1761283844817332	1.7762170985199386	1.4878525696383087	5.051515089632625	4.07305811807345	3.929429044339399	2.2001187745813424	3.6180007366387414	7.1179814158972325	6.153153880796567	5.928717598251642	5.618657574772993	5.400349603369823	8.414217927669716	8.370408037033256	8.228450754371643	7.1442098437179755	7.574808578440144	10.191249821681676	9.253534293653674	9.123932815404226	7.896044234367383	9.944214795755087	9.2839889291969	8.82321736969129	9.556400274944675	8.365757921078199	8.582474686888464
268	-1.3643277849083697	-1.1448534698191786	-1.5180960855302739	2.412210458387293	3.09176563436018	1.7800353720546098	1.2422248093713133	1.6814503627286228	1.8027918293259517	5.37781570984151	4.2032675636980725	3.996209611339984	2.120139355075019	3.8446249864785575	7.348264675661282	6.370895369657223	6.031215652497254	5.579818711498249	5.526612744683119	8.611589410020523	8.698739983530956	8.453574159259805	7.170610886589551	7.493359069978792	10.33561608566045	9.490695929407437	9.268938041173376	7.809430102658573	9.846352552349822	9.376137709787	8.900991417346493	9.292904830358472	8.316063859924368	8.51840493912542
272	-1.6845858054544713	-1.2344300715751362	-1.1961872547466412	2.629776232755595	3.0849590223625944	1.7640144780444604	1.2013756006426606	1.4351546728139606	2.024152512208232	5.445102201065671	4.182518471648408	3.948354949519277	1.9440568636448898	3.923361768353741	7.364262562278606	6.437288744886324	6.022976860098621	5.444268212878079	5.528812871325513	8.637123086103516	8.855752922587662	8.522004105986449	7.046867352813839	7.366725426194507	10.347166035277285	9.564072584800792	9.243200278787185	7.622922878092837	9.693872427307552	9.359881377430582	8.862790085350657	9.040384269777762	8.18878553230382	8.376883485625305
276	-1.9258931826604753	-1.1334254713052458	-1.3753416503514486	2.7233729293729234	3.0029854698657004	1.6747288661635618	1.174918648614426	1.1598072022719637	2.2317311707417633	5.4057426316154835	4.131616105138741	3.898297061614655	1.7433668330999477	3.928424825286759	7.310137730261938	6.45686815538987	5.993869766361074	5.315545545508981	5.462945924317739	8.609536149222484	8.938089348161032	8.511569955316991	6.865070802522099	7.246623020949641	10.318722698862281	9.576599096915162	9.128198600610741	7.4125351718674235	9.568352675122016	9.314496016827396	8.761423088841447	8.847271896913274	8.029773691884973	8.215984323739056
280	-1.8442372037101427	-0.7286663633069312	-1.8617206764900978	2.850000851111324	3.0449507159603098	1.661116715051994	1.263867851881062	0.9829050873735973	2.496458285704495	5.440024362180786	4.163928498245636	3.9454116721676993	1.59215426043027	3.954929580239982	7.350722294368456	6.5341653658880725	6.029282554662779	5.2850961551744815	5.415130601562485	8.662012078350248	9.053900695830063	8.51472947831927	6.739810449749972	7.192826252896988	10.34617039929347	9.638100599750608	9.026402450660232	7.255220871727494	9.538786864039437	9.315063453044225	8.654777505004256	8.746159531445901	7.886379222032166	8.086410502044714
284	-1.3845527137132028	-0.07616724054656492	-2.326820606079078	3.1221289555878413	3.324727765272251	1.8212480499061852	1.5136487445762314	0.9924788449978938	2.8403870987704845	5.666716084478318	4.337582577244458	4.140211571730808	1.5564985235970745	4.07724045677749	7.594508151907253	6.729430181679255	6.1777000271274165	5.399068818766122	5.464221463712712	8.880219437113293	9.270908332306098	8.597763993490487	6.757547361478872	7.252291184234891	10.488257381661786	9.813526128787682	9.013129211558	7.197061520525455	9.633357977387094	9.398117995376037	8.581869103699074	8.74528596577428	7.793076972359284	8.011949518956342
288	-0.7011311632574324	0.6159505232518507	-2.485090249463055	3.5367786795012783	3.811907520206791	2.155462497991208	1.898262376760998	1.2058284252240086	3.2083833136616957	6.080971702481495	4.6311464192767176	4.46635865037514	1.6739165740666135	4.307793606372401	8.037852266998854	7.031435471901873	6.429264529208341	5.639667973584693	5.641832337440313	9.257104850285284	9.580073332441058	8.767902352130752	6.933855516093551	7.435350876155522	10.737808200428702	10.08699509934968	9.096602416913658	7.232011776784871	9.822843526835447	9.540562605612102	8.541826226602907	8.822463013308917	7.756741027321629	7.978410223844488
292	-0.06827210617709774	1.0876790257649218	-2.2453799191051305	3.9583196540076684	4.34123228884413	2.561100476474517	2.326676124420507	1.5623153408660189	3.473014584355871	6.551773531584582	4.950897204297061	4.843817221809844	1.9282679509116207	4.5797905806307435	8.558702447263423	7.3569607548934774	6.7127508947645795	5.928737148575078	5.908903107029696	9.686810469012393	9.89088437444198	8.963228203078032	7.200416546762102	7.700683574307643	11.01748749812346	10.358661625458222	9.20683286249717	7.301662426633434	10.02382085176748	9.661658262654997	8.486797311336568	8.924838997242338	7.747738341797484	7.936310271253026
296	0.26868119768018095	1.1584724158602335	-1.751272912372284	4.1793231858593565	4.68930672415307	2.8736932205125663	2.668817990240642	1.9424238155914568	3.4857163341254376	6.882657033709387	5.167297350235078	5.151690470086494	2.2391915264815947	4.770660388345865	8.965464569344359	7.578989486632714	6.914757711118575	6.15450094576509	6.163976176911821	10.003506635205	10.063077901228914	9.072603202801886	7.4306516459732945	7.960097769667089	11.20505234750342	10.479438755280242	9.222018218598967	7.317923527361422	10.123558018874066	9.6498927826432	8.335877397471998	8.978536583166335	7.703708152394489	7.817591647437771
300	0.21755532865433125	0.8163083175076536	-1.2884927955521053	4.033308972665995	4.680557715996448	2.93646954748725	2.792565577132189	2.2053813878645645	3.1559803406189517	6.906025392262448	5.164923654867536	5.263870702804975	2.4773240026870087	4.760093200109606	9.080075241052064	7.57366035456609	6.916392785729926	6.212087615541573	6.281564696664987	10.04997823085183	9.963024114250079	8.97945115683346	7.49361036316053	8.106459597147904	11.180799456024126	10.311408016873912	9.022467590440675	7.199614506664029	10.020721410246985	9.40659997472474	8.008031824874436	8.910181976710495	7.549792747509651	7.5622372436330165
304	-0.12760609356133998	0.21879543308807467	-1.114335891771228	3.50206564972747	4.27010964269191	2.667260401667304	2.605546229459836	2.2364094200890827	2.5191550191219227	6.56464527380062	4.886663901389166	5.0906538834791215	2.5103011067907612	4.49486445245771	8.81831357636871	7.269280892138774	6.638244135309137	6.045132144924276	6.167134269402627	9.747278188891466	9.52203462103974	8.613357522198676	7.313007813109916	8.057929972331463	10.879777880856397	9.789359067996646	8.548377969140077	6.9083304230793825	9.66788861694835	8.8896350636154	7.461851101155754	8.675490357429988	7.23029897771693	7.144999962887123
308	-0.5556398020067208	-0.3907918324140718	-1.3087836470938934	2.7581252982121844	3.564453592837778	2.0949106163539257	2.0902707523977444	1.988031978356251	1.7530305341329833	5.940150245927855	4.357073296036801	4.61426876810473	2.2628610076993008	4.027644147240844	8.22928235837345	6.680397493662182	6.077631935033873	5.67261265276177	5.805456146841656	9.134282089059736	8.773635842106511	7.98836372265969	6.9046482865530345	7.79943225798777	10.32663151994827	8.958222366603854	7.835463980919259	6.468807204126816	9.098437286293791	8.139975527239065	6.725476724810575	8.283785799092776	6.739370329054061	6.59244726423946
312	-0.8656086899837376	-0.8083986619566397	-1.7308623747040892	2.0994088596744778	2.7693612505611354	1.3501411642319072	1.322150942325342	1.504785891548376	1.1171820135520671	5.21407221431376	3.67708181406526	3.9074642559579655	1.76298009904164	3.504913082810491	7.475232105455467	5.912803634973949	5.322887407215298	5.188173757805662	5.277427183178463	8.358126619217582	7.853313903054368	7.210280400191788	6.373781664968539	7.399474125300057	9.635836576929176	7.968849638846653	7.011066419066337	5.9640388338192025	8.424533822724237	7.279071789483439	5.90133856237106	7.805951098761106	6.136438831095116	5.983365520629539
316	-0.9712245439803888	-0.9581439470895861	-2.1041364616675464	1.8083412601591087	2.098996157115095	0.619624195918662	0.4636911440109483	0.9199575758595508	0.839740989472265	4.5878124121229416	2.9964840336485943	3.1263155858262945	1.145857688871819	3.1052443902770768	6.766024572456004	5.1377978195173215	4.536957252491817	4.729929435232148	4.73422430750524	7.6214251325827025	6.9606003585553236	6.4486064748077006	5.874706730315497	6.989645463462461	8.9756660234812	7.032333356268502	6.252403243491543	5.5082120756316755	7.803043822614882	6.475051863534878	5.139729963677482	7.356695156597029	5.534915910097946	5.429533467889646
320	-0.9252010560518482	-0.9004901624832558	-2.1783757154779133	2.0055284449487343	1.6934609370391194	0.08405496903893746	-0.2714329355062566	0.4186305393140006	1.0029007171105582	4.203249920723263	2.4737844404706033	2.472501986936854	0.6069039687092614	2.955789081740231	6.279204352737842	4.542726505254351	3.911130418439554	4.431811321513389	4.339594830046995	7.108751755886356	6.296770079927379	5.882040485790145	5.551351533225396	6.714007360673272	8.509194352600822	6.350472911060103	5.724732384533256	5.208231435977677	7.3810019306750645	5.889917358786615	4.590394485328092	7.055008393595287	5.066109167659743	5.042859541558775
324	-0.8577569105426545	-0.7643520812763732	-1.8681065989059207	2.5806395942382956	1.5842016895351263	-0.1346929516967906	-0.6779884678889212	0.18019103958412386	1.4954638443383304	4.103391160141642	2.236657375410722	2.13376211581333	0.3254343859085512	3.0750031393616077	6.10368154892074	4.27474974506667	3.604921093422253	4.377628315363567	4.2066578758843365	6.925317269960323	6.0021109429454915	5.639936909741241	5.487217412446157	6.671099645937854	8.337799051214706	6.050894721966611	5.527310834280966	5.1309161056675086	7.243803959677462	5.629397378060087	4.353996742699842	6.979829770585631	4.834370124055375	4.902741896648866
328	-0.8730106331718366	-0.6503144486220909	-1.292210098818782	3.2473366178541196	1.7153793530070351	-0.0022795505298490457	-0.6278693660142696	0.31221830766051606	2.064398760351859	4.245732296714638	2.3510937631375453	2.21829151547174	0.3886396577082781	3.3696100626748033	6.227773650658219	4.395212639202227	3.6905732061668175	4.573995578661732	4.354145992729983	7.070826989441579	6.113678916754386	5.759736523391413	5.682798848109588	6.87267254047898	8.468740441875322	6.149609073371435	5.6655797815331885	5.285357461936517	7.385491829345369	5.711551175002327	4.44969748327243	7.137498360733211	4.879387843210515	5.031835066488953
332	-0.9731984113917872	-0.5695435390397935	-0.7011807543217603	3.6909925844463984	1.9974557110900268	0.4277053166558199	-0.1228497099754979	0.799708125956395	2.438993924658783	4.548925865132498	2.804328434539624	2.7093415191910646	0.754764912607036	3.6851172354164325	6.567218763936944	4.860106932767251	4.12469099910764	4.95267389954404	4.703555572078521	7.454326610818306	6.557684404982745	6.176337226532713	6.065011485999574	7.240314942199698	8.819535233164943	6.554053290032196	6.057260021175394	5.623178944695661	7.714433173729716	6.065115913336957	4.811122882140192	7.457519512421573	5.162074552854466	5.388226495490274
336	-1.0581833097444207	-0.4557674813684475	-0.34196081671208667	3.72932337773036	2.353051656504184	1.0344870064366334	0.6903278214191686	1.4927179775697503	2.463521951177666	4.9362411374395325	3.5032577426199683	3.459579935875996	1.2710571256971392	3.8825011155333202	7.008645039983095	5.53289555106374	4.758594977762314	5.397154317580771	5.115844236809076	7.93613956355082	7.177104931830724	6.7457642384922645	6.51952265047094	7.639766673826678	9.25372407484216	7.102131348798578	6.565397245997207	6.054913028688644	8.090420702535077	6.556618197099695	5.311130510272325	7.8188586037639185	5.579362855176158	5.876808151666392
340	-0.996894476280996	-0.23394492209496903	-0.3378472319656213	3.4013950738860577	2.7341532638183623	1.665402408209814	1.5604263504685663	2.150713915163231	2.1699774210502643	5.354474531006398	4.293324459680417	4.236688603194991	1.7403826669621574	3.90083717314999	7.4481229594057465	6.227447970879989	5.387670503365213	5.7834877821815445	5.449367986272186	8.37766454488847	7.784003238098746	7.294157486619423	6.929903012899184	7.935432890884147	9.631805395603903	7.619274597004636	7.042911511759374	6.475027068002714	8.376323678802988	7.033596497897394	5.80287168945072	8.094594935007448	5.999609932057031	6.375102980730584
344	-0.7229845505580623	0.10376696262387024	-0.6427211149201013	2.933395378336076	3.1078007142757498	2.17663621352918	2.2194681111566354	2.535208218849459	1.7479144290662494	5.762939438574977	4.997066962023511	4.806886660837411	2.002963537881236	3.7724025154237193	7.808851699187133	6.7665533848631165	5.8221850248206595	6.017756923740951	5.612141118185442	8.678014733339142	8.21708963226898	7.672808627783782	7.206773739739216	8.038767794340293	9.854884122762853	7.970428446673478	7.371339302525632	6.786020738634767	8.482043244881286	7.36723659562681	6.160253509227128	8.195111254028571	6.302609904589149	6.7641348668028165
348	-0.2877955131417181	0.47294247031014647	-1.0823284360262335	2.6055514746685633	3.4337909134954283	2.473267072155259	2.4889297422512127	2.518327229817372	1.4327965938633103	6.11325882321907	5.467774377369513	5.027100073519951	1.9983826825232334	3.5888786225307494	8.041589716635414	7.038671952596493	5.955535396798435	6.05903719325953	5.587142930229757	8.789910294274895	8.388098695557927	7.802673320143894	7.302978020349594	7.931975821495903	9.887000058961064	8.092615107131587	7.486374359303068	6.919285279924283	8.386199929998755	7.483820419490179	6.307650550175787	8.09390161378117	6.4118194418195245	6.957828980998844
352	0.16377109247821087	0.7430770974471834	-1.446621652765478	2.6024885111905784	3.6619956400921185	2.538613789824747	2.3558936059598996	2.1522588675519088	1.379976388308192	6.346318705748326	5.641900525153764	4.903709399240418	1.782502646714213	3.4470229061835784	8.122319200989697	7.0332264722635625	5.801509365693173	5.925030216516567	5.425354943882862	8.719181992451514	8.30330655862601	7.694113235121351	7.217537861721317	7.661753635135912	9.753664945772313	8.001460055176674	7.387667637292757	6.850894910681669	8.13171003195964	7.378640633073604	6.233512385842705	7.82874391486567	6.310940249721925	6.924578649204131
356	0.4807990181227996	0.823666987723755	-1.5758968551902492	2.9311430380249903	3.756767263464293	2.441483729874054	1.979494685897337	1.6575975376240506	1.5953570564045447	6.416728480350832	5.566974625837318	4.587643611769364	1.4935369453868965	3.4044198903914826	8.056587198897354	6.839528543370278	5.483477101786654	5.680438027345284	5.213438020894952	8.514409043749765	8.052836397820398	7.434699993436218	6.990345937246093	7.310640793462572	9.521615958015895	7.773254851742826	7.132019024962133	6.607364637859024	7.800935725543789	7.109796982934498	5.985800251153177	7.480115394780295	6.041693195347998	6.693529112128783
360	0.5996900185703093	0.7333438377938706	-1.4044420683687975	3.4456596287517174	3.732001772041224	2.3149666727746556	1.621546741206281	1.3263910975346682	1.9584000061181375	6.331524832952425	5.3891720635726035	4.306449402426821	1.2885626521956055	3.4674069793895597	7.889452914346183	6.6106161904326015	5.179949747358895	5.415486798918763	5.0344114176482195	8.253890016697552	7.774283866327631	7.152085763040131	6.6915783713195	6.963748437465833	9.272398925258877	7.513845901592107	6.813979131661102	6.259463771275231	7.484629135308451	6.77684019285106	5.653884396583468	7.139505368327021	5.687664971296765	6.344219668583215
364	0.5779058918667336	0.5995056017998399	-0.9549515223234762	3.949757327598012	3.6629974749589738	2.3050842226958466	1.5237973889979353	1.3771831954517797	2.31307505977284	6.168675883931206	5.295023904783205	4.258417118765132	1.2759139505597548	3.611055603447048	7.704157332996382	6.5029949977721895	5.046738134993807	5.218575941261618	4.938887106823722	8.027893999812083	7.601952533602325	6.964199048579197	6.403706057593182	6.684004766754882	9.077804542510433	7.323720913516218	6.536321146674866	5.901704296470479	7.255138378899333	6.489358885593483	5.340753064976588	6.879985791955877	5.348558412399508	5.980552658240399
368	0.5490135536637702	0.5858918413628673	-0.30294397396849265	4.3059425245289304	3.6586031821386475	2.507414573060866	1.7906788542359895	1.8351068450372108	2.5633304054392236	6.054705604525349	5.428350911740288	4.519134986911814	1.4716054163971632	3.804761161734844	7.599524478798885	6.615177614676456	5.150186525693318	5.147304521916415	4.934732424674787	7.91465089707065	7.618504504996082	6.934220773355813	6.196269973369594	6.500672323980447	8.981352783415572	7.2674293334581455	6.375821574326182	5.620085702058206	7.148548585009511	6.331398947942977	5.130174147051218	6.736636621632985	5.10936211249683	5.695012078211809
372	0.6267933829695008	0.7885367254375725	0.4501512635309883	4.485711086391953	3.8037035369206196	2.921766273751179	2.33936905270267	2.505045169227737	2.7112655571195563	6.107348903495221	5.822464928231818	5.008684622516641	1.7980526640318255	4.022301663733825	7.651463012450712	6.95213602218143	5.442957387533489	5.207689748967326	4.994332300928121	7.9555311002145075	7.827932814861613	7.049234372461183	6.100929244850541	6.4100651579189245	8.989379860116497	7.356132011914613	6.356344206974234	5.460175500435573	7.158444863365873	6.3333148796398	5.059195028883255	6.701238138445991	5.013450609900848	5.536652551023738
376	0.8273600319000693	1.1753309935459413	1.1891460388678121	4.546660411799595	4.106993188025615	3.451882592069136	2.9496533796225433	3.071927301280384	2.8275334763664133	6.373486979605514	6.385442717642955	5.540849194842488	2.126171106692481	4.238169182567474	7.876317481182325	7.432642441103766	5.797532066966642	5.353825078798565	5.074635492864046	8.139217356159437	8.161832788841595	7.234344940994068	6.100642665719184	6.384832842919153	9.07394216153874	7.549532394421929	6.443502409879181	5.41242836539377	7.242448311640113	6.4633970097435025	5.1081857552305125	6.732091886689625	5.049631106025321	5.497858987278908
380	1.0610902282627772	1.6096398789774318	1.7913955404829593	4.5641369704407735	4.490240085709132	3.9532213111250325	3.3861374769549752	3.2735967553458027	2.977942936054415	6.7998475856762735	6.947640401465242	5.925825580894442	2.33668350583445	4.416538227374703	8.21717069458567	7.9330549039821925	6.077059253608316	5.507330880565541	5.137826906583898	8.402797677759585	8.513759591541932	7.393108826091274	6.138418658970977	6.386001093953801	9.184358573613482	7.77440307561688	6.563065512299481	5.420439706468514	7.337902527402532	6.642631513990686	5.211960302545411	6.773471815174018	5.158298002571032	5.524825082181529
384	1.1990095346696303	1.9391757200872672	2.14332818443847	4.574521530045902	4.831772792061201	4.306635845755208	3.528038015994904	3.053503267208248	3.1617014328286284	7.259405594617319	7.350004177610016	6.072457775043274	2.3739683568145336	4.510834205682771	8.567930199925673	8.34663675108253	6.207501395765554	5.591839299389043	5.1653718817951155	8.65591619213517	8.78698251413092	7.456497173556967	6.1459731900493155	6.376309378737792	9.266144729107674	7.9548306264308755	6.637569887569139	5.4113297325840435	7.383865814640002	6.7794766254921095	5.290690408700396	6.778617841772354	5.257605539399162	5.548631177244715
388	1.1726344794231105	2.09599995083909	2.1782073919614926	4.57218121327935	5.040527331023892	4.479905117168331	3.435598364739034	2.6091165476728677	3.3103582775460794	7.6202583120595255	7.527240734169372	6.035380348226485	2.2706172408950502	4.484590995910162	8.825143791805568	8.628637292057558	6.214165671871775	5.570033536199468	5.161935793241779	8.819582916880643	8.933898903225323	7.4172000697743465	6.080605014707762	6.33326242755253	9.281869864871195	8.042472819050177	6.6250557732208515	5.334744916798398	7.343674164350851	6.811035139053789	5.288376317977479	6.728805048166429	5.280959116000356	5.522522435550379
392	1.0336384747157532	2.1367671435767392	1.9183433007444173	4.547127235376297	5.111760603396536	4.539182174666376	3.309690467107702	2.2904772700654896	3.340455762058714	7.813702086748129	7.53605077748209	5.975759491138244	2.1260373538699424	4.340414513119876	8.93660543092845	8.802439667412207	6.198259814825752	5.461982236423443	5.147517668125594	8.858647324130647	8.966582275640365	7.328394394491967	5.948434337856403	6.2572469553323415	9.223184562284986	8.03216741441311	6.5372009112295295	5.188474165214571	7.217933159724469	6.729712946113356	5.198738561856136	6.639842493459398	5.207351194585856	5.444852338395403
396	0.9289128160865748	2.1933224145826324	1.4870086870797095	4.525788772600581	5.128594862387236	4.602512824836071	3.366231194580307	2.4008886753500818	3.2220089354229486	7.862813452896107	7.513164978131912	6.059623702962639	2.054135794221765	4.134453286222886	8.922017074947217	8.927968002666567	6.269812091256428	5.3354530199765415	5.144769655589807	8.794032074659997	8.937544800127739	7.270052414658798	5.801437363282466	6.172227843913693	9.111238456610591	7.958356360369728	6.428809626560564	5.018635737146058	7.043883305885338	6.584152205056301	5.066965090356557	6.554711325308855	5.071455942701176	5.357365594689284
400	1.00298464045019	2.3664460122442925	1.0732722255312148	4.572753894704906	5.20199869749854	4.760045039556749	3.698248853883034	3.011715642954621	3.014777652758291	7.851413706983727	7.585356216352967	6.351225836931005	2.123909229638255	3.9594178099802377	8.849954582758551	9.051414466893469	6.4742917851066215	5.269846426056489	5.164705740286787	8.68432519627487	8.901699997361794	7.300363522217768	5.7073354576972966	6.113939746679264	8.98265454885418	7.872652510793629	6.363337500718785	4.893089282079731	6.878023607054826	6.451717360419964	4.9644269817897575	6.522184832318467	4.945402609736959	5.318998323362813
404	1.2920241323275523	2.636205666561994	0.8551622607574878	4.743301379625878	5.386222825756564	5.0084342830092154	4.2060661209725	3.8971843621087974	2.8393866944151	7.854403475958112	7.784404258147783	6.76268194398544	2.3213806093734526	3.899165382077551	8.785800911655876	9.166718459827452	6.754207594031249	5.312036024033467	5.197899328459818	8.586617448108473	8.880614258279287	7.417662601816636	5.708193287742739	6.109168990923488	8.867349602245884	7.81334588939185	6.37202404320784	4.862250315787963	6.767397386631005	6.394970877714114	4.947644221212013	6.569516642196524	4.89868448927996	5.368486867701977
408	1.6796477990658765	2.8530795502154898	0.9136974788485311	5.018970953667428	5.624567017659685	5.239316927079614	4.637251365397779	4.631206500758499	2.7975213457048818	7.876064757489115	8.018681505938858	7.090316754559608	2.5512237484415916	3.977073182555291	8.743360497334317	9.211985564815702	6.969382268475779	5.446001515943771	5.214328275867069	8.51911351914072	8.848708130430156	7.553803901674328	5.789802059814528	6.155250056938735	8.769348122390774	7.78175399722918	6.429435713747704	4.9276022786661775	6.723050577355763	6.424787981978432	5.022311197952208	6.682388765629811	4.95648764312572	5.495904431772368
412	1.9534466217312294	2.82642006160482	1.191667553754024	5.282856451048056	5.766893849117971	5.2949461803266145	4.723740565771456	4.811259734404251	2.899223081898305	7.838957289931436	8.122481325623077	7.124726277482987	2.6831114224402723	4.133074273164844	8.671967484514079	9.104786849876392	6.970389348551361	5.596877560789896	5.17470358495759	8.44803998721567	8.749364830815251	7.606151084769703	5.883429512428483	6.21293495516956	8.661897637432569	7.739107589255798	6.4620890454218545	5.036830889382834	6.710085375056954	6.490538580719899	5.133199678812377	6.803434831608379	5.079327570488919	5.640091881817265
416	1.9311469744562928	2.4564714369742755	1.5187132320207202	5.364882932469377	5.651624665296449	5.057831274614236	4.33315037587015	4.27530907505183	3.0457565707556387	7.631034831807708	7.951621035527114	6.766222459876159	2.6145937376767394	4.247483719592297	8.486519792111196	8.792014099811576	6.678590280837155	5.665815815925903	5.045498358385609	8.3054723529931	8.5277166151273	7.48725746171783	5.897021278751589	6.216846450368425	8.498454072476571	7.623555641000175	6.38297890005274	5.105849253161216	6.65924452054054	6.501164896763627	5.184173094058438	6.850990754950225	5.174803243923403	5.711982235792254
420	1.5788217743112825	1.8223406030421596	1.6943479733604272	5.1363458503742585	5.20539616224216	4.522338855769692	3.5462629705539928	3.1909263053439543	3.08033870872985	7.183258992178956	7.469248275972284	6.080783828641637	2.3185825289361808	4.2012185944344465	8.123463610166496	8.28554914289936	6.12925098779051	5.577723012193238	4.812942015894143	8.029039362663195	8.162414530173134	7.167218667054659	5.760910019634788	6.103213771669724	8.235925653644763	7.380365829907627	6.135041221387952	5.057462679491876	6.4980330303164555	6.368316634312171	5.08104513792843	6.753088934060929	5.139702783959533	5.634150490841056
424	1.0430877182374283	1.1632367343143912	1.592574115547008	4.596475112754146	4.500236499868464	3.8085932635470683	2.622065537508339	1.9762326429063053	2.8803446220155484	6.529009802546597	6.772950155324261	5.270782934232836	1.8571708155473006	3.9405515094449846	7.589562396914857	7.66445539446747	5.458278165387873	5.3205118044991275	4.491936195476578	7.602458934663058	7.680483798662841	6.6893710921197505	5.465019212276371	5.844257339980997	7.860468367757985	6.992189389695052	5.722619519090593	4.858137595308844	6.188805087676771	6.051571353892394	4.778119075155647	6.482867701375253	4.91340540599084	5.378358350526175
428	0.5719159827097985	0.7555107455252275	1.2286584346268175	3.8941087624461526	3.729869833112281	3.1072020452251374	1.8659822893714892	1.0869063111520045	2.4353332458044994	5.805918678883945	6.044749721524362	4.572916019338286	1.3515980209558291	3.5077125937592335	6.972448331395284	7.040872079238888	4.836825358576764	4.951914774790097	4.123205174526431	7.072564584041684	7.146767121390962	6.150105937689028	5.065644251431669	5.468437181017742	7.401077728659046	6.492994292078445	5.212626920890896	4.533730018613246	5.753308758515063	5.581474290107351	4.304079521756535	6.077141746436477	4.5140786056989946	4.981969820795759
432	0.3692302694535254	0.7546883206386931	0.7451136093400824	3.2585472978337497	3.1136708180969888	2.584189170034998	1.4751958809800783	0.7877874354499927	1.8607712937105123	5.192710386517352	5.453139291346893	4.1409015550969865	0.9257191992275725	3.0186088008962013	6.402205451060106	6.509264452712416	4.39017342412706	4.569609153654496	3.7599985504586986	6.530950052938427	6.635478479798541	5.655242428806602	4.659034240403817	5.053987490291666	6.922305566476716	5.958762630677006	4.705738055746107	4.157567013734109	5.2697920666205915	5.049134241707728	3.754945745524556	5.626964554885077	4.03786705904975	4.535629261009574
436	0.47541725515497246	1.1016131611667532	0.32718342460042443	2.8845412658342986	2.7878591943926065	2.3031160773303325	1.4493348561888038	1.0351438496203997	1.3423002924407905	4.8217396614407795	5.068639265614781	3.9803647894500567	0.6537879092876071	2.6044435435342757	5.990653976574271	6.110435947249634	4.146949280759207	4.265392292697716	3.4520490082369286	6.074520572584452	6.20257757528238	5.277957902934203	4.338437546266957	4.698963153419462	6.501726610934572	5.481015191545068	4.294927109365092	3.8194513224490976	4.844397532629912	4.569897640134481	3.2590286649437408	5.244503961673451	3.6214818863034144	4.149976719868996
440	0.744983850028734	1.5529770811926351	0.10283699605727134	2.8337025570850907	2.7441246440269516	2.20776724257961	1.6171295602024187	1.53267943472136	1.0386790010931028	4.716186511530274	4.842605101756751	3.9712986845840303	0.5389932976465885	2.346156829632554	5.780982956595827	5.828371033258411	4.0446133511469755	4.087298382930075	3.2312369265037764	5.764644608248406	5.8718805164859615	5.0385198465929255	4.156787384982415	4.479787815227709	6.200583919128966	5.134254919440817	4.031512250258421	3.5908398537574873	4.567735660464646	4.238099087505395	2.928692571875171	5.019015299523029	3.384102574387481	3.9155044456807078
444	0.9386200285101866	1.8211283637797784	0.07697045783636895	3.0157728119049487	2.849670164542945	2.171142095806235	1.7533411935407683	1.9150675486851219	1.0030486558385172	4.786309707001423	4.65814875380327	3.955701579597164	0.5291015492432181	2.241405004564385	5.733430847951237	5.616280541545352	3.980484237157885	4.026403416958332	3.104148141653136	5.604724393045476	5.637899384569383	4.910561549186497	4.111683358301859	4.417777527145745	6.039723381052434	4.950472342390174	3.912639369622878	3.5003516585666365	4.475845802450796	4.092867364086669	2.8193890977248666	4.980516897978382	3.3756081972726966	3.8713376424322328
448	0.8780078865771885	1.7434751943438758	0.1394558694417997	3.262330523837382	2.9374880716546006	2.0802478737761994	1.7148659185982362	1.952194685775528	1.1686937779483797	4.88871477800142	4.421424377722475	3.8378288648984262	0.5587466941077939	2.2234799805770487	5.756482109794893	5.434890256511375	3.8775989911407898	4.035543431583693	3.055405847464675	5.549155221280257	5.481505380142463	4.847259509246221	4.158669938078249	4.472711074980683	5.994177803164495	4.912659632677293	3.8941759964852896	3.5297529608300517	4.535998809806249	4.1106910601781435	2.914170257840181	5.089182840849779	3.5569782167275013	3.9953791994310697
452	0.56230676032195	1.376099106175342	0.1424825783946911	3.438208332917869	2.9066209719705696	1.9023377847325813	1.5138555726930798	1.65889906464408	1.3971096241963312	4.908833491329531	4.1327814951504465	3.6360404399623363	0.5871573671775433	2.212163204329986	5.760415062665823	5.276507841139768	3.7253200913787725	4.061347474334706	3.0553142947305307	5.533471570349396	5.384965883010714	4.808503138799638	4.239476193214808	4.564167488018821	6.006414875124567	4.967323290681371	3.9176311394009242	3.6273310092897457	4.662608611732684	4.223855007951514	3.1368703762964723	5.2541718350316104	3.8203556441173467	4.216722954594276
456	0.17173576311621358	0.9527146196153482	-0.0035398241508787106	3.5159020335121167	2.770396464028981	1.6929566817455928	1.2863826719230944	1.2511593071820077	1.5550677737074983	4.816440570115047	3.8918802639929164	3.456098786211323	0.6097996219497839	2.1634368841862845	5.700736985118741	5.16109036096242	3.573263397731917	4.070597161506178	3.071197978848754	5.507566438121098	5.3376302584354	4.7745098947143205	4.308001030535697	4.610914218705241	6.012474044878556	5.0493807665178965	3.9360661407276716	3.730187168240264	4.7564592241361145	4.353520382379999	3.3858642492640145	5.373814092419972	4.038811673457766	4.443473804699276
460	-0.04262961809005008	0.7355676870848257	-0.27037483385487526	3.569222441244927	2.6301343374605013	1.546348687082478	1.1846085756910967	0.9908853148238471	1.5794815977272803	4.667257774013426	3.8352577589478862	3.409332505201467	0.6412727220557162	2.089295620411681	5.591146454999923	5.1123962273268155	3.4891774566295166	4.0579600231713835	3.0792317312698767	5.456182942920019	5.333331094627895	4.744313704910187	4.343403328419947	4.568970668701274	5.970800384705451	5.109560476754141	3.929277648542052	3.7872996234641105	4.750045764374475	4.442550647963325	3.574344149148256	5.37949369979699	4.122424115263266	4.596105087120315
464	0.08324909189186702	0.8488924481893942	-0.5248934613326999	3.6898326780619977	2.5912125045204393	1.5189371070659314	1.26049780527397	1.0154077981107803	1.4918581209663915	4.549812305407359	4.041793336200482	3.5257542044314563	0.6825824362687409	2.0351400323983864	5.478074059960696	5.129172789021519	3.5063359648869765	4.0311469929961605	3.069519273637538	5.39399860927575	5.361499772840467	4.721596705913587	4.344072807788374	4.446833122470335	5.876941189233195	5.1291670669756355	3.900960197136496	3.7721204662453545	4.6344656827265895	4.471220958865061	3.6575949099701726	5.260540472100492	4.051825989983746	4.631872642266828
468	0.5201024399977502	1.1976878612797177	-0.6069241150791447	3.89163183183412	2.6823954514490382	1.5808291395329601	1.4202834331893366	1.258262154263379	1.3627308572695793	4.519211757694091	4.470063675085024	3.7219600583519776	0.7027060371777116	2.0376720377020523	5.40182303018495	5.176330553337271	3.5975952057606952	3.991989364081962	3.04844974701837	5.346385465475063	5.403700338072056	4.703345286892285	4.315009583069271	4.294721592550425	5.761484608408972	5.120206343121306	3.8666613004335417	3.6859137918871996	4.458457935520819	4.454397667128971	3.640606155740604	5.062747465702899	3.8777825734462343	4.554943073216671
472	1.0509966585327069	1.5199987849959902	-0.4283195425186795	4.071536053868309	2.8280165124064536	1.6246308047284628	1.4760234318660503	1.4996421299265361	1.2555098501931794	4.558675277644504	4.964991080146487	3.8409955404580582	0.6443745477619962	2.0910830444946926	5.369008050714577	5.200735555869649	3.6878344919555923	3.92558025322668	3.033036939592684	5.328643308537436	5.437293992619809	4.676752078646437	4.257735241630623	4.172721375420702	5.6710915422309425	5.110577570410021	3.838786830746838	3.5513067155821525	4.299286831491536	4.423340309419298	3.563497295919416	4.8608484145463855	3.6878807451598212	4.408123005227981
476	1.3899617160036235	1.5426725110205926	-0.032180827029757005	4.067171086533138	2.891104929300393	1.5268262586191943	1.2622117964348036	1.5064889154545988	1.1918994158216147	4.590960967870608	5.331564412961213	3.7407653237311345	0.45581307892158557	2.1458718722524823	5.351248250802141	5.161204801880099	3.6950452234437345	3.80763958923307	3.039741508438672	5.335649953722382	5.443780408466469	4.624868858104823	4.168648709262771	4.116496075727452	5.641582474770045	5.122838484227941	3.8164529704058863	3.399884215354106	4.220375050379734	4.403382290213095	3.474264612962944	4.7187781214785645	3.5586781411922033	4.250449169871675
480	1.345606562078134	1.1505135268727595	0.4260514069767681	3.7739975357138817	2.763229363140704	1.22928571390685	0.751942453870113	1.1828236550031592	1.1537421912628012	4.533823478696019	5.437597737888817	3.385167590177639	0.13424327935657918	2.142164224938235	5.312098489701033	5.05663107549007	3.579855433008853	3.6275443939175025	3.0745923441508527	5.349415765607793	5.418961988118974	4.539347637159854	4.04778431824102	4.1204080477634735	5.679190144505418	5.160372721041136	3.787094583486601	3.2609636701268436	4.239102829720879	4.400657642698001	3.404956570611685	4.659237849869856	3.519320002253487	4.131434907019081
484	0.9298201179870551	0.46549835683597535	0.7558129410734757	3.2437174238324955	2.441178792512153	0.7867929915590709	0.09402137971028118	0.6309381707474273	1.1142336102010517	4.360488403755229	5.283349023831236	2.8776302264993303	-0.2542841726081925	2.053043598713658	5.240147100569949	4.931517588562299	3.3701507960108406	3.407055369358217	3.1263945023757778	5.3562850816915235	5.376629815832053	4.429222095750883	3.908389796879701	4.143708218603084	5.758065685993287	5.20676754590569	3.736260643108963	3.1538844028953616	4.32026623588803	4.402876842826676	3.3613278780948836	4.656734931632767	3.54350804387943	4.072409619539932
488	0.3509927979190652	-0.21095047837880107	0.8260922411088977	2.6912169388535236	2.041600699038569	0.3498413553942013	-0.45496106032899486	0.08822952933685413	1.0710338327069713	4.125858296467975	4.998863684431084	2.416144126513958	-0.5939880594515572	1.9091227006395233	5.165004240347069	4.855670916695687	3.1481316010147444	3.2006277957216818	3.1680726925018736	5.36111639576624	5.344387517787236	4.3209738622290175	3.77829145431266	4.136015881586372	5.83531044440422	5.239378915910024	3.660030355749546	3.0861453932092084	4.398414600711477	4.392689693804544	3.330227843459659	4.657172668142892	3.572343817274644	4.063538541071118
492	-0.09852056925456681	-0.5580036030032551	0.6231055243972687	2.393475764907372	1.7435593561020861	0.09062059200772386	-0.6665710193970871	-0.21499043648799357	1.0545854541855721	3.9407756229087743	4.77176712738726	2.1944763605025708	-0.7725285868213729	1.7853312447295324	5.143647657759388	4.889276492172365	3.0090498848284164	3.0724501532230337	3.1669654766233215	5.3873638970732625	5.353487001254252	4.249931801556331	3.6901910211854827	4.0670761959388955	5.874817833373077	5.248035894495344	3.57282756857042	3.055654994879207	4.416017044362103	4.364296425291025	3.297887793797657	4.612197387494725	3.553313723175962	4.07618378563758
496	-0.19555914352634118	-0.4073099185673597	0.2454569482566617	2.5364909108017866	1.6944117503301759	0.11475167394514697	-0.4653620410137182	-0.19001500260539464	1.1088368864674238	3.912273397104881	4.749355781008297	2.3043816031450084	-0.7385568600127645	1.759029383986612	5.227600084457828	5.054196821803589	3.0159985942987877	3.063640109910316	3.1034772317732378	5.46456812432585	5.428724275234218	4.248907555343096	3.6678349879167307	3.9463007350469246	5.868721947157999	5.248613344292471	3.5078065306791624	3.0564570349772797	4.358523357831236	4.334687222027158	3.268689385744545	4.51106642537823	3.4755539806354703	4.0854129688113
500	0.1035107818612724	0.1681373413132412	-0.1559180911419129	3.093307964144494	1.9296960781968333	0.40523800151555345	0.025429706956317327	0.060188717988163366	1.2512752978204478	4.081732262796423	4.966208445408307	2.6878802708474216	-0.5356336818523059	1.861419196197585	5.427523599272894	5.323772416978689	3.1702179828712134	3.164531461355419	2.984629623507015	5.607078061252424	5.579243169049751	4.334804047130623	3.7123570348471704	3.8184494875822423	5.840942844902695	5.2792105541456396	3.5045378119679325	3.0820076387793476	4.264158238135402	4.33921574450718	3.2694339669651993	4.3901572116637215	3.3793284807716044	4.087673176935477
504	0.6535327418039679	0.8961095191265486	-0.4525916266935434	3.8177041911058525	2.3544747769992482	0.831174609946774	0.5480148182384353	0.31011524718189326	1.4469659291928316	4.398448456149624	5.336379037735434	3.1685960212816804	-0.28687736319591606	2.0527207799583693	5.6982059334893895	5.63617895610693	3.413939944230972	3.3128011143013865	2.8454427647275686	5.798002228403444	5.793504700338627	4.500236023031307	3.7987270259315973	3.739773502444576	5.831308350145526	5.379632459409677	3.5898687748872584	3.1246249596861535	4.203166474220788	4.413226116482186	3.33547305218665	4.3153128515011225	3.334771863147283	4.103542317520411
508	1.2055734365543032	1.4487347566267201	-0.5854024872304969	4.356642235246873	2.7934150625273833	1.2139648168431756	0.8450105168942635	0.3493448785067982	1.611008997664466	4.74294041389803	5.7073569153693615	3.539022913580695	-0.1406940665269151	2.2355341854874107	5.9535031168353045	5.920373901678469	3.657505503003235	3.418475857686927	2.7339744498844873	5.987840160510819	6.037792667403744	4.71041725876774	3.883535852164009	3.746442308503789	5.8674912304557845	5.562802777550732	3.7584586048601696	3.1715671936069425	4.2360496414046125	4.567295062931579	3.4842660339124243	4.344288338183338	3.400356284139535	4.162234295826818
512	1.5367735585513551	1.6118401248291154	-0.5651839957272834	4.428743828082412	3.0821869295503794	1.4172074758988238	0.7941146472908601	0.11093148561126709	1.6479999977465487	4.9881667964881204	5.944495662939589	3.660731306370335	-0.20024731704699064	2.303179258253635	6.106045230707985	6.123571380413492	3.8190438650984415	3.4068317327315847	2.687463276753626	6.112417682474123	6.262570842190238	4.910225378990812	3.922694911589678	3.833484401561006	5.9432363360079545	5.797055229809644	3.965920438290236	3.2033233561701984	4.375226963440919	4.771552073829454	3.693754186841159	4.49010371028223	3.584495773802191	4.277473438907449
516	1.5510741433083406	1.3864906991285368	-0.43813249358185585	3.973245133858901	3.1472248951607105	1.4106057846694589	0.4686032521814535	-0.28431299257021886	1.507411476144103	5.062668787571994	5.9974918214056405	3.525935402551116	-0.4725443708886967	2.1956794206496797	6.109053596331494	6.227197154535407	3.857625951564142	3.2562327302736755	2.711359494039485	6.121037944598355	6.415649397864542	5.040394770294246	3.8898639580745455	3.9550030131621603	6.015875324319431	6.010969146811067	4.14019869712757	3.1966118731854345	4.571011531733231	4.95899676024585	3.899888982463297	4.705356586020507	3.8314158819739434	4.429008949541704
520	1.3065451350603605	0.975401816289636	-0.2441114777123826	3.181686154915623	3.0325722617831885	1.2747948137522778	0.08906749613447448	-0.5973225220858082	1.21826088120916	4.982398020562744	5.91421316561004	3.248208037758536	-0.8672077633897345	1.9334646414578875	5.978721603557522	6.245430453744743	3.7829461002207077	3.009099714311323	2.7721176077471696	6.000467762102472	6.458152277853668	5.056277739156734	3.7864811324841217	4.043814172071845	6.025378688858426	6.120207771108019	4.207143772947319	3.132376424510333	4.72984169719526	5.047879206310506	4.017412175525955	4.896066176450877	4.039414395624213	4.561604965137107
524	0.9701218580548282	0.6712139827947885	-0.0021814436131028857	2.4042136608458375	2.866458170329417	1.150280472712276	-0.10357209268884969	-0.6145301445704393	0.8856504537156382	4.837913024131879	5.802234635008969	2.9932658596760064	-1.244056221682058	1.6114085872020312	5.786660656624217	6.21274422030676	3.6423044112752567	2.750239842146888	2.810537331160911	5.783695206344839	6.3800215560050315	4.94473503771716	3.6399335769306567	4.04204319887075	5.9265918582057395	6.065874561253742	4.122091759764838	3.0063011570368943	4.757795798687183	4.975983130289634	3.9772324461657287	4.960845457903536	4.104891289837561	4.6060943487222925
528	0.7295870166478075	0.7066146117489897	0.2714490585626276	1.9782307098034213	2.787712090129672	1.1588388652153874	0.016223113942910126	-0.2821660034685075	0.6468627436518627	4.743736255113061	5.763207897894367	2.887953750948364	-1.4845460615823869	1.3554110492817735	5.6248497820937855	6.16713379256547	3.4927072436842033	2.562953227248037	2.770238154092857	5.537169919339082	6.206755622452007	4.730708587146685	3.4908823878843673	3.927129258731192	5.716195568911499	5.843969807175326	3.8917322060556683	2.835391991132339	4.606659400753336	4.7303280710954	3.7612316513466983	4.8370532867378095	3.9706780810241957	4.513104904224402
