time	FP1	FPZ	FP2	F7	F3	FZ	F4	F8	FT7	FC3	FCZ	FC4	FT8	T7	C3	CZ	C4	T8	TP7	CP3	CPZ	CP4	TP8	P7	P3	PZ	P4	P8	PO3	POZ	PO4	O1	OZ	O2
-200	-1.993307466242712	-2.813230745842221	-2.48672460881867	-0.7828201035762425	-2.0037345835641034	-1.6017371375651943	-2.0487122483980555	-0.827608940896023	-0.13722985948247687	-0.7197807413048292	-1.0544023487172844	-1.1957265108436905	0.6113169177833554	-1.0030701135105822	-0.13712274993608595	-0.3469175985637382	-0.18266534759179284	-0.41973701013449505	-0.07103403639740419	0.07845608870248352	-0.08607929923259132	-0.8717328884050125	-0.6687735302252664	0.08105019459526798	0.30844837349263554	-0.39662140507696586	-0.5472917542944907	-0.32144668617153366	0.8512449839080946	-0.18616250110354748	-0.5075044619144752	0.911352870547566	0.26106741958508506	-0.3084469131788422
-196	-1.7683809951003917	-2.461373561366806	-1.7500311092061689	-1.1806857556097532	-2.0920057243934864	-1.4404454194894456	-1.5598808487609592	-0.413738517908734	-0.687096594029408	-1.2081193893448112	-0.9434147453331031	-1.3123413291222645	0.42667880546608977	-1.5123960933647944	-0.7873006443173411	-0.6676745397876725	-0.45446196083722823	-0.46252640965033304	-0.464816628713078	-0.5881308302335572	-0.6716858131616392	-1.2772376505075846	-0.6271421893498457	-0.3943781842765076	-0.25577455694471596	-1.0269801590739944	-0.9997376178296039	-0.19530178557201203	0.24820731517591094	-0.8565782882998416	-0.9856234167963607	0.31507089654529696	-0.28026968169976624	-0.7808010558442186
-192	-1.5553015431237172	-2.235561603623938	-1.5228489598926638	-1.7129124359752996	-2.4038629471168647	-1.6366577107115865	-1.3669085468113389	-0.35096380025945517	-1.2904515233837688	-1.976039285439142	-1.2756972280718988	-1.6174634654216073	-0.12385594813547494	-2.0848176426703016	-1.7539895728649981	-1.3169925179609243	-1.0574132177358668	-0.7705642561531145	-0.820950029207818	-1.5305762252311255	-1.5010815820942276	-1.9719026038928844	-0.7551943044669138	-0.8029890040151281	-0.9926061009141681	-1.8212372018608636	-1.5610545834229128	-0.15389315745123222	-0.3056329481037782	-1.5418881138973288	-1.4381538593221965	-0.24184565185045037	-0.7896052579017631	-1.2262359826599722
-188	-1.323970076079294	-2.0882890171732558	-1.636220808666486	-2.276576036427491	-2.791803352936726	-1.9985327670183988	-1.3573480810227936	-0.5655570015933461	-1.804033751701356	-2.766665213275462	-1.853905553905459	-1.92929934968221	-0.7137067299943284	-2.487261050620294	-2.7275180747787178	-2.0542812295546495	-1.709671493028465	-1.1612251967675902	-1.051301715103897	-2.4729828772096876	-2.3085548819430657	-2.655299180002557	-0.9778382157433235	-1.0459247801122844	-1.7252184109045572	-2.537299388201479	-2.0347597547656795	-0.24166472195169147	-0.7111889105960832	-2.072692150604968	-1.7738755896604939	-0.661187170266698	-1.1728043526602916	-1.5696197708555115
-184	-1.0207921240783262	-1.922922367963081	-1.7835198595793817	-2.6870789460050846	-2.992899171902274	-2.1960089151251663	-1.3166562285559507	-0.8048387149517727	-2.0655724950138126	-3.229317418528276	-2.303699964429078	-1.9962352463866873	-0.9525654291898521	-2.539635890270775	-3.318530312742732	-2.5213570531129452	-2.034517521489924	-1.3786904777050542	-1.066752669502143	-3.0741622370352393	-2.7522587706696227	-2.95449256151035	-1.1364122600473998	-1.0539758178803487	-2.222130054585584	-2.882542364472158	-2.1755492632298004	-0.3961536278259496	-0.8836018420798804	-2.280889505349706	-1.873095865288893	-0.85753595612503	-1.3376429047190899	-1.7086957649959555
-180	-0.6076289996064788	-1.6495555597619693	-1.703076954356455	-2.728224747445391	-2.756288283064845	-1.934479827765139	-1.0495334837164547	-0.7872200588378083	-1.9432153652720754	-3.079907171102766	-2.267521614071811	-1.6296408135277645	-0.6040706619270166	-2.188082451064368	-3.2293257631785233	-2.4125466285829775	-1.752178664552004	-1.2225465743669799	-0.8151782730502101	-3.071904889934005	-2.5705256397197633	-2.610079758730006	-1.0690298053453928	-0.8127306083186885	-2.2854714335913116	-2.646279089922181	-1.8111774875689401	-0.47897115228841003	-0.7750954012374998	-2.0656168408694136	-1.6427019793044195	-0.7820530514045647	-1.2263345687421818	-1.5569524725705377
-176	-0.09295441931859252	-1.227625962972625	-1.3053725924912993	-2.246797317554311	-1.9760552594839016	-1.1113082142428614	-0.4871075737098994	-0.3734327545274488	-1.392349954904454	-2.2453603687816934	-1.593040819914421	-0.817273912750577	0.274464129708656	-1.5202648601295956	-2.401634925500786	-1.6342282253966753	-0.838394103317676	-0.6577070338809838	-0.3215162149894886	-2.4124197898992157	-1.7244883732171914	-1.6258299309690265	-0.7020922285473643	-0.3795087923958668	-1.8488607359936964	-1.8232766343813491	-0.954335806344501	-0.35988786725734034	-0.4073604335036793	-1.4558656178910652	-1.0853046151416441	-0.4546054590191627	-0.8557928778976193	-1.1056684227684532
-172	0.4571477163217041	-0.6860459429586049	-0.6939529163006106	-1.2507215706718824	-0.7670168261236188	0.11723779857361284	0.27150374582407094	0.3421376636926887	-0.4979675101582345	-0.9216507649994105	-0.4237610985070561	0.24304227469593992	1.3481864895160782	-0.7237628084029297	-1.0667511197813828	-0.3728882064941557	0.4370170522623454	0.15164425930837344	0.2925647787813797	-1.2980788913378392	-0.4506345081872847	-0.2990930370885669	-0.10648369762238986	0.11871830344028966	-1.0337096426614354	-0.6581426246239026	0.1607208992953372	-0.00859560070251847	0.10729169073434447	-0.6326946600198786	-0.3389334372069432	0.016354795504047694	-0.3397862604622363	-0.46626254798471123
-168	0.9350026226279012	-0.11407253117371025	-0.08848665632318538	0.0425631961641962	0.5576302395093248	1.3913485968747556	1.0066330407476805	1.0801641913799032	0.5270218239829659	0.48888370271275455	0.8554999806739325	1.2156444757287053	2.173036569830993	-0.0101628042500925	0.3364517084210184	0.9705511307054167	1.6216545064037629	0.9101226902871525	0.8327349403337646	-0.11731887579146387	0.8173485973702921	0.8969947077038729	0.5183423744466213	0.5175235258387645	-0.12238286404705392	0.4304478157619786	1.152524349163825	0.4647473979183462	0.582211969813015	0.11758919030541838	0.3497206559888359	0.45111924295969674	0.13300341334141424	0.14533214234375735
-164	1.2304006783892034	0.37212988640291533	0.2952083341774611	1.253412839585986	1.6031734902913652	2.2995834292527038	1.4906868896995122	1.5369853934583522	1.4010225499066669	1.537605281762451	1.791007871874319	1.7772327616643468	2.427120202612345	0.4606122362905266	1.3433831896243358	1.9510891388270253	2.2910261096331954	1.332791205855912	1.1010092469074138	0.7184498887996443	1.6290038782953027	1.5281612834495029	0.9323385930363911	0.6723624450874212	0.5516823516268503	1.0228897307319658	1.6535780388091255	0.8529350140017891	0.8172466734279835	0.5113446699583685	0.7198315244620496	0.6590055806687819	0.36722305324345944	0.48932206507164844
-160	1.2759954897136017	0.6710757000192588	0.34331199440108856	1.9789315412149209	2.0518832154921003	2.551181786771776	1.600180383456881	1.559825416441458	1.8731242370997343	1.9115880679504984	2.060129160448088	1.7651674702900846	2.0728530831454552	0.6225710495489173	1.659114833457622	2.2694568576734926	2.2445700111939675	1.2871162858891376	0.9831992958994659	0.9532716846240126	1.7123329596202563	1.397782441424857	0.9688230728484515	0.5188133703484473	0.7481272797769621	0.8865810014275222	1.4771901331799382	0.9565752720523478	0.6810559017152525	0.38799551031381674	0.612960694672821	0.5179861770903429	0.24493321714550384	0.40927874938628717
-156	1.078552124161378	0.7338033896039285	0.08588381834996336	1.968281264104054	1.7958186819512842	2.0939567036213487	1.3714586461727147	1.2329877583845028	1.8218605472343508	1.5575196703687884	1.606256600139233	1.2498536078368547	1.364647623431427	0.504052756944247	1.277487751596431	1.8930071544537097	1.5883220394087567	0.8550618865359394	0.5121518360558789	0.595567284510894	1.0910298796764446	0.6308359487818956	0.6183725579861837	0.10784418853711443	0.4294136453754142	0.08612962045381589	0.7060679775531347	0.693893430865275	0.17693060591849702	-0.21451707130154374	0.0529050900196448	0.03637302657719236	-0.21554154103219542	-0.08804222919170095
-152	0.7226946335666068	0.5818191156002923	-0.3293786636619596	1.2478692500080024	0.9824487542143491	1.1276416750094238	0.9715212559013316	0.8210514763129696	1.304386016413468	0.6917843205152228	0.6484011395296315	0.49289318794738257	0.6976593715219657	0.1960004116116605	0.46711295725189705	1.0508362028293765	0.663803218119285	0.28715303467730624	-0.13386702503738446	-0.09799484138781402	0.06450589729950627	-0.3984278728439351	0.03892813985652127	-0.40793493287089644	-0.2232429826583734	-1.0438163254133233	-0.3446690729499084	0.15359519383275233	-0.5469028339883132	-1.0717711421609812	-0.7564933876965136	-0.6403703673407398	-0.8606961943830423	-0.8256604650632349
-148	0.34005945835087453	0.2999060742435729	-0.7049977761588945	0.12898600068905114	-0.04653061169558989	0.014558938295144241	0.6026877149624296	0.6042243823055042	0.5337409363622421	-0.3020674280646388	-0.429023413767055	-0.1850888128375968	0.3879635920266201	-0.18762077343777922	-0.3636180749295783	0.11403492809353251	-0.1321586665154678	-0.1234269437057872	-0.7028024178880701	-0.7530244569839889	-0.9361018514840737	-1.2527681557497232	-0.5119348751494442	-0.8358021357415175	-0.8969361759428514	-2.050610298701491	-1.2704936233868553	-0.4387146819482296	-1.252766248401095	-1.8689063740274976	-1.5166504344795415	-1.285872336955816	-1.465283270951089	-1.528967853500567
-144	0.056750189369687606	0.006153604000171613	-0.868648467254963	-0.9202266312253876	-0.8942781664204483	-0.8651770927520087	0.39786448974294053	0.7012374979434433	-0.20992483145641805	-1.0367799971153533	-1.2444992034009104	-0.554110942872092	0.5106706606369501	-0.541247604910947	-0.8540720918072983	-0.5733537063427958	-0.5356656895464694	-0.1826368714728233	-0.9816536878596974	-1.055706855969545	-1.541953559797127	-1.6322487551486824	-0.7895089964006938	-1.0263788674190184	-1.294591900417993	-2.5652673179709544	-1.7547132924600335	-0.8248561003840218	-1.7115433172882657	-2.3354463518306154	-1.9623593042419911	-1.6879121022524086	-1.8285083724586555	-1.94438576207393
-140	-0.05667490497823607	-0.19057637404963315	-0.7360672932160717	-1.4845793209740876	-1.263735767988573	-1.2510590521697487	0.3635390987754503	0.9931404565532304	-0.6946731192216133	-1.271207329401594	-1.56448578439539	-0.5652052745854145	0.8835223890885953	-0.7856595496368837	-0.8400416352997531	-0.8279653170662352	-0.513015626565783	0.12423031745778339	-0.8944734312362396	-0.8886480308984692	-1.5935068090260984	-1.4856797419231524	-0.6651291830436107	-0.9379570460480238	-1.2676672903480317	-2.451829904088045	-1.689615006949342	-0.83315914658956	-1.7954366161792386	-2.351316684508442	-1.9668266723566277	-1.735445256620009	-1.8536996794629246	-1.9424344252182
-136	-0.011797493293897931	-0.2285170549345245	-0.34070357594301354	-1.3904092276754672	-1.0640236112433472	-1.0803030702018792	0.39905568856576923	1.203850623906065	-0.8248434045947167	-0.9861958598033382	-1.3662679160909104	-0.33945178899892364	1.1981372803001895	-0.8759927131470652	-0.3997021903436932	-0.6677632314988744	-0.225288509753772	0.6455811841877827	-0.5357838855567606	-0.3626836231134714	-1.17522155941841	-0.9865164731867756	-0.1749489153974917	-0.6512266381034304	-0.8707029797505388	-1.836646909845029	-1.1882318228285553	-0.45201370005926034	-1.5224258861251163	-1.976613397376169	-1.576455112291806	-1.4570612870622406	-1.5754160841267049	-1.5581181010008223
-132	0.10498613092618916	-0.11110538961254082	0.17561840966707978	-0.7772756795332341	-0.4297509778616689	-0.48745208855583133	0.3730709245322533	1.0820462676385791	-0.6624540073835558	-0.36549192574729605	-0.80882370267746	-0.07307375949053244	1.2129492729080564	-0.8084725717159746	0.21305826252551038	-0.2566890412048735	0.10265452388833277	1.1540820569464525	-0.12132544784908583	0.26153153115045685	-0.5349092470015347	-0.4024294902654726	0.504666446365305	-0.3262098125327989	-0.31547567168694474	-1.014145967784071	-0.49431100362907515	0.1764562870577332	-1.0337568495399783	-1.3979091608993295	-0.9665470098888049	-0.9948434208548085	-1.1256524295997123	-0.9553441381176205
-128	0.17107820467671164	0.09726195757866736	0.6063643678614722	-0.015981873457016554	0.346520691235181	0.26040539079723624	0.20862369186657873	0.5748823270588461	-0.3786968281244641	0.29773977323700307	-0.14344419502758585	0.08163621256005887	0.8942575432134081	-0.6256999953685015	0.7043406945565496	0.2020226711894657	0.32293361343866883	1.4614480696973444	0.12027587711246648	0.7138350587942058	0.05837647602124607	0.059292860179451075	1.138157603251306	-0.12244001745066863	0.145978897441421	-0.2867450706871711	0.15235708615460383	0.8324274995767894	-0.5190020786533298	-0.824769792858605	-0.34743875177401606	-0.5296404944399165	-0.661583481548809	-0.3398113242153011
-124	0.08276883491838245	0.2945594184114298	0.7547788600938783	0.4838635015192221	0.9350316500898336	0.8620722272088528	-0.07125519198070432	-0.11386219383340954	-0.16494868654090392	0.7216565590758195	0.38645893237770906	0.09189498401328776	0.4265188265999166	-0.4119644154637961	0.8740449525700126	0.5603747949757231	0.4323679495862476	1.496796008145697	0.058959387093935896	0.8412772395828273	0.4384601105110366	0.343054025499152	1.5287898740317172	-0.1230749261252131	0.3453346780164347	0.17318615273619364	0.619947253092529	1.3192417588304897	-0.12955962088776005	-0.3941414942327021	0.12689414588361783	-0.198474004363594	-0.29597645923274224	0.13122840192564578
-120	-0.20248696156877138	0.37494066262949194	0.5139391409296012	0.4786095309094707	1.0904406281596828	1.0760320397866372	-0.3660436859425888	-0.6262449010296625	-0.14561845325421308	0.7334610801298477	0.6139547213312305	0.03623601785094144	0.09061214304934828	-0.26901635459690676	0.6866765004940917	0.7631294708058273	0.5354132638764829	1.3145215478133543	-0.2777801745077179	0.660822330236949	0.58956926912229	0.5316383825230986	1.591781492982786	-0.3003520361946564	0.2664610140748702	0.372792183411665	0.9096892453114402	1.5386738738312864	0.07575400154538046	-0.12931887772812006	0.4042872180268193	-0.045620161924815356	-0.06464254094730887	0.39843025702972007
-116	-0.6501008255757552	0.26024714046575714	-0.07990864644141184	0.0011359234311809601	0.7300372105286594	0.7846717814661598	-0.5694990143702586	-0.6567488892186385	-0.33286926066280553	0.31386169711979156	0.4731560933564821	0.027461316367196002	0.087603762524679	-0.27376586129687525	0.2578154199766726	0.8242419937304514	0.7371190767751227	1.038176176311047	-0.7245668750589196	0.3227536968188685	0.607124446289729	0.750836966526255	1.3715590203942631	-0.5358535633863271	0.031385835180911204	0.4478774953501598	1.1028331490329357	1.5066046676744604	0.13245144452986532	0.035620469510029194	0.5206282125679864	-0.025298653106593464	0.06089508890632281	0.49263897413805735
-112	-1.1626498669834144	-0.0782441569379391	-0.850693998573182	-0.6785473210369243	-0.05310444520417337	0.019670177201438117	-0.6430415494896048	-0.14420105480503287	-0.6394303424903605	-0.416196226022875	-0.008109659867375362	0.12025337635912058	0.41400423541447184	-0.43667206057925645	-0.22302991095500052	0.7741087655550237	1.040927288288354	0.7840425948374994	-1.0637937757336735	0.01606154996571889	0.6092880948896129	1.0591925355872094	1.002460596414648	-0.6821308118764181	-0.17876213743853106	0.5541828260735097	1.2742947307838748	1.31188916828814	0.1295200732060514	0.1919385338944072	0.5498068914837277	-0.0441622397678708	0.1347277757104127	0.48944878454612095
-108	-1.618115659443093	-0.6060840472178012	-1.5458070000721271	-1.211830970565604	-1.0364248726426781	-1.0507174703772837	-0.6411468966509131	0.6686910373971056	-0.9327981448464492	-1.249211904232823	-0.726166842534586	0.2652426355340926	0.8618193247017094	-0.6843460184939026	-0.5854299053670243	0.6228179319869536	1.3210666146303256	0.6045486315722637	-1.1300033302387518	-0.12731124428554175	0.6583389027186524	1.3925453389295346	0.6360911114845395	-0.6333453639252487	-0.21986561958115367	0.7689757923738609	1.429532405105072	1.0519677374029357	0.1540316041395347	0.3952260007416522	0.5522962198618422	-0.015689184849585966	0.1998409474810992	0.4583954203476372
-104	-1.9104818057462603	-1.2186634509789567	-1.933286423570459	-1.3603577579484836	-1.9477097938953718	-2.1650280897791907	-0.6713274104335097	1.3560951913927781	-1.1008144589287796	-1.959182495892773	-1.5185652932927611	0.3382782629532262	1.1402220697225343	-0.8836147762877639	-0.7413721661923326	0.3645388176774215	1.387878056836826	0.47859513638779383	-0.8826475717194356	-0.08221867659791401	0.7350678425350012	1.5948892791535285	0.3729540398241439	-0.3722062399526799	-0.04950108739156802	1.0549651357718328	1.4994569979003312	0.7824919204029378	0.24920110341574195	0.6382706745245383	0.5483831749422173	0.1000554857112056	0.27149659326671594	0.4327004838986099
-100	-1.9823386619109695	-1.753419752462384	-1.8951461267307188	-1.112733361295843	-2.5514888699008833	-3.037244073828888	-0.8173055032122283	1.5386731585755509	-1.098544594852174	-2.364589446773516	-2.187561268051768	0.22321498337656084	1.0424393389131987	-0.9047035552071456	-0.6987292748929826	0.012687029284989701	1.1044821711311283	0.3472229531581516	-0.41467121138782453	0.08096782097639636	0.7707218508335029	1.5130315980857851	0.23099471570345365	0.026446048103558287	0.2658095055067977	1.2972135511071747	1.3914431298411307	0.5081935512109836	0.40408849614163983	0.8674561955485312	0.5273938165700699	0.2880430810331676	0.34594741376317867	0.41301539436014467
-96	-1.83861875069851	-2.026396031031913	-1.4640306197396522	-0.6673613769848132	-2.7144381931436508	-3.4361231240303116	-1.071653601801781	1.0934818955470238	-0.9564036702804728	-2.372284644813169	-2.5401215489151787	-0.10322792802020492	0.56146854020459	-0.6922093612360429	-0.5310701118412448	-0.3679175367603065	0.4823671865205585	0.16128657717514985	0.09951681618598861	0.2501907640339327	0.705356357700958	1.0935063334513202	0.1555037792571252	0.431043325766426	0.593149720124908	1.3794876302222676	1.0569499704378422	0.20923183805568663	0.5696352705878712	1.0219547722763795	0.474369435304789	0.49474593872090306	0.4174947430083508	0.3892933418458794
-92	-1.5373581609058362	-1.8945512723773623	-0.7948043922384596	-0.3014208964843925	-2.4352800784614943	-3.2564139283933353	-1.3264803852923164	0.22559393885399115	-0.754658458711736	-1.9974389025802426	-2.447499269028178	-0.5420887456558936	-0.11209870101521484	-0.3062891654387761	-0.33125430261901606	-0.66782271693421	-0.30569839400357635	-0.08741475619657343	0.4812851536043603	0.32992911255507057	0.5289258943555084	0.4239349950577493	0.06259761734893711	0.7043656689026474	0.7942963222476769	1.2485089270541168	0.5321149812615192	-0.12085118859296663	0.683422086897572	1.0648472282227741	0.38956174156062534	0.652318535588314	0.4847079205196231	0.3584267786036501
-88	-1.1669390172106227	-1.3294364180378437	-0.09506485587198764	-0.20767202920933636	-1.8359161569019278	-2.5623619491733582	-1.4362211191155894	-0.6472781880248983	-0.5795267209680185	-1.357192632109612	-1.9082244586450259	-0.920560596049221	-0.7027677279848984	0.09517396217397352	-0.17350953773560607	-0.7839778641934367	-1.0047068570519821	-0.36259964016919494	0.614551483033215	0.2753734283647312	0.2817219190637297	-0.3030913464523277	-0.10590060773576616	0.7501155119077151	0.7766640762747379	0.9330248213099577	-0.07034802419067444	-0.4509423065721277	0.6908306462012244	0.991244611621646	0.28948321865427223	0.6994551998598694	0.542320846142063	0.32648262299124714
-84	-0.8175373056751746	-0.46510249258869907	0.4566920388135467	-0.38977619907198574	-1.116134044690272	-1.5793688257396499	-1.3134231534222065	-1.1264443369081987	-0.480904548146108	-0.6361492260130488	-1.0782333585219241	-1.0901113721027749	-1.0050325368302127	0.33246606504424037	-0.09505609398922778	-0.6860735995137108	-1.4037344420278106	-0.6056990012135244	0.4775523233277588	0.09539756154770326	0.020883573166454155	-0.8806301929174611	-0.3476917436881265	0.541429220263119	0.5182756768492861	0.5163235055285312	-0.6102992280810298	-0.7184124570828199	0.5586500153742122	0.8163198212040662	0.19223256360634186	0.5959737285825912	0.5688638076724911	0.29730409308711736
-80	-0.5542243705108132	0.4141926456961312	0.7589080910595577	-0.6753635985489297	-0.4874486910910877	-0.6281785353059389	-1.0010426019190215	-1.0483514044042537	-0.45383176092960914	-0.0314643680254948	-0.23887693821677897	-1.0166363690457887	-0.9911440585861638	0.2978331737151303	-0.09765966211934644	-0.45441082005214006	-1.4392747842690126	-0.7682303170835372	0.13330021466932396	-0.16567136305465854	-0.21895085219893412	-1.1806551188224161	-0.6003106817347885	0.12538802592091347	0.06665889156916356	0.08760577418143509	-0.9800717209867079	-0.8589677788982094	0.283877968071424	0.5593210444633995	0.10179926429319061	0.3339361838015913	0.5260144458841605	0.2611335509382964
-76	-0.4013409604430103	0.9664320921339681	0.7903997282099684	-0.8294061997453976	-0.10353688124503753	-0.01564506623669267	-0.6682904345805817	-0.5658389315624218	-0.44741061216881295	0.31008693497569645	0.302983491847879	-0.803554890511197	-0.80861234460762	0.018396025477097858	-0.15730844398359456	-0.2526304417430746	-1.2150762050468515	-0.8313635566702349	-0.30431541723666705	-0.44704946762703063	-0.43784004339300375	-1.1973445385266783	-0.7727227191489162	-0.3906831731469206	-0.476351289738567	-0.2920573942440102	-1.1405647964291277	-0.8419285395346436	-0.09842837577049325	0.240515514601001	0.005743523113829706	-0.05219779522949368	0.37799715900353464	0.1961131239946462
-72	-0.3376197508394103	0.940442440519593	0.5886612519660742	-0.6933607441562623	-0.009281429438701482	0.08244869092152152	-0.5219435678655687	-0.047002892822565596	-0.39292123814561875	0.34352925333074635	0.3493405869723852	-0.6282101257675902	-0.6749968511705526	-0.3469249895396717	-0.2329592698891293	-0.23958589076110873	-0.9299737191562535	-0.8060328344021881	-0.7090281826237859	-0.6813200098955855	-0.6472450478424869	-1.0237827275177362	-0.7926363924995179	-0.8662602879587771	-0.9764571165227198	-0.5913573488563925	-1.1205840082486782	-0.6925076824823906	-0.5124592172082095	-0.10804366293093225	-0.11342657328816844	-0.48208477971432573	0.1209973391815869	0.08199586698572554
-68	-0.30487117094314964	0.3146786979836651	0.22984610439920944	-0.2720431678579263	-0.12748940256832558	-0.3008066706215329	-0.6778302771620867	0.14563040398546037	-0.23843678771854637	0.14441731535689317	-0.08129036406020346	-0.6251460894060024	-0.7362994533068856	-0.5798141941690445	-0.2724507146155491	-0.4645638156129015	-0.7558204512586985	-0.7187693100901892	-0.9722800230274067	-0.7970291952037286	-0.8282380679200388	-0.780207155165176	-0.640007077031751	-1.1617654532664703	-1.2925701108723164	-0.7836724499943787	-0.9830216740584836	-0.4822345661862681	-0.8492246844785334	-0.4264547516069448	-0.25589665705923004	-0.8387271144671954	-0.19315345536579662	-0.07733078281428765
-64	-0.22960253001894979	-0.6473236067641025	-0.17373298064714368	0.2803591780736705	-0.28905883358454293	-0.9199152565618671	-1.064837691479634	-0.1289991137108686	0.02482240454545991	-0.11526370764479721	-0.7308937292719193	-0.7847582678055105	-0.9713659261974391	-0.5090006577038495	-0.2195674473464176	-0.8087578395451493	-0.7354296427278744	-0.5876969680253326	-1.0208271716093658	-0.7252784353064518	-0.9054632760075346	-0.5378328548203862	-0.34834587486056245	-1.1742050618089768	-1.307682034051936	-0.8217123726125705	-0.7813591341318415	-0.29401311204112024	-0.9910612677347799	-0.6243232472869555	-0.38752004406364393	-0.9962016914965207	-0.4590601611468164	-0.23918290375879975
-60	-0.05012129234534158	-1.477009173478857	-0.4733441460102737	0.7598597984202835	-0.3006609968700696	-1.4022102320554626	-1.427906032771837	-0.7066827398577958	0.3559783688140706	-0.23118734301372018	-1.1927711933538987	-0.9330049729632975	-1.1978653639114107	-0.09594850217913241	-0.028960172013836712	-1.0193110678686867	-0.7595698218241834	-0.40754315154177695	-0.8277320244871734	-0.4203962375040465	-0.7656332831125856	-0.2849354140717144	0.019707765380454698	-0.8692474939334434	-0.9655213331640996	-0.6399632080133071	-0.5346941338390835	-0.18185570790153047	-0.8527711608337152	-0.605290351769976	-0.4451097834793247	-0.8638963081483088	-0.5544905052490634	-0.33098500883460075
-56	0.26162579589593116	-1.696925755031165	-0.5001823889501735	1.0302294466710764	-0.02344285504561652	-1.392999407112287	-1.438648935500451	-1.2065111368235422	0.6803224665631431	-0.04730849701142835	-1.0862461301081392	-0.8128144124490311	-1.1767008274887107	0.5448414073539609	0.31372478525108816	-0.8308338501934533	-0.6350397451580008	-0.1523309495179358	-0.4204046417589386	0.1109480259001505	-0.3190591029217939	0.049130126709874065	0.4061682810065366	-0.2997847787917612	-0.3017662159930269	-0.18993286740510154	-0.23101659060803098	-0.14460793101040362	-0.424408255936071	-0.3114182941203606	-0.3630181541814287	-0.43079203258468746	-0.39723291892849505	-0.2808592014374288
-52	0.689369557547534	-1.0463546488093194	-0.11538167268709046	1.0953038903239178	0.5702714309599528	-0.7038593274465589	-0.8637245275624997	-1.2384383647168715	0.9244794822240191	0.4806993293546645	-0.2385304862198967	-0.22960077168193335	-0.7567918281521505	1.2028483122020526	0.7773423771305693	-0.11600821435964571	-0.20478050359045422	0.2069630468626843	0.12079342424174452	0.7913926819847746	0.4301335800755161	0.5318668471259458	0.7785838822734614	0.4024435569616041	0.5501360879359911	0.5130625950257475	0.14892370961259782	-0.12870499459196702	0.20834985322801078	0.23725435077847754	-0.10703642639315775	0.21512901728674647	0.008908176772157186	-0.053950529409333585
-48	1.1784654825974756	0.3742211451619024	0.7153198700964568	1.0825002166120425	1.385059233983225	0.597756682317256	0.2954846911122645	-0.6213399156141899	1.051077959267975	1.2649977175245715	1.2127072780508794	0.8171634057394425	0.021407347118450347	1.674398298804472	1.2846800056447394	1.015392420112467	0.5460599647086725	0.6721848828510836	0.6790620071432603	1.4815129004267147	1.3479179109873984	1.165015575328577	1.1237447233438476	1.0642209026170555	1.3894308770385941	1.362310286897106	0.6026083811804339	-0.06082068740866978	0.8809532500913281	0.9313678121893854	0.3002461783458026	0.906084058381303	0.5636650309636624	0.3227821580366769
-44	1.6565599399704203	2.122201198941884	1.862963910167684	1.1514247626797849	2.239670032568643	2.2003867570635762	1.7715944007014095	0.5085778223548805	1.0747843953653486	2.1172053760480027	2.8525035309298348	2.0929319805709574	0.9210293269745512	1.8576462221928287	1.7306846336538177	2.2295050564743124	1.4558843337494773	1.1909663647146567	1.131980535510249	2.019468779233607	2.1966409627767685	1.8569984389150453	1.420224543800447	1.5256447753534395	2.009856457404238	2.1742939894139997	1.087627050514809	0.10545730564194902	1.402332063949076	1.600499506724203	0.7771643976617194	1.4490241967810187	1.1040675612231174	0.7617762069542634
-40	2.056488508754399	3.59952043578208	3.0407555026530306	1.3947957718919923	2.9391200468244305	3.6619923022320195	3.1308829705346115	1.7541946128425077	1.05582523079377	2.8224637437131976	4.152457703596863	3.2094211497339047	1.6083036620542308	1.794267173051698	2.018942112593701	3.1007132451926918	2.2465836945079753	1.648857708582701	1.3928141558767928	2.281904930075536	2.7231764724642398	2.4495863852643636	1.6135404069216854	1.6968871312214482	2.2744486274515388	2.7490503718587536	1.526607032736264	0.35440760761427054	1.6273565251271596	2.075500483041115	1.209993240162529	1.69844090509753	1.472034331419884	1.1470024556764848
-36	2.330607169942809	4.317199219294212	3.891158570955798	1.781707639964206	3.345618954794701	4.576423156628016	3.953560819180816	2.6344644956832113	1.0657330724511893	3.2192416109823037	4.690896022397348	3.788272371264389	1.801859493474729	1.6331843096507148	2.095747942401616	3.299469224228845	2.6427509717975437	1.891296024315818	1.4413177930681758	2.2321455422311955	2.764723055535004	2.780797712934605	1.6173479516203244	1.5884332616756267	2.16565584589638	2.9457194730772995	1.8288487149794637	0.60302215662342	1.513135071748854	2.2527975979194106	1.4945155344423482	1.611186142668291	1.5795355995353104	1.379274007175932
-32	2.451533788213548	4.106998910071498	4.125504960134639	2.1703598444501777	3.416525355296222	4.722366797922141	4.007466306105265	2.791148893938744	1.142016169525744	3.249715081593232	4.327764977019	3.6261107830049846	1.3947420085025408	1.5384634694357604	1.9650123069742456	2.742252819767151	2.4886453088870626	1.7773675873704884	1.3255782093912738	1.929678316012735	2.3181695879582196	2.749626629562987	1.3496702875393705	1.2980869975695082	1.7846560433152217	2.73530411029678	1.9179062794900275	0.7324481587990921	1.1317422361410385	2.1301481670004327	1.5754017790119947	1.2573409048760564	1.4401427471040404	1.415496822598089
-28	2.4038386284218576	3.1759917655867382	3.6519408133810543	2.383871072472515	3.19807290223448	4.133968342834217	3.331984988383201	2.1295876449223803	1.2613432375533296	2.964200489189697	3.2551536477873864	2.780830614698438	0.49424138540415324	1.5956894119029732	1.6794128375567652	1.6291621882314264	1.8099561884005757	1.2432289092146644	1.1341342897391253	1.4974911175113126	1.539483066486714	2.3540418088606927	0.7870951275026745	0.9631879901409686	1.3015086617988454	2.2066974584178825	1.7559846595298827	0.643144009873715	0.6357477291268554	1.7990105106709477	1.4657664262004186	0.7849852422922422	1.154093858666088	1.2833973136924115
-24	2.176639074552122	1.9773991058016145	2.6213080816844454	2.301348680407915	2.7830426622697573	3.06267809094607	2.1951420251737415	0.8333494046152028	1.346570488391008	2.4797282156325986	1.8983558368437699	1.53579234689154	-0.6363818629410197	1.7658424332858171	1.311630484130468	0.3479928961550938	0.7925875166909255	0.34609597833990624	0.9507003998595389	1.0629472705707106	0.6717662198272383	1.685158844507895	0.004061535456207983	0.6995288712006257	0.8793141223641433	1.5234929284731913	1.3568340505675485	0.3084150246939679	0.1926696742676986	1.3987909520119104	1.2389073340607804	0.3558133533554266	0.8563454725579367	1.0661119195724253
-20	1.7644604399955441	0.9763413643028583	1.3621337379397271	1.916452402998337	2.2629210891810825	1.8565956307266702	0.9581014489779686	-0.7331635337438802	1.3069214787865222	1.9211023997441041	0.7204640489508091	0.2662141912414785	-1.6992458062185447	1.911846036852435	0.923370657020062	-0.7040553075180855	-0.3027679912552376	-0.7338049989293334	0.8154869655047224	0.7053518277479665	-0.05929316937854506	0.8881958104597001	-0.8326106050450771	0.5560290203361213	0.6100216492510117	0.8568739869418257	0.786101577681422	-0.20136319050017462	-0.08035062233188607	1.0578280660624562	0.9982385014126429	0.08250069597395675	0.65563553406169	0.8661543705052785
-16	1.183107492320863	0.44124022014795367	0.24654300448637206	1.341408130120045	1.7047836737506445	0.8227964022843637	-0.0707329733374038	-2.1588950102658666	1.0955046387670146	1.3794747556190288	0.03003705285356513	-0.7151151281421703	-2.474983924339035	1.8853497457587483	0.5521215186484466	-1.2877660957248385	-1.238380786630164	-1.7392603115038705	0.7147950512005344	0.43999630101695425	-0.5278805480980769	0.11638580978334448	-1.5172272882302213	0.5069479929522571	0.49406647557450145	0.3297574511785509	0.15107342562680076	-0.7387774568025214	-0.1516949679597881	0.8498338439465999	0.8375151136233926	-0.003926082969975317	0.5942406043308329	0.7643138746991687
-12	0.49197384590868803	0.36478167680194573	-0.4506356704778549	0.7565999608011029	1.1602599591525344	0.13341830637148702	-0.721439896192608	-3.108326188822763	0.7498095612668555	0.9044467783981015	-0.12031850188395386	-1.2575579849917804	-2.8784916328234496	1.6244573552126043	0.21991582159308898	-1.396899100591516	-1.8670412254878952	-2.4222695766327704	0.6030352100405928	0.24302568970357305	-0.7314285617481385	-0.5047141896856496	-1.8878408622762015	0.4822515833123085	0.4688099014843681	-0.005138975089479759	-0.42126157773471085	-1.1382855148186712	-0.06816440803484111	0.7833061198485141	0.8088057616794279	0.05368142188943272	0.6453772766985209	0.7923136333488741
-8	-0.19579511831441118	0.5434478507626307	-0.6307949407863936	0.3353739670392332	0.6911382061674889	-0.1872080708783964	-0.9585697030661418	-3.3926839742834174	0.38803785941382274	0.525584040745324	0.09698950474808693	-1.3772463763750822	-2.9438726827682418	1.2067257135441918	-0.04605844605261314	-1.211672541420191	-2.145601982421621	-2.6336367063786605	0.44245406873573984	0.09600172912678245	-0.7517175059412986	-0.8915181137464476	-1.8959021520431412	0.4159303595055256	0.4635871935107225	-0.1516205515609739	-0.8135582188093052	-1.2865579095782915	0.08412323870877471	0.821691153359084	0.9095841027183219	0.17620263949253193	0.7428396325429978	0.9281203723362867
-4	-0.7318245154023818	0.751407263766026	-0.3615757515838283	0.18314304901613915	0.3852005889227104	-0.20571233280219764	-0.8190786817851745	-2.988732330405836	0.15865316946981584	0.28100788522344566	0.41691246523501013	-1.1860207289315499	-2.762968294797247	0.8261815288665457	-0.19860520908757456	-0.9681427454347029	-2.1051626152294087	-2.3758327900984004	0.23637355804369417	0.018890922841418432	-0.6846952421067599	-1.0013164256564284	-1.623891826344403	0.2862582497521972	0.44776037222347187	-0.13919505441808225	-0.9493401026599093	-1.1719195813154795	0.2275218063809002	0.9174426174842477	1.0915633412458374	0.2930946640720951	0.8231663683135504	1.1127566071072466
0	-0.9772713159682961	0.8899940825880335	0.19717940638350226	0.30577209514665504	0.3387323311359787	-0.0022385360150891064	-0.35345297962595806	-2.0289173074995466	0.16459086495805947	0.22405120673832593	0.633965371438637	-0.8042223433217066	-2.4259171424652357	0.6995699388007723	-0.17944361224168873	-0.8242981413056881	-1.8125807001126994	-1.7998353197432673	0.03387886649757298	0.06526580436440975	-0.5856204614158902	-0.8327345231012523	-1.242929455480069	0.125415354650474	0.4423091698446567	-0.0006640377088448362	-0.8191559294046085	-0.8884100891571266	0.3232526771013459	1.0375131342442396	1.2839723793037525	0.37016868497849986	0.8555897452687375	1.2777157989667658
4	-0.8612375833701703	1.0206773255327788	0.8765805341523559	0.6186178907034597	0.6058228000604103	0.37494954372154105	0.3821818222887152	-0.7788844088916602	0.40397819774676147	0.3964382698063558	0.6918805224116474	-0.31542715350622	-2.000640625670914	0.9474450921933498	0.04690888512212126	-0.7971452454468133	-1.3504220213173799	-1.1461794347435041	-0.0965771076625078	0.28001263666982135	-0.45962861064260413	-0.4334797848247582	-0.9314499473896785	-0.0036296816451103983	0.4919416295982683	0.22904077114452123	-0.49026620264250687	-0.5918535575228948	0.3738718619444005	1.1676963538252265	1.419449445001745	0.4110713292710588	0.846360502490373	1.3690164054638538
8	-0.4261666525571503	1.2729968992518121	1.5388828477153413	0.9892356966792083	1.1442329854686333	0.8974791146507396	1.283128377535864	0.4070012559151696	0.7636833171636819	0.7829877118369278	0.6708421094169738	0.21798407976427933	-1.5509494503917851	1.5167248210760333	0.45364773158932975	-0.7961159328387859	-0.8195012787155651	-0.6513012631185008	-0.10700509670182679	0.6482377035940701	-0.2943344704826154	0.09278356260477524	-0.7964243868747197	-0.04514631990120853	0.620389638764935	0.5001009094009713	-0.09063080675369645	-0.42817541848797647	0.40497019784725374	1.3010711637072987	1.4551243745305098	0.4395612765181594	0.8225750902388713	1.3615086044269011
12	0.16930837886502553	1.697046990878332	2.065726513415523	1.290273663124208	1.7963899328653692	1.5049772224576219	2.148890013037709	1.1630046338282218	1.0711561414377415	1.2800737587081268	0.6931020599985902	0.705847678786601	-1.1686851948795538	2.1891388837857	0.9339109039569515	-0.7199103814068883	-0.3478771439352322	-0.4652368712600059	0.0003375317601812747	1.0715384456283656	-0.10497315946540267	0.5944938048611995	-0.8409058430421695	0.018234491302228935	0.7997219542339479	0.7390514593538621	0.2308337831629664	-0.47093242287946085	0.440367697557612	1.42329096434782	1.3821960652740233	0.47593995808601053	0.8083574155425592	1.2606550423264904
16	0.7007635814140306	2.170786613705692	2.3324623049021143	1.4461029731479522	2.3308026731771787	2.0642404504157352	2.692988388891776	1.2212985723178236	1.181469199058703	1.7096776919115062	0.8155850151451305	1.003549573271945	-0.9799712275558703	2.6754066876574787	1.3245316710409498	-0.5497074113318487	-0.08059851804888105	-0.6146144255379389	0.17136730210430356	1.393626447973741	0.043876010813801436	0.9060581303608911	-0.9887344216179128	0.1572172339761573	0.9548919176788513	0.8589063861142457	0.354306547939309	-0.6980344635505902	0.4854881751200854	1.5067919454678718	1.2221860854762885	0.5215088711923194	0.8080345371826262	1.0939843627012118
20	0.9639413332443827	2.4315209327342906	2.211356157441765	1.4552875720474927	2.5340466435350084	2.381676906294583	2.638074391380274	0.5218818174537374	1.0528938743711174	1.8841686201208612	0.978284177694407	0.9486061310659983	-1.1018534870938808	2.7539131571858317	1.4688419066537743	-0.3769395639916327	-0.13581874932330462	-1.0134171221895978	0.32710090196994124	1.4689981900319808	0.060529421862129604	0.9053178406746498	-1.1433873147706952	0.311843930887627	1.0023063395943588	0.7915174345059746	0.23278742969867572	-1.01242518169375	0.527312933067314	1.5208373031365732	1.0166724894604313	0.5589416012957172	0.8067241886751924	0.9001176334543501
24	0.8602213837839603	2.2240004483339133	1.628639932335223	1.3814296687534362	2.310261958965123	2.278290981262639	1.861271734306783	-0.7311546188014425	0.76749098107161	1.6944984154834604	1.0377939913297123	0.44907641297446743	-1.5708764751827828	2.382382148449785	1.2912888494314594	-0.3510377696234347	-0.5464764223606666	-1.5103812179578942	0.40251237052382355	1.2388068406299428	-0.12132817476157742	0.5668761715881844	-1.247476336190635	0.41973584784392487	0.8979421831348304	0.5230159150270154	-0.09388830489057551	-1.2989655700312792	0.5437525497059532	1.447522517364339	0.8099431971128048	0.5618894682049311	0.7807707766847491	0.7146630865173349
28	0.4399712074615672	1.475601788609974	0.6428717358570685	1.3128728833430294	1.732511039174414	1.6906444983713034	0.5057514893160567	-2.1133000797321793	0.48086637137122573	1.1735680073672259	0.8601245858410895	-0.43063050399775393	-2.2907884063104316	1.721295233195346	0.8419067838393556	-0.5848322495953704	-1.2240958182900703	-1.948446745721514	0.37384357954052594	0.7689714412348033	-0.49517142647655793	-0.018159490032839364	-1.307942625558236	0.439676462493897	0.6649612171550576	0.10856962921626355	-0.5211062418178781	-1.484280344076649	0.5149883018842888	1.2927169767166722	0.6323668344744416	0.5074846731724597	0.710927544229403	0.5590122924042424
32	-0.12577906219197513	0.38039535188001766	-0.5148550258989075	1.3061654534740998	1.008930561379392	0.73139416986819	-1.024319050110071	-3.1376821915562636	0.3287686101242237	0.4905144857896919	0.40890481964823283	-1.4534748755951603	-3.044171564045773	1.0554318401392457	0.2798945598688194	-1.0808048221003317	-1.9773166129734536	-2.2158927861534554	0.2585044794708588	0.22438566330047743	-0.9728713607067303	-0.6730946285419934	-1.3752360309211733	0.3588237157345296	0.3823889484287868	-0.3466166547130271	-0.9264417863343603	-1.5645724495486746	0.42999392639316	1.0842711898131376	0.4914002704134626	0.3850605180078419	0.5903493151064961	0.43523830065512675
36	-0.6317825301431836	-0.6696597916861942	-1.4890497885302445	1.343611475413249	0.37579521441947916	-0.3376903227386462	-2.210031980656778	-3.462028494677187	0.34562882693765856	-0.12943798270924176	-0.22857086302745963	-2.293539756706317	-3.576872816591823	0.6526545269700647	-0.20114071616411217	-1.72570740740906	-2.5888786250555067	-2.277659410448193	0.09198897308728066	-0.21032522565668585	-1.4251198732634904	-1.2106461494397502	-1.4976237974502478	0.18532285047471647	0.14117157423616636	-0.734583852820647	-1.2219027249957417	-1.5938936431697142	0.2863770120066123	0.8567205645865612	0.3705045869532835	0.1979161346922272	0.4226116229354649	0.3256261936549542
40	-0.9398490762823521	-1.2738403049732545	-1.937557930822858	1.3323019709328308	-0.024439249126004727	-1.2153391807389367	-2.646071904177465	-3.046378604826944	0.4432601023450024	-0.5189991580257431	-0.8901099540171843	-2.6856641701602677	-3.7184777165944123	0.6347743256754861	-0.4685941624731482	-2.3537614286123776	-2.9141993449067582	-2.176430458295935	-0.09814110373514295	-0.42109441650886026	-1.7470567182300971	-1.5141851863778555	-1.6804289775383305	-0.061724446558085164	-0.003957774480125607	-0.9933241580679643	-1.384054657302717	-1.6406458574834388	0.08987488574940226	0.6348532422249694	0.24044583677143452	-0.03728555133465789	0.21762286071669126	0.2024260307208036
44	-1.0439385149348042	-1.2277873723502692	-1.6997060732843383	1.1506118745363905	-0.2124565834403443	-1.7022261576590791	-2.2406690064125567	-2.18074869558972	0.46472188713044676	-0.6553679688119687	-1.4311960899458425	-2.5648970539185445	-3.478157988349843	0.9279021001276704	-0.5170019255936519	-2.8376192974926826	-2.9517142698150938	-2.013182158155729	-0.30408853215690235	-0.41774645342260175	-1.9113111447715712	-1.5856281478902894	-1.8789496374375048	-0.3582863500609138	-0.060107853111858824	-1.13071548653273	-1.4508930408085878	-1.7419818595774434	-0.14596922658783062	0.42490333211432546	0.07581383715800329	-0.294241338225389	-0.012317838116183049	0.0419122650161185
48	-1.058239338110368	-0.6309145673081559	-0.9026570297339496	0.7247217875302998	-0.34190690431102344	-1.7935328438299192	-1.274134036661966	-1.346570488391008	0.28503411936321327	-0.662212906596048	-1.7977234079749176	-2.109169716278252	-3.0509085578184365	1.3180419173341904	-0.46196684124659443	-3.146102182074556	-2.837894432532271	-1.9124858331078387	-0.5252944813817362	-0.3165507606620441	-1.972599143769971	-1.5295271834857271	-2.025259251249627	-0.6709075553167719	-0.08093273619245403	-1.2069780796095337	-1.4861813746123158	-1.87960028173823	-0.3953263451608782	0.2225763643128885	-0.12615045873263292	-0.5383107648609887	-0.24904307660168015	-0.15815789957646637
52	-1.1321434946086535	0.16819156663868873	0.06860905123316231	0.09827876811248475	-0.5821247682179288	-1.6648161369252834	-0.2723502509870338	-0.9750335787951433	-0.09678854023815349	-0.719595013232178	-2.030201191544767	-1.648971315035356	-2.717486613088347	1.5804804523619043	-0.46163010480678607	-3.3332197582012504	-2.76183318394501	-1.970635885985316	-0.7422600369786652	-0.26252362065791607	-2.0205213972576828	-1.4810270033637325	-2.0665593095102226	-0.9492679214352686	-0.12102899669846329	-1.287011977761044	-1.5330270490088123	-1.9901387641251629	-0.6176671966216926	0.03060298777840772	-0.3350153854971698	-0.7295393329321076	-0.4629872727625728	-0.36771666910792056
56	-1.3425321545083813	0.7587690334236478	0.7407650332821833	-0.5533589110708595	-0.9860041116615799	-1.5594602783884859	0.24565626618828737	-1.2267223565601113	-0.5337260352010857	-0.9353064275015543	-2.202782863777497	-1.48949706178351	-2.692957871313728	1.6071047742322455	-0.6104952081525564	-3.4724094780036387	-2.8493897842946296	-2.208899969246062	-0.8999842978643242	-0.33800378356472854	-2.112354750068428	-1.5210820398074032	-1.9940332123956648	-1.128858205806218	-0.19115540336984177	-1.3935139144046893	-1.5854927261377016	-2.0045275637561932	-0.7649666647671006	-0.12884663012875694	-0.4943786250984021	-0.8316426852210133	-0.6146103724221044	-0.5303756581267199
60	-1.6317199427415703	0.8760520197684669	0.7753522376511884	-0.983966288466499	-1.4294314348370776	-1.646180148736861	0.013825173454844224	-1.9149247359566006	-0.7972725609677321	-1.2589384285612932	-2.346418374813168	-1.7469365552665332	-3.0091714783034513	1.4590166770338053	-0.8705303646997051	-3.5879480748188652	-3.086470119313125	-2.55628990481613	-0.9211337543119341	-0.5121159540598147	-2.2311615887577276	-1.628849383056435	-1.846211547958698	-1.1501613826323156	-0.24410663483500683	-1.4909428320435314	-1.5943253000060877	-1.8910535526214838	-0.797654447925844	-0.21613708083896513	-0.5447600470140479	-0.8240454176124785	-0.6646359546093396	-0.584964691115727
64	-1.8303437186759455	0.5174000250151016	0.13387480344350802	-0.989085731393332	-1.6653149085915044	-1.9255348395369905	-0.8613191821286618	-2.6121637755246714	-0.6997085195995252	-1.4953381977474611	-2.4106764732532264	-2.2852885665416025	-3.4921829612300828	1.3174775805588816	-1.0827665301642264	-3.631305685411913	-3.323630562973996	-2.8663825916400327	-0.7453491668956401	-0.6588336212690391	-2.295067304538764	-1.6961842732520311	-1.6845091538814836	-0.9850531791612341	-0.19884757647378057	-1.5075210294809236	-1.4997314176841843	-1.6760492282512927	-0.6991491300097205	-0.18845669877632118	-0.4502690721110894	-0.7079095226534656	-0.5874577745864528	-0.4925546931705577
68	-1.7671049788682618	-0.09375396347217156	-0.9056025124573783	-0.5197040425530772	-1.4772570095912074	-2.247632497834795	-1.9733422944791543	-2.8891293929589454	-0.21039365178871525	-1.4260116779563683	-2.3033742846508476	-2.797918551056662	-3.859104862006575	1.3603519166933102	-1.0640921565846657	-3.527333727514016	-3.369082680779162	-2.9760787411891263	-0.37745386266777864	-0.6381036623102994	-2.2180972043302627	-1.6004958112362362	-1.5606043299374164	-0.6595258696117127	0.006562826207101893	-1.3840318883284703	-1.2735426393779976	-1.4305375778320264	-0.48192825791754074	-0.019186424043017257	-0.21514411216299772	-0.5032302128484234	-0.3806391944811781	-0.25461524660676155
72	-1.4084736073219366	-0.6670614464130608	-1.895949239712395	0.26268100672204814	-0.8494417049896127	-2.4322457252129297	-2.8419604229700033	-2.561811679094181	0.4979036139791966	-0.9740092133726197	-1.9889268824906494	-2.993924610208401	-3.8856193921215167	1.6369421440757366	-0.7379124145950802	-3.262807837831538	-3.120517484415762	-2.7896642614504272	0.0845378262650438	-0.39364597101961296	-1.9857091853552187	-1.2945605483749203	-1.4978542290063674	-0.25784456664789424	0.3642605235916679	-1.1192250223512303	-0.946057496066482	-1.2314976422688801	-0.1795712406869918	0.2904094450294209	0.12060929804391761	-0.2363057726615945	-0.06284825487958483	0.08979635663010896
76	-0.9388883090156432	-1.025776502880439	-2.453588956360215	1.0254607174732164	-0.04508633155168385	-2.412489646542716	-3.164279691336523	-1.803519244408954	1.1041043968934956	-0.3091988555731077	-1.5744245012587248	-2.7775897909608926	-3.5448233991770124	2.018589729934679	-0.21923957709749714	-2.951380245386616	-2.6529629163518393	-2.3431305826156583	0.4669408190382203	-0.007267196644376111	-1.6933032231494418	-0.8557724335045129	-1.4940875730939414	0.10059341762894534	0.78173517983478	-0.7810657600709978	-0.5984910115390348	-1.1203052969304121	0.17380058721530947	0.7163938265833083	0.5070891963553735	0.07824167589460658	0.34193682584262514	0.4897198962721973
80	-0.7224648576615778	-1.2027562826307516	-2.456074231622495	1.3896518910608633	0.46992668390838255	-2.3105199278670594	-2.9602608605985696	-1.0621106597787555	1.273598667743945	0.1834372426408465	-1.3145205941390403	-2.316955322137921	-3.038748018222064	2.2565240803013595	0.20652277715516246	-2.8187937665343528	-2.206448549421929	-1.8101968719555712	0.5854881391048229	0.327182530530755	-1.5161731204853854	-0.4623594570407387	-1.53652011960241	0.30637118142978	1.116574880641918	-0.4744557428302058	-0.3234491042077073	-1.080160734310515	0.5661607370387517	1.232072588670932	0.9196721292164421	0.4510653007563112	0.8257887342584677	0.9189003682778389
84	-1.1451539964373774	-1.4017333948984634	-2.098803514903667	1.0843445035260262	0.2374577218259377	-2.3889639317278455	-2.5405647690526094	-0.8268963077648877	0.8086150864212728	0.07753565142844403	-1.5081264934610235	-1.9590859363684807	-2.6993985107933165	2.115123266601966	0.21444593315818392	-3.0990166585880887	-2.072251314653322	-1.4363441431020953	0.32958358443018004	0.4011174132233446	-1.6199921328651743	-0.3067683867815603	-1.6148023564576839	0.3071331672066647	1.2455162970567897	-0.28411355542930394	-0.17640398398207485	-1.0462516519834075	1.0161491606806248	1.8272072030664939	1.3809055055086048	0.9157137847669024	1.407063123011533	1.3993335926965755
88	-2.4030539928800154	-1.8527566147756693	-1.778143878262083	0.06311352535048796	-0.9453157162641251	-2.8931910918622648	-2.3175868929523666	-1.3647353614683149	-0.2567811005784967	-0.856640038711673	-2.3259923399373705	-2.03273844205716	-2.807701580588237	1.5104401073467837	-0.3788289716215975	-3.888821592049345	-2.433107846792784	-1.4214779102676196	-0.2740422182316786	0.1112757024339759	-2.057606215050405	-0.4901962565920396	-1.7200664238417591	0.1346149292169766	1.1334838838569783	-0.22509965243727798	-0.14488872849123152	-0.9430572962792876	1.560931559436407	2.5118555959225786	1.951838250000671	1.5092360935253606	2.1193859523669603	1.9933619448878992
92	-4.353672016595925	-2.6543331079224766	-1.8721593571125463	-1.4700597487527503	-2.8749096321000716	-3.877410640463775	-2.5721931392577897	-2.5725157195944997	-1.6624162155141062	-2.48017453521155	-3.666996469776148	-2.6516728334235777	-3.431848040499235	0.5750898108267853	-1.4803940020378161	-5.045183169024832	-3.2469501413383717	-1.809531564912268	-1.0522220108169056	-0.4622602749120829	-2.7107551029429886	-0.9570215320266545	-1.8304064227620909	-0.10033886109291354	0.8665068723735903	-0.22867570759735484	-0.15118354520774527	-0.724441109258761	2.2303183022455744	3.302468053109213	2.6962871483438966	2.2463757935075233	2.984341852282766	2.766748659777937
96	-6.520823462235234	-3.698882093627529	-2.539684527660789	-3.1358163277609252	-4.981103407681491	-5.124297129091202	-3.304749957324033	-4.026443948116677	-3.0232000274623685	-4.287495125436101	-5.139954553978429	-3.633665314083323	-4.37986039009548	-0.3905787458095378	-2.717137568289423	-6.198699458684505	-4.245420445213961	-2.452392095096147	-1.7430350736479656	-1.0692483159725876	-3.318542233671657	-1.5109254083633197	-1.901193375555783	-0.24638542470714497	0.6257202013430294	-0.1752522881374713	-0.09058990306632261	-0.39743804831297164	3.0192019863195085	4.195205677884687	3.632604351409	3.0994083803125636	3.980382194006287	3.7377302552268343
100	-8.270280817132244	-4.721347796917633	-3.6421282199457456	-4.521100986510122	-6.553481562280954	-6.215646251244258	-4.243503559842824	-5.196241842502088	-3.980030049765843	-5.602972493330661	-6.203620894981894	-4.5822386625947775	-5.292408929814221	-1.056629655077628	-3.5826954751159406	-6.896074277633032	-5.052981840727555	-3.072004072062661	-2.1010281986596473	-1.395733829789099	-3.588134518147252	-1.9064161729363955	-1.874042744673404	-0.1720368112750528	0.6086907371411822	0.041426658525778835	0.11361247272417292	-0.019398210521240404	3.8736314675759775	5.141715513599227	4.698628413735248	3.995177497313659	5.026344286626107	4.839669692218265
104	-9.085236526439424	-5.437583909611264	-4.821930873140737	-5.325363145734438	-7.0556073010644775	-6.73032091348853	-4.997652994889464	-5.705586895842581	-4.334083546186397	-5.889773353965201	-6.4130844907970435	-5.091421114464733	-5.8277587743488235	-1.2195585935319335	-3.6733608153106165	-6.8119683093700365	-5.368782983576474	-3.3985326204325914	-2.003810877509223	-1.2162909477043071	-3.337381354488961	-1.969612235818528	-1.7052640871863212	0.17669619575234843	0.9329912042903892	0.4532344329835007	0.467798559676695	0.3305793992279283	4.698838222084328	6.044100746153687	5.753421768921272	4.831660735329305	5.993072971471729	5.92322777206311
108	-8.809662796666432	-5.694092736173114	-5.692024216586051	-5.455264077718481	-6.375741942520963	-6.469953043815085	-5.268498407413652	-5.501881585535354	-4.110770215146205	-5.020382868489302	-5.65342806342422	-4.963315951213949	-5.837705597443827	-0.89789616834918	-2.8987822459466592	-5.926482185659629	-5.116817938283669	-3.3128290092750707	-1.512567158694868	-0.5186919556873464	-2.599720471494198	-1.6864628749229988	-1.3999859059273505	0.7438654284769923	1.5662487705741055	0.9892830227670405	0.8983238912790084	0.5881081208639551	5.384452329392626	6.774126035753421	6.618898851849678	5.505266175675734	6.740738374857492	6.801526052468911
112	-7.73408267929534	-5.545127854652241	-6.028054698983506	-5.037876116430976	-4.888076769885355	-5.586736664971994	-5.003909098389293	-4.851644503741986	-3.5336067587329194	-3.3660473738562837	-4.232508648676736	-4.319550026478217	-5.437617765049411	-0.3176073721973098	-1.5564392765803172	-4.571375358484022	-4.484592903258791	-2.9133319781181766	-0.856810388786011	0.46390122058092875	-1.6347018439028649	-1.2117972343367462	-1.0303181383822784	1.3712863887497488	2.318562501775587	1.4944516382633104	1.2784761158136009	0.727190015864217	5.83536766486306	7.208962899126999	7.141988259403516	5.936782821925127	7.1647219477006105	7.317678909899881
116	-6.472455962052174	-5.219737516576068	-5.861594662172331	-4.359596718271641	-3.2928578770470507	-4.5392784957720895	-4.420542705819183	-4.177163590375306	-2.9271469042307583	-1.6518655973690521	-2.7736985613412006	-3.548711529355184	-4.938058840682014	0.20144376107854634	-0.22410426977320325	-3.311227074846132	-3.8331854246635677	-2.4677822527568756	-0.3457928887219886	1.3335754837698863	-0.8335742333347279	-0.7961348871157766	-0.7184329610805709	1.8469816399672518	2.905154697712797	1.7861173107828456	1.4784411154613257	0.7619819621875086	5.994531139497832	7.26794193340192	7.248800259408499	6.085110649004248	7.228524666655735	7.403186302567296
120	-5.683710083916613	-5.00280998874241	-5.435319886789832	-3.757767429401099	-2.3094356001720433	-3.889547815039455	-3.8875186345178445	-3.830663909777356	-2.5923645430917497	-0.6392653568340387	-1.9480652759959147	-3.112900249251278	-4.6748580814588365	0.39568817515607374	0.48823866124862386	-2.706249468646503	-3.5224592596765913	-2.267428869244775	-0.24292315481365706	1.6906878905525904	-0.5588562474446145	-0.6667559130047135	-0.58734381050593	1.9799050042709347	3.0572056693137686	1.7237626270642386	1.4156945908089544	0.7280551772809475	5.851620659359379	6.93531606830544	6.965453607139262	5.947903141263506	6.969235402631423	7.098619919974436
124	-5.771897301406364	-5.095768438825095	-5.056699740040678	-3.5047640711989287	-2.3666899144500975	-4.038856496150524	-3.738716831304666	-3.9296796222654025	-2.702918284267706	-0.7858808020777314	-2.170255893949952	-3.314937344764743	-4.831254946908699	0.17128543512491126	0.21300928240878986	-3.0650229376656135	-3.739826431369003	-2.466131680937923	-0.6566760523429068	1.3077363934878339	-0.9883429979166611	-0.9211540198911066	-0.7040207964288477	1.6741416412047172	2.635779135725058	1.2634506193686876	1.085985061764682	0.6563237888931737	5.440232263181238	6.26355408040797	6.398711665210773	5.555597768108473	6.476371271948295	6.528846247401746
128	-6.713320238330037	-5.533097730018309	-4.9377670163419305	-3.7189063931985546	-3.4356939705890124	-5.039395319613176	-4.1175017252915636	-4.33911084033264	-3.254698268302452	-2.0481610246445645	-3.409832230542002	-4.151084412584705	-5.35051582892899	-0.37031087185825257	-1.0061712239611267	-4.306534756277924	-4.420353401467854	-2.9958734436690566	-1.4944268427311465	0.23403961897411685	-2.035363669025019	-1.4857499561945207	-1.0420503590023766	0.9732001399264812	1.6985527234108464	0.4769893276569543	0.5636208639219953	0.557999967119933	4.829716670240219	5.3609366281580515	5.691896901065133	4.966097819187882	5.858760342111128	5.850496277343175
132	-8.092035273148676	-6.185879214881424	-5.107079493026274	-4.329853523766657	-5.076261507569414	-6.574654085726033	-4.924756991350364	-4.790103900259666	-4.0809068576776575	-3.9193940063703505	-5.211406217768978	-5.320694433130258	-5.981489166416746	-1.0008226607803556	-2.7337076594951464	-5.998329147453331	-5.293334470735957	-3.606539001895951	-2.499763959295392	-1.217918631339724	-3.3834810171533323	-2.158357614789929	-1.4912267885705246	0.05336707816955185	0.4869465815647675	-0.4713995146770639	-0.028608217763197524	0.4250232566593108	4.1148505106986475	4.368151653705364	4.97649859125635	4.261398304670691	5.214860426134281	5.196678148500743
136	-9.316415763221475	-6.8353681391754595	-5.425816999087994	-5.108740793681259	-6.659807665222956	-8.111087778593738	-5.882234558513043	-5.048669802316811	-4.921311366053887	-5.676215634320056	-6.909237367351995	-6.380701048953755	-6.42450712489296	-1.4850084744153869	-4.337923038974555	-7.549548606885267	-6.024460777331202	-4.011150349980241	-3.357404938804251	-2.5984961920936027	-4.618345725797074	-2.70881628306263	-1.90946804995048	-0.8358005860207574	-0.6635379774507042	-1.3802400792560126	-0.5653399214776221	0.24335187612128284	3.402758589736497	3.431043854633956	4.340881813533735	3.541703453658766	4.617646205687755	4.64450835009015
140	-9.901980375085351	-7.274583798161761	-5.691876873904539	-5.752538666506509	-7.651056747192948	-9.141589141653593	-6.670568449344957	-5.040174471527712	-5.518669114484669	-6.70633743500294	-7.927729586612825	-6.961055261203101	-6.495756132891785	-1.6878069596592904	-5.267327295356062	-8.465058305348974	-6.376781924360379	-4.053215493459241	-3.8202004336227433	-3.501484862070245	-5.395830140795784	-2.9857253952937994	-2.190426105691019	-1.4627418481135726	-1.4521961175493776	-2.0755979962397215	-0.9611355638079546	0.010095993962725988	2.795187704658528	2.6754000119372807	3.8263449572278354	2.9113311694074078	4.115096081834502	4.216615666233952
144	-9.675542806992501	-7.381681900460945	-5.760815605877702	-5.99728535091666	-7.812407473866876	-9.395734763265354	-7.065927487653412	-4.866755950084449	-5.708156571281649	-6.756544096100546	-8.01895902516423	-6.928585034997239	-6.218924983535785	-1.6180378157772128	-5.276306139022358	-8.542174317727516	-6.311270697871725	-3.798274984306762	-3.803604354791964	-3.7201251889718447	-5.572984204526979	-2.9800472184282523	-2.311758512382365	-1.701427217002527	-1.7271243290210831	-2.464114182926659	-1.196733590919273	-0.2592041187894659	2.3637072980330673	2.182598108503141	3.4387361916506674	2.4524037776064933	3.7342662716998136	3.9018590351774396
148	-8.809061028174298	-7.137331467728261	-5.604202256358562	-5.719466671808514	-7.245308857744951	-8.91658685340331	-7.008870107121199	-4.7139129519657015	-5.4676704268692875	-5.988471492906686	-7.325083237273765	-6.419431193356703	-5.795379624039948	-1.3948072159837603	-4.496025550935004	-7.920000056297868	-5.979081615611057	-3.492217531923965	-3.4067418489274903	-3.308784714927982	-5.2428722249222	-2.814053289938045	-2.335722917381675	-1.575782652691148	-1.5322997531350993	-2.5535051758192546	-1.3169112172256559	-0.5364341126249736	2.1274769252469232	1.972410554674378	3.1642198482733197	2.1970798913797864	3.482482901363826	3.6786749270067944
152	-7.687066058778059	-6.599083406953418	-5.288726793287873	-4.988540159982051	-6.275782092462058	-7.9861125744414965	-6.588696939999661	-4.718691337115991	-4.915346133219827	-4.838108050529092	-6.252906306692177	-5.73572491151356	-5.479970918171239	-1.1655465335028956	-3.330286971267127	-6.970210534617486	-5.619598374483753	-3.4140725049606178	-2.8553159164818163	-2.528498404794744	-4.66246937528284	-2.664980404801112	-2.3661148488387562	-1.2404220072899883	-1.067959067509351	-2.432857268866781	-1.4008467162050233	-0.7960689643788215	2.0468792863665506	2.0009887167955234	2.9804463311286606	2.1143820232414106	3.3455188189917315	3.527793160114785
156	-6.695811731599339	-5.861992821198426	-4.903323637980406	-4.043969144147869	-5.264945493756851	-6.957449418621873	-5.969171508977142	-4.881587493015752	-4.2572002303404695	-3.7708113098308127	-5.242720590706274	-5.1723947394434004	-5.435160146342237	-1.0241029236686612	-2.2414882126482816	-6.094801410545943	-5.423702226296703	-3.708447685415512	-2.3961484371723527	-1.710050816986858	-4.1136445895285965	-2.6639358930087056	-2.4861216482336443	-0.9072008706076398	-0.5859904274450769	-2.221737856023952	-1.517468090994506	-1.0285931799668335	2.0401670881260507	2.177792305216325	2.8606641220347195	2.1220927184886667	3.2869431889516325	3.430520764272728
160	-6.0522661056301414	-5.0308985583126065	-4.485825050472476	-3.1986324706382185	-4.448784816953933	-6.090359195591339	-5.302690015756282	-5.068404184896381	-3.7026135827996263	-3.0641360205535952	-4.557437885222091	-4.868416773902277	-5.643445477542441	-0.968940255579784	-1.5368938407242083	-5.5339698651784595	-5.433336244216715	-4.292101372372715	-2.191381687353646	-1.1008927794318166	-3.764444818529138	-2.8190016675348044	-2.7108621528847348	-0.7492728810466528	-0.2694112949721914	-2.0082511851152	-1.6835252004080157	-1.2424046961887911	2.0216736742475714	2.400474542279228	2.7769191194995733	2.124570602775013	3.2567410386830367	3.3625614558200407
164	-5.756041512261826	-4.2121348274696295	-4.006254186052173	-2.710782521079516	-3.882105340693011	-5.473645673283644	-4.681028831107564	-5.097273813729742	-3.383732787172228	-2.72444605139475	-4.197597969901351	-4.759073722267941	-5.925906643211132	-0.9210326052300056	-1.258836743037563	-5.277844892527994	-5.52841614281089	-4.892618643805773	-2.260392660156094	-0.7688881139416177	-3.5983712582337115	-3.003013841676542	-2.9803626462076074	-0.8283365943976038	-0.15454636475167652	-1.8051105692111495	-1.844996090045507	-1.4532742463613528	1.9445902060049935	2.595559113625066	2.707967989760328	2.0596280045960818	3.2102329649936956	3.2953174031028527
168	-5.667057976719886	-3.5171456248175708	-3.41766976447302	-2.680690281775609	-3.4932994754331963	-5.058133589371774	-4.139472950974617	-4.852450835374472	-3.3119406616515814	-2.55932020494886	-3.969554891100884	-4.646212089252108	-6.052015766122717	-0.7832437733902364	-1.2186831205116828	-5.114578234157244	-5.501531587062116	-5.198725687252898	-2.4913861688654944	-0.6020576938687444	-3.441687098396757	-3.0107493324559615	-3.194412700217354	-1.0771508189662466	-0.13050517406892834	-1.5447241028885819	-1.8922334861664785	-1.6666768747211835	1.826529140629241	2.747817509389332	2.6515119008830905	1.9307153176199192	3.1303217332008235	3.209290734771465
172	-5.636478886678683	-3.0554444712743916	-2.7350320746987116	-3.0177693290813044	-3.1917519488812984	-4.754890906726744	-3.692500581955408	-4.353986729119545	-3.3867216024722993	-2.3398206174903478	-3.6456496623501846	-4.333301056411761	-5.871308311897563	-0.503397761504464	-1.1360560626911214	-4.7748808740224655	-5.17473219518701	-5.028025614441686	-2.7072901657416537	-0.39251479407392154	-3.0687525194890832	-2.6575858525889466	-3.2627808965321674	-1.3409805263995058	-0.010072584238549558	-1.116128203435099	-1.7047355131977877	-1.8621561480237274	1.7431353286602247	2.903788797676573	2.6329634123129777	1.8068860723652362	3.040651552152805	3.1124274652101134
176	-5.601443753405322	-2.901541225737057	-2.0796291775649927	-3.4887676150930758	-2.9451911375073445	-4.51966332248177	-3.3618068610190894	-3.7409875298462962	-3.4488410862632164	-1.9439746092353074	-3.110076896444686	-3.7406034375163335	-5.391987786984684	-0.10527738157156817	-0.7964205721774638	-4.087830533197287	-4.492152679545856	-4.418559540083224	-2.7496540476995146	0.04647091391870776	-2.3270862043755267	-1.8691067648427266	-3.14314746063121	-1.4537823163521355	0.3687819233166568	-0.42602911483967837	-1.2053477733697533	-1.9898951003379364	1.7908500387753523	3.1461570183476106	2.702360623212596	1.789000268234063	2.999585144099139	3.049561731268492
180	-5.589867577744851	-3.0531179827853925	-1.6440138775326136	-3.8262209795670157	-2.7814936567652455	-4.370140064650051	-3.1742420116391297	-3.1865782657278565	-3.3532452498651684	-1.4023969138024277	-2.409625285740622	-2.9405078813698764	-4.766655909901385	0.3281622818767769	-0.14440235459109232	-3.0672576350018907	-3.5437250047858644	-3.5950550942253603	-2.5400543148760417	0.7910454849298346	-1.2187386720404734	-0.7198969703618477	-2.848551027735468	-1.3101490702929606	1.0633733245704895	0.5458807931469299	-0.4001600136190571	-1.984234804865777	2.037986750225672	3.550779810523668	2.9154033587281813	1.9596034238931141	3.075431339128593	3.091326228920005
184	-5.6477522707444585	-3.4077289018424786	-1.590413804807223	-3.8410248659432136	-2.724353306567714	-4.333367336776584	-3.1296827714104443	-2.8006389070373428	-3.0269007606378393	-0.8345221259981978	-1.691751356621988	-2.0985469765132017	-4.194000233551792	0.7059234362899193	0.7243590932677573	-1.890643711085043	-2.511430495597114	-2.8291699814892346	-2.0938768333975513	1.7845785572772093	0.10118775789224199	0.5963975772105189	-2.4239492355183	-0.8995631314454047	2.0070207068315637	1.7265809730806825	0.6171303375875561	-1.7879450276056237	2.490905517011239	4.149000157371462	3.3078701412608575	2.3436896741822397	3.315489522192548	3.305903903243971
188	-5.754012093321637	-3.779271593088872	-1.9367229889609525	-3.4837095649502063	-2.7158684661960697	-4.367824066578505	-3.163449279427609	-2.5752484733412624	-2.4856970247453365	-0.3294207743433871	-1.0809187861808545	-1.362925406829635	-3.800794353425767	0.9851586793822202	1.6515974956775292	-0.79176842966449	-1.5717098673239283	-2.2828700484813025	-1.489728089386076	2.88493990169755	1.404815431862728	1.851928944680408	-1.914500231677582	-0.2920265190380945	3.0546736640101027	2.976682178611309	1.7014464096980961	-1.377284523347642	3.0949942987502217	4.915125834453293	3.877777566656086	2.902466528240214	3.726414432654086	3.72833656323395
192	-5.794359192523969	-3.960420598521407	-2.5056023534456906	-2.836467258921372	-2.5942265921898313	-4.328789223232235	-3.138621322336973	-2.4022726951982722	-1.8121880247139106	0.13959029281659	-0.5811794385541779	-0.773939011527132	-3.5703515916327015	1.1975905864996899	2.518588774997986	0.06573645753952914	-0.8089817145903605	-1.928741927045678	-0.8206549862169247	3.944336404378666	2.5031733449679368	2.8808021472676892	-1.3476828302689978	0.4070610691760507	4.060552109956832	4.1500067606098865	2.7151720455282726	-0.7768544535096699	3.768362274192465	5.783276066483837	4.584556568014951	3.5610027223325744	4.275189388925423	4.342726696494165
196	-5.621851430050574	-3.808832158962725	-2.979177467453886	-2.0543851800548754	-2.158341640745169	-4.016519536368052	-2.8893279956348357	-2.1509401743942274	-1.113756057788317	0.7046372872682031	-0.07218508404149744	-0.25102043088478904	-3.3596784983688233	1.428249593943455	3.297423831243897	0.6610651595591508	-0.18850675177664494	-1.5892560441900287	-0.1584835495523745	4.872361647702132	3.3266572868280484	3.6373720077232568	-0.7388797979773423	1.1030168505476696	4.940504538460263	5.1519055236443005	3.5787634759193248	-0.0580480395282017	4.444440353616513	6.679496271435454	5.363352285195409	4.248462666275616	4.906022536289021	5.084743010080959
200	-5.165189253163985	-3.316095105381937	-3.0439443511404627	-1.2957503762909226	-1.289222356402314	-3.288715831082777	-2.3009862841685953	-1.751346822131619	-0.4850792276533139	1.5022463760594875	0.5994675740365693	0.33576166545019587	-2.9964985771818826	1.7602505639456871	4.027020444239489	1.1001267405390973	0.3982974578814958	-1.0703055831589443	0.452538936187695	5.651066288985603	3.933310498797373	4.190515030771285	-0.11498070479211817	1.735723967938275	5.687359318679128	5.96524380131494	4.287755001686667	0.6781302673384838	5.097817408088721	7.5484266090548475	6.145122512561229	4.926371561963963	5.561185345914191	5.862205490570448
204	-4.508202541413293	-2.621206515370005	-2.554297917592766	-0.6760933382130724	-0.055628213891010164	-2.171401256801064	-1.3857371772111888	-1.2356243102348408	0.00837220994504491	2.548393243077644	1.493882652325721	1.059281584926279	-2.394474977169864	2.218174213531118	4.7399492144121735	1.5282878837146863	1.046951887348461	-0.30087962670655377	0.9795343851154144	6.302977546037195	4.446247089604383	4.661556708964343	0.4702224421550113	2.275100940682314	6.337663634511633	6.63214491123396	4.889516341262335	1.3300887312686187	5.737656578836564	8.35951898371602	6.871705991561743	5.588017926412851	6.192941650013739	6.58307979829021
208	-3.880053033569286	-1.955785269567732	-1.6243327815053383	-0.26244455509682113	1.2675632206385166	-0.8943121410678846	-0.3056766383082883	-0.7175854426386493	0.3246340445428504	3.674428215286559	2.5005681451606714	1.8635160875954893	-1.620169993124735	2.7418017318166297	5.396250711168257	2.028240913992343	1.7648206904676569	0.604295609855831	1.382465597477017	6.841991407286179	4.961669909347988	5.143437372573151	0.9426777935069608	2.7024898460821425	6.917955857930569	7.205674630092332	5.435685620889251	1.8238223745075348	6.375579341050426	9.092640853813307	7.4985456277354725	6.233057483194927	6.762136919114989	7.176759224891899
212	-3.546414843188497	-1.544581528578639	-0.5927723035151431	-0.09051125473774005	2.2964794577792174	0.183951019776352	0.6773560626094509	-0.3222201458425087	0.43474766502289686	4.575075137985179	3.364847889987852	2.5727972919357076	-0.8706978537511011	3.206890813360288	5.874385342071679	2.5638492042660386	2.451510184774277	1.3950583899562097	1.6145228106743932	7.244585495777783	5.482918248638652	5.645516858152446	1.2379344670512127	2.9991898460959865	7.409926872618637	7.703301410299568	5.938792690541878	2.129770273553511	6.9920272650616715	9.717516874574516	7.988780478334907	6.838199598213722	7.229621392116834	7.601861934542495
216	-3.6604740527241337	-1.5085267982543242	0.13386863436278934	-0.17430193678241068	2.7108385494454637	0.7325974684338775	1.3083323207247937	-0.11454977811264126	0.3235841087277827	4.951999174966886	3.8092963599350633	2.9819929524473876	-0.37225428129624755	3.4860036285125298	6.03038357165829	3.000679485374452	2.9470994398096555	1.8202522947130817	1.6458705622126792	7.461418133017199	5.919042095498971	6.092007144805928	1.3367762531862437	3.1530115524794744	7.757923106633831	8.092481592727628	6.358221514861341	2.2631215992056006	7.526442985605712	10.18644425681344	8.309621789933308	7.347471218632036	7.553372364047243	7.843994597657976
220	-4.163636673905552	-1.8153161956731148	0.28025403548055217	-0.493389217799951	2.414562457664192	0.610277889618254	1.4562898837515053	-0.06652535481346204	0.006625616440585225	4.676481711978419	3.685480585330066	2.978415481677001	-0.25655704671935164	3.5174965769651223	5.792230114617968	3.1900942245049904	3.1246313969877733	1.7668746665214312	1.4970818720213181	7.462418060535426	6.149192794533374	6.375116809008137	1.2829605308566001	3.179479829390188	7.914929846807494	8.319405534720618	6.626685602623475	2.271194929110755	7.904259184908166	10.452856991126163	8.441549279834598	7.695538024546464	7.702494601829926	7.913677195596057
224	-4.798401820465767	-2.298607820429483	-0.1614607121444215	-0.9680334901211054	1.5969613750192686	-0.05672407508476132	1.17937051952146	-0.07864581773690517	-0.448614059746112	3.8780126473744865	3.0675797385014434	2.6187560492201856	-0.48741963382683307	3.343281975888248	5.230504976418268	3.064862720380862	2.970181696068517	1.3223535981170667	1.2571829525678004	7.283050995558597	6.110590919325659	6.427606089576298	1.1700764864943882	3.1395652214892533	7.894679049586895	8.36063764368634	6.6993665526047685	2.213716501368911	8.085972765534589	10.50635907381579	8.397416093605692	7.851549128736314	7.682625751172083	7.848262767050276
228	-5.234200941222169	-2.7343392303095917	-0.930548248325793	-1.4524747096583543	0.6563050730347615	-0.9240953302894116	0.7029219848051876	-0.044315941519906976	-0.9195364690452759	2.903384439767437	2.233251804435434	2.1143948978446496	-0.8794054962843533	3.0940732877814776	4.556467998444755	2.689942829970022	2.604301922898647	0.7306994777350867	1.064741251164631	7.035830003140778	5.855936989304536	6.273540957824162	1.1011581393096868	3.1320302407343514	7.791027049421344	8.262687662244188	6.596121771371296	2.145380491562195	8.105673769513169	10.400594685044734	8.238396623792333	7.853692511757026	7.555155258177264	7.714479903771101
232	-5.237277017721971	-2.9364154264699307	-1.6320315558236693	-1.7687115624594814	0.021268568879312128	-1.5842694004114202	0.3179449431021429	0.08727531858105404	-1.2561467854256412	2.16280197551174	1.5396165808906739	1.728984470770537	-1.1984437673828507	2.927710287331753	4.040498723319229	2.239151472160407	2.229946846100272	0.2685865455045166	1.0539847585770423	6.872817022137551	5.543311581921231	6.026429161115296	1.1396961183383643	3.2568266309527183	7.746180991642724	8.139284113361416	6.408220274958494	2.1043829864777153	8.069218615186264	10.248909924380337	8.067410448686923	7.806567649205106	7.429464321452366	7.599201183206439
236	-4.791834342302416	-2.8240280080067333	-1.9339727114486702	-1.7787949993999657	-0.04152056936867566	-1.7499840215369153	0.24819979008952703	0.28518062757970125	-1.335055586305212	1.9414035032847676	1.259402271905764	1.6435434776772337	-1.2870764699865282	2.9527032300787104	3.890258302403384	1.9118936013588457	2.033770317664906	0.11249659182040837	1.291457053738591	6.916100961389842	5.361518846326748	5.835562214423116	1.2800308433639969	3.5668640046664093	7.8820271293002335	8.122956255431449	6.262758239192938	2.108096594256425	8.107729891334149	10.183276150742335	7.995917300063715	7.837095717670511	7.424569588035769	7.585771064679556
240	-4.102141846790304	-2.4324896274187346	-1.7210152105748981	-1.4614733420666652	0.46397650124709	-1.3712670768448902	0.5547851310074443	0.4625698614362646	-1.1166057558478337	2.2749857845088988	1.4645991288400844	1.8672274303977034	-1.1424720258478351	3.1754255214628015	4.152031888015662	1.8368374062892503	2.095084900334809	0.268644481219092	1.7348289445945873	7.192610722502025	5.431638227100641	5.812218174565062	1.4531773292091927	4.0322546857118695	8.230669954500318	8.29453180126291	6.262584193630634	2.154224628731638	8.305670717250413	10.29171368861553	8.094580629892738	8.026420572996955	7.612073402259633	7.720043639718969
244	-3.4753098400110867	-1.8758313608493082	-1.1280624838004756	-0.9427931880989546	1.2894295421470303	-0.6327928884742204	1.1210832567520563	0.5372148738649153	-0.6721463782506559	2.9519445821619246	2.014463896433743	2.243644470272232	-0.9031800008858885	3.499442806945396	4.688301074588959	2.0153083750387886	2.3535692632381067	0.5948785528422533	2.24093698889479	7.611878375862421	5.741600975799261	5.977478012252069	1.564335938318803	4.541705596901216	8.706275917960173	8.631952263973018	6.434550745930835	2.22474622164746	8.645324685203903	10.567756626151011	8.352066018952122	8.356930711627829	7.97024534120519	7.981502512807627
248	-3.1540801445483098	-1.2826957670251764	-0.43966790922739335	-0.4465424407175289	2.0849153942874863	0.16180877346670863	1.72533714335665	0.4849860357914429	-0.1602691407925639	3.6361911205039483	2.648851626384192	2.550041907547969	-0.7547696213739614	3.776964416504731	5.245070444215966	2.3320233762990967	2.652692072846664	0.8958782531054039	2.6235914164107363	8.002185801329626	6.150074943273823	6.258700354986875	1.542487975040834	4.944066512023047	9.13734052258473	9.009975410601609	6.713349802233771	2.289848560273986	9.001683212441392	10.901612254275392	8.666396119171699	8.70702169127372	8.377023675749463	8.277321794592494
252	-3.192184201764118	-0.7409515958198594	0.08373938479739033	-0.1815636898463519	2.578475230382676	0.7524773459509769	2.1611607020173484	0.36246877817192097	0.24079175232651515	4.042199601458245	3.1308481614221506	2.6328744821831975	-0.8071471432334506	3.886354436599031	5.575528607596728	2.6242365770841563	2.834060661789997	1.0353338692274638	2.7365648677398857	8.189592340773462	6.45840786256982	6.534586413097703	1.3776916230704301	5.11328219076452	9.345659232385923	9.254659629344191	6.9714641395032375	2.3146755636903076	9.195965743689158	11.123331041862578	8.881085373390404	8.901994682724819	8.653168656436542	8.470926263403006
256	-3.4396979721963348	-0.28092616725566494	0.3465864649605246	-0.22666571977131386	2.6948673657089315	1.0399339172810356	2.3368689954885227	0.27735453774045143	0.41134947434520097	4.06513832973285	3.3565637980593044	2.4963395532524024	-1.0207549307800803	3.7947478198564384	5.55514238862354	2.7670037676569312	2.826564543263391	1.0035083268578646	2.541976922293063	8.079666117296117	6.510963423502804	6.700350744496815	1.1292304964165452	5.005594240902129	9.231711364326447	9.225798583579657	7.079554539926136	2.270406240453078	9.08375928492704	11.080034228007047	8.852650620044225	8.798759438234487	8.64012906754124	8.437136628783726
260	-3.6389269736922314	0.10804767879386386	0.45302429680887557	-0.47804260133212095	2.560337537023318	1.105367776940965	2.3063526095334645	0.3257502309204186	0.34059274110633353	3.8037958049104987	3.3791265402356156	2.2945988120320124	-1.22585177112072	3.5717236905519667	5.230186449197392	2.726002209456617	2.6789112023428445	0.9115813947550578	2.1275057738949217	7.699247340790762	6.267224296005393	6.7136368582022845	0.9008201934005439	4.678061473479557	8.820188500070032	8.882519699558657	6.963832837642622	2.146915430370575	8.628928162723328	10.706820460943952	8.515830972151937	8.358012178299903	8.272882440660831	8.117423037061629
264	-3.5723428636003303	0.44676151758884775	0.6201395972807335	-0.7008355242200929	2.400227779050481	1.1317847938573007	2.2215993348298437	0.5377152548565414	0.12305489151403856	3.4752435596462634	3.3441564952341847	2.233054393852436	-1.2240581481546675	3.34973000634377	4.778526294087724	2.5547516281476503	2.519960635498673	0.9225091314866537	1.66427957591437	7.178847771639556	5.810660824410302	6.60036228420849	0.7958437184267839	4.26021145698692	8.244412401365036	8.299906709696605	6.634842379031104	1.9626702020683546	7.924792746562867	10.057218526243707	7.915552596134535	7.666648368552509	7.612244109961839	7.549407463086795
268	-3.1798152843301364	0.7424412350983249	1.020396826075174	-0.6675171835258628	2.39158987395144	1.2760462728708222	2.2348952236970314	0.855717120394301	-0.09894593035035186	3.2745053685484646	3.379662743618661	2.434830421022444	-0.9147198773177821	3.250900021928375	4.404771316851433	2.3419105947494754	2.4700221953018793	1.1560883492845266	1.3247679438522428	6.684598905852503	5.2923436031237125	6.420982344628421	0.8715921618390532	3.891835918137316	7.678034763024494	7.628530959896305	6.174670203831843	1.763716454821336	7.1498184023586004	9.277782416761397	7.188642960518634	6.8970136468323195	6.8189482516741915	6.854300481656957
272	-2.586033814576849	0.9834980939829705	1.6557880598225276	-0.30337339563069277	2.557198994855949	1.567448373651826	2.4066417156492776	1.1639560431657245	-0.21569487398049297	3.261983147968508	3.50792287894547	2.851706259203332	-0.3698354652127243	3.318515292372287	4.227011193093692	2.1444666331508055	2.557585948208854	1.6188855130330684	1.2007415264331407	6.335895522333479	4.844600188421636	6.221927627113408	1.1101076574908266	3.6577896979488065	7.250770550541221	7.020519715703847	5.692761883667929	1.6075270135347681	6.481164439050451	8.540506341352334	6.504170401364193	6.224258407136821	6.081472858333501	6.186670287724886
276	-2.02864026511133	1.147235867464836	2.332218641114888	0.24666419563005565	2.7557055880589916	1.8851290893643469	2.6678457192775205	1.3518383468829567	-0.21005640870942754	3.3375232135431685	3.627724161525691	3.2700965321948496	0.18447636021291475	3.488993874324072	4.21478222736529	1.9483700941485265	2.6901035240919304	2.187232488832017	1.261214610730229	6.1507105672041025	4.513821113634215	6.002534374340907	1.4171391689760837	3.551746121022327	6.9916791739370625	6.561159594182955	5.273494230307533	1.5335898360633606	6.012643322069291	7.967552164942458	5.990880474223846	5.74581383208135	5.53359316382443	5.669679150571911
280	-1.7339692072005177	1.2129274576081237	2.751802675928953	0.6788031441716543	2.7685379912095764	2.0242779203805226	2.856044523657711	1.3721055949854735	-0.16475000935920794	3.3086125767143053	3.5735962300675026	3.4141940984356527	0.47526556133440206	3.6200892833863985	4.207815636501531	1.6775313573445354	2.698492520195018	2.6507449083160575	1.3702446187709947	6.043800338744777	4.246351708181581	5.717857823240799	1.6510035949984867	3.4852061183674485	6.826152307442136	6.238561137661012	4.9422316426429145	1.5364748200724951	5.719243512019038	7.585061054152784	5.6871499871672055	5.444260106646411	5.202604280687929	5.347187505573135
284	-1.8106055213991195	1.1674562663166774	2.6751453808954433	0.6935855728757874	2.4317021308539504	1.810389156539131	2.8020875383203063	1.2622150150856133	-0.21266511028956453	3.009653799087756	3.2149279036415104	3.088670961211255	0.3210619381904799	3.561814299173787	4.005969037432287	1.245645758344915	2.4309527812617264	2.7955737043371185	1.3570063079905144	5.878340706288988	3.9327542682537335	5.3145685061742896	1.6724005895352239	3.3381369029642265	6.626876814323432	5.964860424240713	4.664824950838416	1.5573862751741179	5.487040029023753	7.3272828870790025	5.536299691527558	5.2132134305940045	5.013560759284115	5.175145613002129
288	-2.208997005607511	1.003305790275429	2.067804092908569	0.1758555318445588	1.7418309406172532	1.2028597562938206	2.4262459216849868	1.1186509104142033	-0.45606911067257183	2.4061338840770734	2.542794459598738	2.2884693087973655	-0.27148321202399767	3.2376305975234003	3.4851760776265577	0.6223914607546625	1.8459334326868782	2.495321029085052	1.1051771612874546	5.545618520086794	3.4845871837376636	4.7784056542870035	1.4019663298496574	3.0274963302469313	6.291505797714108	5.635593400078135	4.378844726951072	1.505722161306144	5.191074358231687	7.086400014152017	5.428465829495125	4.931035506196572	4.845459448978549	5.056358801473423
292	-2.7572998930934185	0.7159620505376455	1.1386407585006357	-0.7172321659099575	0.8768713452134809	0.33148190295451624	1.7885204508448325	1.0353574726667354	-0.9015784836894619	1.6253961283654466	1.6942068295619555	1.2141281335694478	-1.1078985901517384	2.693654053562947	2.676647894777148	-0.12724186447919836	1.050771114557446	1.7693599417837111	0.6158203467079899	5.029644476589699	2.8983290122289316	4.164712418531742	0.8611450173570678	2.5579821998863204	5.804495319970302	5.193634496927617	4.038694848354301	1.304211851641874	4.774792659148421	6.778374654822284	5.264667020857163	4.53836630629075	4.605828750425844	4.898433196098221
296	-3.2494342245077594	0.31056016605169584	0.2503559285041883	-1.6174234111004195	0.12016622691809839	-0.552076815164978	1.0698071691205908	1.0465433571142018	-1.4471723996818122	0.9003082491078606	0.9011759735243099	0.18674142611562802	-1.8971195173049602	2.088742012472405	1.7685311988048464	-0.8531762936032307	0.2659415297946419	0.7880017737520639	0.013542553375742384	4.425158489498935	2.2726068439326292	3.5943043141216653	0.17847295060397217	2.0301508852247037	5.2532496319699735	4.666557300229794	3.651862612087306	0.9373916363891119	4.287867058418561	6.391153796272335	5.010231959091103	4.077319611745552	4.283750523242187	4.664638984347186
300	-3.5346259981560055	-0.18106457545342414	-0.2479794168171876	-2.1254022067768195	-0.270304798397441	-1.1800358265647632	0.4976707982372917	1.1045758696324786	-1.927725548645534	0.460088818103753	0.39238530298347396	-0.4897753285916985	-2.383138173762207	1.6282335478681704	1.0279082033908042	-1.3769249881312646	-0.2675097577970454	-0.18022130384243215	-0.5095985518940819	3.8999049565080566	1.7703123047955278	3.214520923128011	-0.4455725241378702	1.598949666754666	4.790686118428362	4.160597313866839	3.287216416642593	0.4764620947729247	3.861084451463857	5.99090526975601	4.711007106330948	3.670218220027413	3.9531505008072183	4.391429413198595
304	-3.5684876351859915	-0.685443340001447	-0.18494902504479024	-2.0217940756297135	-0.1829396630675178	-1.3833852971435794	0.24918487605124282	1.107948419634645	-2.1964981500482472	0.4237453926831975	0.29435056373666413	-0.6526957733841451	-2.449600451960495	1.471509333710028	0.6798073036196501	-1.5683264692764403	-0.39165171881975297	-0.8580094554219302	-0.7843342999682936	3.619478454988282	1.5460544785566097	3.1429803292076817	-0.8078659156429824	1.4025595152729646	4.5641894225280435	3.816282501122259	3.0504248065226607	0.060572769339933066	3.633254757291147	5.685864911029093	4.46612500016821	3.4505603226327772	3.727113952763404	4.165473927471471
308	-3.411935082404369	-1.0933872433713596	0.35826614408638596	-1.3882538045165416	0.2943240396698061	-1.1645041674776953	0.37743183875158975	0.9696433519677794	-2.1996114198462955	0.7468337993839571	0.577246843311116	-0.3345230809348904	-2.1479320471892978	1.6579496818644945	0.8013573268685213	-1.4051870072173196	-0.09615220850271859	-1.0583088371260008	-0.7448604684143605	3.6700804140890404	1.674498076979574	3.4172184381039203	-0.7826877216605307	1.4938520155383839	4.644753444388847	3.7465624714673527	3.035552732433012	-0.16222222108414927	3.6708202269381247	5.568238244303366	4.373225677892993	3.4846229465244383	3.690064182501721	4.073983658995186
312	-3.1884660640324167	-1.2902607885209691	1.1005208464493572	-0.5651903734242583	0.9150725580000276	-0.6919703466110971	0.795384941477106	0.6811260563819761	-2.001060003950495	1.245651480390799	1.0715817186003633	0.27239188483130433	-1.6470246273419067	2.087149614786606	1.2844232288356954	-0.9855279301556715	0.4848570513404746	-0.7530065755906014	-0.460809527664235	4.01662634789122	2.113811964420218	3.973091353875769	-0.37675878310448535	1.8086852981678836	4.990307795323047	3.9848203558450574	3.2747807420066315	-0.10622812035681885	3.924010743724417	5.6634650087418965	4.473420608670298	3.7266905213679884	3.844846000500827	4.153888215067861
316	-3.025990478505128	-1.201730367487468	1.7112079815576058	0.03356695166696058	1.390774604147018	-0.22051651720161877	1.321981069088161	0.3294839552666895	-1.7437905029139416	1.6857931571359934	1.5476099213627412	0.9158183313135745	-1.1400821180169551	2.566537850575779	1.8875307989148629	-0.4844102549243663	1.1374908656965321	-0.0764577163315638	-0.10170100603652646	4.518643367802948	2.7217910221045787	4.661928641946803	0.27157440713027375	2.1914985124571102	5.4630861144418965	4.467224109815094	3.7122585679742497	0.2067250604178582	4.247473706011999	5.915410503711264	4.726972568021596	4.036852826416813	4.107119073035062	4.369492519790846
320	-3.0037734432676415	-0.8354012945064151	1.9747552821846324	0.1456872072117879	1.5255750379192283	0.02580385089856328	1.76779806167596	0.05693807811070646	-1.570346351473489	1.8891808938966586	1.818322177110838	1.3940204346747116	-0.7622969727343513	2.902911417307694	2.350098842409466	-0.07802769522040318	1.6582812028978982	0.7306143623025624	0.14677549861567168	4.993869292048674	3.312768450956132	5.2966360912110195	0.9452020502068255	2.465601676437918	5.88979576531158	5.053410517331697	4.2143235100202565	0.6506596787237583	4.47239064041118	6.2112254939617175	5.029291617093519	4.250168789623359	4.347157944194159	4.627517688511953
324	-3.125769130444373	-0.2910333268447098	1.88482510567676	-0.1999440635163003	1.3061195578977387	-0.04488795239321102	2.015705103553412	-0.018201818643748768	-1.5456535777168625	1.8108336879787437	1.8203710271651743	1.6242239434242531	-0.5603893385090116	2.992464773252248	2.513857119889083	0.13045603003943512	1.9282314728691103	1.415096875432656	0.17258042053519307	5.299020753833172	3.730007400632075	5.712950215220963	1.4348356687559283	2.5147144730973676	6.135612949139193	5.576795563922874	4.617390144134447	1.0506591770348406	4.490157592880971	6.432086451503463	5.259690271449562	4.259111870502879	4.455212581830283	4.822090136751174
328	-3.324834099958262	0.27293291619056453	1.623791452122855	-0.7087339144932727	0.9046035982181097	-0.35202091843420014	2.0621433205992528	0.12722127107448045	-1.6251826245284	1.5530241688618889	1.6376887518543082	1.6489347177835563	-0.5124391900476155	2.86481618157929	2.392196410815143	0.150045707443017	1.9434076498556354	1.8043389274818356	-0.010497802841981046	5.389478193027397	3.9032499691644063	5.826226219726228	1.6216896731440915	2.336880201161712	6.158509715743982	5.905397400251438	4.79590176325162	1.264747854854304	4.303917873960312	6.505430681970142	5.3386082514444055	4.066188325152562	4.395528782237317	4.886011588158391
332	-3.493736019850429	0.7014492136411509	1.4419410192323736	-0.9935414169976221	0.5921302422832436	-0.6850866658080117	2.0008487650899442	0.40270694988620154	-1.6876132445642593	1.31101679470941	1.4544366561408277	1.5866875608438524	-0.5712820873142127	2.657266133275179	2.150633329683698	0.08470734187435702	1.7947229101645	1.8564660502292556	-0.2763822369750077	5.327199922463199	3.865125407950847	5.6613316393014825	1.5152854881176312	2.0406947084402702	6.0172524300288455	5.986237987663301	4.717942225942345	1.2471172778114146	4.019497861250669	6.431291563962745	5.262474523609281	3.7771155738834996	4.218462933380167	4.820126044501494
336	-3.535893669737888	0.9014869309553181	1.5046800336995223	-0.7964098433414313	0.601294694812901	-0.8137567022759061	1.9581012676392773	0.6495769007495024	-1.6128412444402354	1.2746248213058076	1.4570832215714626	1.557303782345957	-0.6993237716184715	2.534676783837983	2.008917326623528	0.06849295628659416	1.6130957562727837	1.6511081415451587	-0.45896258834356546	5.234225259917176	3.7217833901853092	5.342239843232112	1.2313909499550015	1.7836713745860182	5.830129131856267	5.855238422869532	4.459878910248677	1.0601426336225304	3.7820629978059452	6.271517737767014	5.098666655065337	3.5389270693121384	4.025594224302904	4.685768115610979
340	-3.4134721669799557	0.8705859758331401	1.7961080028962935	-0.133471145888947	1.0043170426761352	-0.6120956524653798	2.016515011464575	0.7351035457171315	-1.360269185446571	1.5322725734171503	1.7331390337101822	1.622418637947854	-0.8713574387485202	2.5991437369528074	2.1170768684341916	0.18715269816353985	1.5102460346238848	1.3360077108984503	-0.44336983449575684	5.219134794409621	3.595127573473224	5.045520769731988	0.9272487140132921	1.6857978062982741	5.708766446005451	5.61205719484581	4.172058571772473	0.8321894386261576	3.6950940992523273	6.11102150327843	4.944163786803075	3.458260050625422	3.9096524616714348	4.565685737526707
344	-3.1720590511343874	0.6800630671497355	2.1237304157043804	0.7162075620688555	1.66699683245353	-0.13654659653998047	2.1626703684564084	0.6325821860554715	-1.0014698480116928	2.0223910757502765	2.215386623511301	1.7633674100224126	-1.0554854843194081	2.8386695313309733	2.4719822344357247	0.42737898122649853	1.538989659238509	1.061220404806638	-0.2262436592827249	5.317687021181064	3.5654725938422853	4.932704913083227	0.7327797394371405	1.765857692074841	5.703232273961318	5.37339972093054	4.010232438453017	0.6871758682067591	3.7673442268622717	6.014060482099892	4.872742640590574	3.545654526341662	3.904662122404859	4.517617214241086
348	-2.9256882593674978	0.42796498429012825	2.2297556344003153	1.3706934417450203	2.305952781577321	0.38787767193139333	2.29163240807832	0.4379702795415092	-0.6850254518379819	2.5567216808617927	2.7032694748338364	1.9016431522041226	-1.1991996734859838	3.1432983795914002	2.919219486495646	0.6816158277468589	1.6834976630621992	0.9279556250985435	0.08602489509320993	5.4791064124056	3.6399378684650694	5.084385859050367	0.7054520231555809	1.9346835564404667	5.785270676311565	5.2244791852652686	4.061998833891168	0.6825964433602278	3.9146263500560936	5.996728405117285	4.896524416958753	3.714389791647458	3.9724137682756733	4.543625820132451
352	-2.8025789190105943	0.19259561549675216	1.944295043804811	1.5592030247422848	2.6254539423459753	0.6733705980466068	2.26361274147731	0.30935880463695864	-0.5530261383399188	2.9066383765268	2.955583088088407	1.9443746756100297	-1.2417092291953078	3.375413170875484	3.238108626773292	0.8052381852800489	1.8748558712353771	0.966060278360798	0.3371065846515122	5.602630601089093	3.757535448124219	5.46255014947743	0.8236768820947628	2.0473997541234152	5.874425873230024	5.1880483496333705	4.302806366547347	0.7863574604207967	4.009862412819186	6.025401577041962	4.959897028798265	3.829560747014638	4.0279016393056235	4.588951576091013
356	-2.8741848396214325	0.009646699739478902	1.2880966630839281	1.2617746559711245	2.466746562451873	0.5184226619029311	1.9838218638878156	0.36078363565908567	-0.6574803574174752	2.9123115466021985	2.812622540048469	1.8322806312076763	-1.1500087947420758	3.4522778900722884	3.2633678830724335	0.698318598891517	2.0237443396018406	1.1415367097643812	0.40572073953237053	5.60220192448495	3.8279766939790867	5.921676143954234	1.015639540969082	1.9872248122587406	5.891409859088022	5.225248800436665	4.606502521328683	0.9033706165393989	3.9534182448708735	6.041429981237334	4.972052561604489	3.780796756735534	3.9897394079566615	4.573529231922187
360	-3.1075858991365215	-0.12079028754732113	0.47516837596134115	0.7014870029858431	1.8931585502510568	-0.07760330270009329	1.462978359343444	0.5708202705276589	-0.9246838069457933	2.5614452297390273	2.285679573010342	1.5673317869669399	-0.9576247310302586	3.3926792059118474	2.975775949594432	0.3677188744797717	2.054627413330631	1.3754117454135275	0.2677549713050323	5.459630475565123	3.7826650047166566	6.2655467828870695	1.1957120865196913	1.7326168970232678	5.805120930320285	5.263705240311496	4.805198180464476	0.930402693783619	3.7228367234651207	5.99520204937773	4.858901965271515	3.536877623211356	3.8242800139194504	4.437207210781992
364	-3.370381108357671	-0.20841154403519754	-0.19145604919732978	0.20492930658576028	1.1663753956910494	-0.8972852207417747	0.823139903851337	0.7703554014783489	-1.1893882721435676	1.999115462024252	1.5663815697223298	1.2097626893971198	-0.7744268755433869	3.2981204903302728	2.5119209226130876	-0.06710517389521195	1.9291453312804994	1.5629380901930598	0.001698360424857448	5.234484182493427	3.6102037338660686	6.3272433121197285	1.2916930881313056	1.3691096271280472	5.645911679318441	5.235671983851511	4.768168914200545	0.8081235269170511	3.376245966970183	5.86923025556736	4.604825961884674	3.154150239610389	3.5587789922509088	4.17295836348773
368	-3.4931564242860964	-0.2507157021391442	-0.47545966385962307	0.015883555595707775	0.6215530022187239	-1.6010541875470823	0.24660655793870337	0.7296412568744162	-1.2820552555140372	1.4618023597049947	0.9464464759773041	0.8513641931973444	-0.7472509126870422	3.282966367062259	2.0894918389017865	-0.4288329173228338	1.65647577821221	1.594620342996981	-0.2614571743562873	5.026828753177618	3.3613133345615953	6.040730937965173	1.2566213576061447	1.0411277983128724	5.480360970965664	5.108510004497272	4.463244426902778	0.5451266751831357	3.0131316108923296	5.680962548217983	4.2633843314295925	2.7395563056443204	3.2608804620429472	3.83236192689343
372	-3.3607599650408977	-0.23381657839393044	-0.3259937456960337	0.17445850328267914	0.5023431765271156	-1.8927646827593756	-0.10813940289136101	0.29910346790137626	-1.119331237827952	1.1668460339650077	0.6825340372973056	0.577519832583498	-0.9839357112838065	3.3992795858390306	1.8906085443447143	-0.571324466216541	1.2891963687772576	1.3864510024352166	-0.41255116358548366	4.915737616525723	3.120990745294084	5.470995412365043	1.0719906064624902	0.8715798832822604	5.3641886575687865	4.893846499485045	3.9696893591791578	0.20481486566808046	2.7185134819059447	5.46627472451075	3.929577817532383	2.3925311504993565	2.998508684217213	3.4993567378385575
376	-2.9821374341059586	-0.1525415923320402	0.1046170440655106	0.5303224907837145	0.8445023276941915	-1.6689807134452253	-0.17924876465840991	-0.47325980543812946	-0.7433848362273817	1.2153009145570874	0.8740872122630516	0.4367790807186805	-1.4818314276475903	3.605019083458016	1.9719072530551651	-0.45346265916776946	0.9079247094119646	0.9198555327079531	-0.4180389930184208	4.914728152264356	2.966084472797001	4.789579379386967	0.7543870787647587	0.8982424713344507	5.307228551816601	4.636897075390128	3.440234413997959	-0.1275797781107381	2.527295821484792	5.259542451930892	3.6926586534729537	2.1632807200173674	2.8086037564892794	3.250975362199181
380	-2.4968843397042737	-0.029241390452467295	0.554994283705433	0.8678313471818002	1.4685746394272763	-1.0697740289381794	-0.022755095677741206	-1.3245290484365864	-0.2920110516328144	1.5566394289769678	1.4181885683493498	0.43002498041300957	-2.1067113823153423	3.795313825561797	2.250374549906119	-0.15750378330519152	0.5979760870141203	0.2706051462017059	-0.32470846094166456	4.972015368306243	2.931947462308848	4.207323540555508	0.3646696796746955	1.0618824931991313	5.273921953237362	4.395699013102366	3.0343370361012423	-0.3776758005620395	2.4261803565758995	5.083696352521346	3.596711864927354	2.047906870439884	2.69196914946869	3.127246610375335
384	-2.1059794372793488	0.08786948003041682	0.802618441939495	1.059734937853296	2.0855829663072853	-0.4012916972042278	0.22818978073205032	-1.886312122350862	0.0832287145539859	2.0317847677431615	2.0654985852544776	0.5236474262368163	-2.637855999962368	3.8798484704289335	2.5691671306594728	0.15823130269632193	0.42608484518240264	-0.38935857912942134	-0.21597459857771764	5.015142904971038	3.003807537124367	3.893588294689288	0.01011433636078673	1.2511957852245181	5.219229208166707	4.221996296713531	2.854865305368452	-0.5000388013612722	2.386113876040461	4.953863608250753	3.627761593242516	2.0168271013838313	2.6327390604306093	3.122982017261713
388	-1.9650423477151366	0.14937786720231727	0.7799040655472584	1.1477608651746922	2.454939359188837	0.02668802060899366	0.44063418992373	-1.8712464523754715	0.3004180781409008	2.4649867949239677	2.546576731928056	0.6749759895449339	-2.8656980919011605	3.853182306098066	2.7986164022359308	0.34524363192177016	0.4227059770879061	-0.8362343886243373	-0.15218220612727437	5.009228693712776	3.1334576527638287	3.916243781692635	-0.17896848871822246	1.3731964791913984	5.1343588699410425	4.150302876484383	2.9166650698456014	-0.47905403254676093	2.3972725807699784	4.887631403980718	3.732353916281668	2.0504434056965413	2.624256842663329	3.2027225413523794
392	-2.0979928917367685	0.14152546191246557	0.5989780410902649	1.3007998433649661	2.5078389581305958	0.06336916967128417	0.5551762566854729	-1.2313934533500759	0.382802545057839	2.752917998039174	2.7051370075592236	0.8573001601508938	-2.6914884976144346	3.8101849459771318	2.9109325335441567	0.34235411795964404	0.5766437635168012	-0.882262942947671	-0.13264717128165235	4.9899387233635295	3.2694978631442373	4.22830819016073	-0.09812356506846207	1.405204888610707	5.069465147570704	4.195718754665617	3.157864085807677	-0.3217079929335692	2.4800093111366497	4.909723269464492	3.8541231058088252	2.1553428118648013	2.6805198124919816	3.326867095177128
396	-2.381062263199211	0.10394291553480295	0.472345619201195	1.68430792860123	2.3687205254831785	-0.21101982838282216	0.611663876419717	-0.20563173242150362	0.4298410106773748	2.9021754191558657	2.567978614045652	1.0689393254948523	-2.1773979608874865	3.8925816914508626	2.98475431642357	0.20189647325563365	0.8424395897576575	-0.46923214078689085	-0.10052115444791823	5.04713486350843	3.382079354330333	4.7018890262148085	0.27623394061918094	1.3986879551859985	5.114019381009241	4.3542480358815805	3.480369797502584	-0.053131271019544866	2.6635758809551713	5.042588698053599	3.9639980692917938	2.349980825213109	2.8237790990107796	3.4709045799361493
400	-2.609976523485516	0.11342667759629653	0.5786468372040657	2.326429838028917	2.2648346366921204	-0.5428262935284822	0.7133803349603624	0.783046303202594	0.5419512973453886	2.9967925472891728	2.315783256406017	1.320829626563297	-1.5192531308917325	4.19560240639931	3.1387753407386842	0.05143100010284574	1.1563129395854732	0.28303658890789885	0.013393022086184802	5.26499174696108	3.467579356021815	5.187235342280687	0.8560417868935729	1.4332896434836475	5.340980516300477	4.59973524839655	3.7929043674074796	0.2816177599472477	2.9458675310145477	5.283854948054812	4.065009106863304	2.629230254210831	3.0545227450499124	3.625525465394768
404	-2.611346476637575	0.23791108965411586	0.9520480012698633	3.0742456835377143	2.3833494126227577	-0.655007539525922	0.9517262553981781	1.3324191536641632	0.7529875021043214	3.126518241618019	2.1783509199457494	1.6134417016301867	-0.9536612009766363	4.697061050000191	3.4448528202820747	0.019625579888742677	1.4581773244281975	1.1093015642769195	0.24235956309640627	5.659998879447669	3.538549891120952	5.571351514101414	1.460284467824977	1.5575201472059452	5.7519020889019155	4.883569705077399	4.038834084804145	0.6184146984699335	3.269280663819224	5.589386449053439	4.1742496385088845	2.940474741187465	3.330490819151744	3.784335842114782
408	-2.3338696897709976	0.48469665524178895	1.4587693177586118	3.66647647885644	2.7595870425169653	-0.4061363329170177	1.3317879404775856	1.2531179158043821	1.0095274422906657	3.321314088065294	2.309739107022473	1.9124872636193098	-0.6543732865024683	5.253251062481445	3.873342265840258	0.16548822778404854	1.7042849020844233	1.7012728409729485	0.5598847255876171	6.153306945523964	3.605382194953071	5.806364044788582	1.8788721513994924	1.7525796846010406	6.255997165143846	5.1383623947112085	4.1962714089305795	0.8804714061441804	3.5307755381132364	5.87312029309416	4.292206753384411	3.1894504943430415	3.569471350240881	3.926678409199249
412	-1.8662908030120677	0.7836447338346281	1.8785773468271776	3.8810348412755475	3.2638528264611018	0.1358065601734788	1.74992131745077	0.6486822946383272	1.2108705013221184	3.5359141737356388	2.714461319745765	2.1461286490615263	-0.6683502180391404	5.66990803240727	4.306477058981927	0.4529008853921797	1.8687937212491565	1.838443632252602	0.8939177967390461	6.599217875031692	3.664938440606539	5.900789722803354	1.9594904134869053	1.941806430682432	6.701174242266952	5.2913985118785405	4.259553421710261	0.9955386494297133	3.6255881694809133	6.031527980835088	4.38374089087914	3.278200141259473	3.679903497941803	4.011974801424692
416	-1.3749763930891872	1.0189071867967083	2.033037657373177	3.6685619261625764	3.6909406091962853	0.7433894257850179	2.0382156320610316	-0.15869097371566918	1.2825413909955978	3.693712463589922	3.261325112691849	2.2298488560645087	-0.9206395125987044	5.809168324108895	4.611861694136198	0.7818780521679459	1.9386820744204838	1.4806560240555873	1.1684328288142118	6.8573336428126295	3.704158535188304	5.888639912043014	1.6709594684374829	2.0383737035785767	6.943733674637947	5.287234769823623	4.220247734858814	0.9178178883268061	3.500848046047073	5.98431538024628	4.384297836678515	3.1548077980498905	3.6036424545857595	3.9908449549051643
420	-1.0033445332944353	1.0914068194490525	1.8837761831406508	3.186650506557142	3.8893084427866413	1.164996501842297	2.052895779194988	-0.8133774975268026	1.2325113980646605	3.7516117001228175	3.7662904167453033	2.1087081379102766	-1.2760326830118476	5.667420372959206	4.723792541021568	1.0514041158833627	1.9072842549807127	0.7766242603721285	1.3423161472762608	6.864299756839231	3.712923994226842	5.7971277090575075	1.1118350000920565	1.9975172230832796	6.917050821006584	5.109796034309698	4.062202920194363	0.645194350044167	3.1858422675760285	5.711711392287079	4.23068856124847	2.843852512808976	3.3459815894525993	3.828442087044318
424	-0.7997139672115682	0.9805930828132419	1.546847220330121	2.714681856930877	3.8488032720667635	1.2648148504748624	1.761698837600783	-1.1142433853627702	1.15186571784072	3.7387199307461865	4.0935788051249125	1.797379608384721	-1.6167528588483893	5.375681863563939	4.680308330163338	1.2149028747402824	1.774101014426465	-0.01465165425118085	1.4220437967636885	6.664420111042609	3.6957721616895802	5.633131966673705	0.45978501323009985	1.8403570605543507	6.66077945934892	4.792838084517899	3.7748100662294086	0.2216908479100186	2.7798879076390506	5.26870058636822	3.9008812805870123	2.4382960734795143	2.97545050823478	3.528173199328913
428	-0.7139703613375044	0.7632729391854394	1.2209151952435964	2.496957534207873	3.6925272848362005	1.08630478107845	1.2783064809949984	-1.0947015257853387	1.155524966183532	3.7394633198739484	4.216601837956398	1.3916645014912676	-1.8882374715815355	5.120620714610738	4.59276579650985	1.2955598798467016	1.5533928831935384	-0.6443505866948569	1.4414684736097874	6.380939467532254	3.6719360258855027	5.394794450490782	-0.11013698550073944	1.6344157416086653	6.29322479566509	4.409713733983731	3.373517743176412	-0.27770256926041625	2.401924365655084	4.763977038753364	3.4353301438382218	2.0540583081837522	2.5902180606295175	3.137116424269484
432	-0.6589539630465368	0.5724021181913592	1.0727590295409946	2.6092114382671108	3.579867353937778	0.8040799478256977	0.8184384682972584	-0.9599093174540865	1.3005447354859714	3.8286771677627187	4.207303036557756	1.0391259167185003	-2.0928995556442813	5.03462742488034	4.568359363466001	1.356236931237696	1.2836201158540195	-0.9730578636397617	1.4266113006812948	6.145954593400193	3.6625368502653126	5.095121847640204	-0.4944314944181844	1.4464151822764975	5.944451793921146	4.045021523753367	2.911528341571827	-0.7714697699142561	2.1310961192685474	4.313142765599619	2.9259583876169377	1.7731845334107126	2.270358079900221	2.7285873821032887
436	-0.5950136169669733	0.5149458633773158	1.145089861839761	2.9243154451924966	3.584173670302638	0.5972142204465247	0.5920034632041264	-0.9336076355251	1.533450241985649	4.001417626768729	4.166302193613178	0.8761477448277345	-2.2506978454985647	5.120814787333637	4.636120307661376	1.4470426999751085	1.0259461376990417	-1.0052796576868275	1.3726412023220729	6.030744537386139	3.674204340241348	4.77779291854026	-0.6875779611393987	1.3012065854598864	5.690711483892833	3.7616624737180473	2.4721176561883125	-1.1938075989146364	1.9747869918555727	3.9907295603131705	2.4790573057527006	1.6103006560677435	2.04531096895718	2.372836106985239
440	-0.5758707508806609	0.6002437457188747	1.342718120999611	3.1962783255941134	3.6303946880234657	0.5298386798832943	0.6882037503033156	-1.1074147196466735	1.7063126520945626	4.152906407361599	4.146120537780343	0.9608427261889124	-2.3591089189095453	5.260992036888171	4.728949534874515	1.5683445890884062	0.8486522414715558	-0.8492814877048609	1.251394268691119	6.019483074249288	3.693323126051232	4.513183582355307	-0.7551987748152608	1.1762201756344555	5.530053601608025	3.5813417344272196	2.1433317607171474	-1.5053459367892716	1.8830070448064111	3.8064625167110173	2.1716520731456455	1.5220717153267551	1.8947356891478317	2.1117482132047254
444	-0.7188532930344657	0.7247260790647128	1.4941970072214728	3.2080693163938117	3.5366384893771206	0.5125958310536898	1.0148435805447609	-1.388455387424663	1.6556795793693104	4.129931916300219	4.116498936750394	1.235715624550406	-2.386850827866603	5.299201475115676	4.732645499678416	1.6719927745567003	0.7982292751186064	-0.639949081712531	1.0422944996267602	6.037174686448273	3.6951143648314995	4.370814312390047	-0.7800874690387692	1.0312837336252016	5.408096776659589	3.4861285598476637	1.983753795383654	-1.6947148995527381	1.7954041912525627	3.715161552586061	2.022363896032328	1.4490139447821433	1.7774491265243353	1.9485506962217398
448	-1.116510030788566	0.7243453245948489	1.4514372312140134	2.896923296290098	3.1372718731826654	0.3688452532515708	1.331630226587908	-1.5754301508228363	1.301705118707529	3.8294744394892213	3.9940099615347466	1.5462223252358733	-2.304093116665024	5.148158060427443	4.570613372707137	1.699170465947739	0.8733027555351432	-0.4705383765738456	0.763644514540031	6.010945781790373	3.663077345182771	4.384059418100015	-0.812626598213818	0.8511329271761997	5.27366160014964	3.4392509373616478	1.998238916120398	-1.7723785594060948	1.6904522137877436	3.6530759242332906	1.9928367087594645	1.3628168071671285	1.6693359571271897	1.8582819653323979
452	-1.7512319043767823	0.47355484842902273	1.1661641568304988	2.389051192927576	2.4109325348065354	-0.03738967692352731	1.367700811747693	-1.5054538211960427	0.7103505116647894	3.2832698739126887	3.7142789270084555	1.7117888884241201	-2.1232254451551182	4.8522472259084335	4.267728794767013	1.6278111893563583	1.0187178824453795	-0.3649077406253274	0.4799134719176074	5.92327211791871	3.6054563431309843	4.528471458445859	-0.8505628087503625	0.6693514568595496	5.124973284179827	3.4112844381036433	2.1364028399887918	-1.7612360671399152	1.6039786298309584	3.5791156201597687	2.017594570788021	1.287866589155676	1.5850362737691641	1.8114391519588433
456	-2.471185439546379	-0.02980535656139212	0.6987177711965701	1.924460406212982	1.527539964633933	-0.6959812623571962	0.9641433333850165	-1.1754794091110572	0.07631007562682791	2.6673896245368507	3.295622340464754	1.6136861998824379	-1.91882752887735	4.564052570263985	3.94721197085395	1.4962508640659575	1.145608660666576	-0.29610922857864425	0.2735296778925491	5.8206605764297334	3.55407523211569	4.727009284482685	-0.8528581836148675	0.5518244490996361	5.012242781382168	3.393906823172542	2.314325326798492	-1.6880967574414567	1.6028418500486723	3.496104708427823	2.0435857721231567	1.2811621395189776	1.5683577021102237	1.7954045488804304
460	-3.0514984053816447	-0.6465278251537154	0.16781091647695293	1.7196582512353678	0.7763777355619599	-1.4347331487671733	0.1664775456755327	-0.7607403974399719	-0.3671851744918003	2.219772810099958	2.8500161099003485	1.254484531096342	-1.8053122713285603	4.445670116644414	3.7573580647018154	1.3836530412072345	1.1701433629056575	-0.23049353004912515	0.19540916333930378	5.771749481887694	3.541380634903478	4.8802595015335095	-0.7763690332838447	0.5476804957867343	4.993470656185423	3.390542021774177	2.4466512141444547	-1.580040808503151	1.72810685198308	3.4371449860577608	2.052388424459941	1.3816978896542484	1.6542603927807915	1.8164590551291528
464	-3.3094463264833185	-1.1574081153258113	-0.3186370722355273	1.8477907134133902	0.41287258163162344	-2.0061092326059593	-0.7855734209254007	-0.5164184557274187	-0.46344643714244077	2.107028479024747	2.529387467673969	0.7573388199758733	-1.8787876320134143	4.559751499107851	3.7729959392656047	1.3578826154757897	1.0514500114597238	-0.16378991264475118	0.22690014483862359	5.804525360711193	3.568882217933408	4.9060401792638295	-0.6115186199007661	0.6418860538489064	5.074900614323338	3.3918411646084214	2.4735808310045644	-1.463206883550936	1.9458844612583786	3.428008547711077	2.053778643191172	1.5637164076425718	1.8280560924152416	1.881833071725879
468	-3.2033514895624613	-1.3721910680458655	-0.7086837273824985	2.203183645407955	0.5142576681504767	-2.2252423707093176	-1.5694285591555548	-0.6260787232804482	-0.20961520022875285	2.318930858479369	2.437771552606815	0.30353638453141957	-2.157681698119882	4.820983397709779	3.9354925056278014	1.4242557251257186	0.807908234940666	-0.12276924370525429	0.2806395881243084	5.866645798176425	3.587651958944369	4.768265712143415	-0.3947297622728276	0.7438309173877545	5.179267870224387	3.3546397601308127	2.371649497720046	-1.3626005615164294	2.1397354548790593	3.450266829362644	2.056906456522509	1.7260451273255046	2.0088114687746743	1.9736875245808219
472	-2.854327433055357	-1.226146218065167	-1.003384468406334	2.5632400447979724	0.9308397746426533	-2.0765752739929915	-1.9383306454357754	-1.0901101800098825	0.24412959752434857	2.6584002904531014	2.5629377300404346	0.03776830797792643	-2.566622250752568	5.038888918552442	4.073718537535894	1.5090620479630559	0.49955329172848	-0.14278863334367883	0.2458982908477868	5.839992985285953	3.508027306282853	4.480658043039233	-0.1994398529262571	0.7272495609041973	5.170994268713294	3.20329927589377	2.1458890383901346	-1.3065664735231362	2.1563379710114585	3.43131493655771	2.039288038827123	1.730813975732654	2.072074646486654	2.0331945367978297
476	-2.4787719187142367	-0.8142800310557128	-1.2205964296041423	2.7101190021755515	1.3653000558714912	-1.7264530615133173	-1.8465295983424166	-1.731232996384367	0.6725766045755585	2.8412914204387336	2.7711255480420327	-0.008077020736507793	-2.975584261057318	5.03118561428112	4.000095834169528	1.4929876289820334	0.18919835936938884	-0.24417194662435457	0.054238762569578464	5.607234940677077	3.2410230554768713	4.090524186297175	-0.11144727440352868	0.5025315868087749	4.931305872864591	2.8624098228664936	1.8159486009525851	-1.3292373385247966	1.8850293111892449	3.274864426927685	1.9406688164351211	1.475547429174076	1.9065763902211474	1.9730021903769246
480	-2.2667591514577694	-0.34001383099541416	-1.3581970895808306	2.547355645424014	1.5373734196948603	-1.4312854969127797	-1.4689196311103652	-2.3034171999949775	0.8908652044692263	2.6561279229814216	2.8738856243054154	0.07146991771296553	-3.270812980023241	4.7422613977864625	3.6285624412476962	1.2784144846110588	-0.09309983229973556	-0.42194929612439297	-0.2722579829971545	5.133347498331047	2.752815716468998	3.655019274066641	-0.19721567580975652	0.07804543505275967	4.4406027681769835	2.3072080553931213	1.4072097504373102	-1.4665895663426884	1.3263262476813165	2.91739939906738	1.6899312691937218	0.9576172804496804	1.4749919138861718	1.715843673188663
484	-2.2805266322732294	-0.009322460717267722	-1.385965343790813	2.150254720981041	1.3390694822835423	-1.3951438630166018	-1.103512761190949	-2.6350727014769637	0.8443876483579332	2.09382461972886	2.7316281726534726	0.11280485214124722	-3.415792933423071	4.291568268431189	3.0435652656006487	0.8539364912407766	-0.3590399315829065	-0.6519820077647618	-0.620869217735587	4.511803615622951	2.1031401104279968	3.2254156984911297	-0.4785261142093182	-0.4277304698158516	3.8171501063294193	1.60391008448964	0.9528303122305651	-1.7450289682199578	0.6111429914303399	2.3803465306265554	1.25356316249973	0.29479446932750814	0.8474892356456347	1.2424939839464393
488	-2.4336492953845568	0.07047816348163234	-1.2715846268020696	1.7262864069269461	0.8887667037459174	-1.6614055591598464	-1.0112571690776804	-2.7265496185128524	0.6266828163537216	1.3670126165208538	2.3330945909722955	-0.02308021293713803	-3.4690699489745946	3.918236961008892	2.4731872019314616	0.3163007489801649	-0.6415898187651207	-0.913447377759685	-0.8416347482412875	3.9402341743170015	1.440820213494847	2.843412868950223	-0.9253121591094291	-0.8386362173841424	3.278889647788494	0.9095298624917133	0.499660878112028	-2.1669542734748894	-0.04760329040787225	1.7820800497838225	0.6738917214545623	-0.31749060669848955	0.18381401850068166	0.6192064269644861
492	-2.5590975219965415	-0.06841488910329668	-1.025084016119187	1.5131518802586383	0.4545630205121898	-2.0999545998006632	-1.2821543184334037	-2.7352855136476566	0.4219943274334071	0.8030360320797372	1.8040264799347119	-0.3729438772322353	-3.5460410028574096	3.8519987962743936	2.1756675188447363	-0.16619163709642817	-0.9585617160437621	-1.2083079784404045	-0.8268936255558795	3.631573906312725	0.9513873433888409	2.5445942814478313	-1.4663083516293483	-1.0120866273122806	3.0407240314006687	0.42041796339701226	0.10759860250009867	-2.698434346061864	-0.4500430512986718	1.2957969871230195	0.07010094058696249	-0.6941257101653783	-0.3311952642185151	-0.01493572998746314
496	-2.519493096666235	-0.293666183207081	-0.7212415915399409	1.6675847726681101	0.29474848434418	-2.491663211253711	-1.7992906525006849	-2.863466017169247	0.405802338290862	0.6674377901392224	1.3400026525997897	-0.8517405369235059	-3.7456695938908715	4.182871331144588	2.2983336390642086	-0.43351608405333475	-1.2848021951662205	-1.5584442576162099	-0.5742566571042185	3.703145017811102	0.7762163857889602	2.3582429826324347	-2.012975926085327	-0.9185508466417585	3.1988911547958905	0.285591512197423	-0.16596503513872546	-3.2688548482380235	-0.5038200008069867	1.0685185167038003	-0.4067791094046526	-0.7493358235513767	-0.5689465985238751	-0.501001297162675
500	-2.2898757399919347	-0.45970889809891385	-0.4773357498515142	2.195529693782382	0.5091125356218105	-2.6567027501741842	-2.318256610739372	-3.2244195856701583	0.6571493132212286	1.0146380637300942	1.10022008141258	-1.302969214010734	-4.091296662491514	4.804024684221101	2.7863464285120267	-0.41696008934606543	-1.5582122763393298	-1.9882451245654298	-0.19786873409858927	4.101957310810546	0.9403939223388683	2.294086450506817	-2.4917981561691414	-0.6659954173439444	3.6642949488631684	0.5240565525175216	-0.2960067383922117	-3.791444768869905	-0.2719697647380707	1.13996374319273	-0.648172555717495	-0.5428080545072269	-0.5183591233517609	-0.7333514671883825
504	-1.9636650035871444	-0.49121990675882765	-0.4009623219380306	2.956774704143748	0.9862436031236828	-2.5525937015936506	-2.6178789072698856	-3.7708129787608624	1.1258759470170556	1.6500749546352307	1.120857831986085	-1.591698523317468	-4.522544849421515	5.46157597116568	3.3936388406903086	-0.18238677038397721	-1.7215380625175478	-2.506886714328068	0.11973726719189412	4.609246719167214	1.3253943886672506	2.32013201127785	-2.8742058204563405	-0.45290532593820426	4.185625065726258	0.9900888775623692	-0.31970015087473475	-4.199436177141584	0.051288530101031064	1.4064764940991348	-0.6521818025335445	-0.25730934674148487	-0.2954612962892492	-0.7154431921061857
508	-1.6804147916329097	-0.4152502407080331	-0.5363906012343975	3.7364034558374843	1.4766738377481974	-2.284157985642357	-2.6285519533549992	-4.3295817265871674	1.6666972595096452	2.2297501507730098	1.2999328342042522	-1.6820534425229376	-4.938023077895239	5.884901985569297	3.7955140971677364	0.09337662136821245	-1.7707608893509748	-3.097201577949971	0.21285073405408764	4.930178629825445	1.7066837506119972	2.352755779048266	-3.188248864707403	-0.4705261576216975	4.459230411715159	1.4148997032682369	-0.3410859695406046	-4.480227459086462	0.22879192175321225	1.65686189710009	-0.5380699024920595	-0.11449804128110685	-0.09266598499267205	-0.565864501954966
512	-1.524353142704418	-0.3231487862057647	-0.8360835292687917	4.34617422913927	1.74695932424078	-2.0228564688155077	-2.457909101002628	-4.710318553476241	2.117829555886515	2.4450309214849715	1.4628303014061959	-1.649962421066179	-5.257118211824709	5.925235733331234	3.7484435940517145	0.2054113889514865	-1.7743745997452935	-3.713906278770261	0.012288682131735748	4.829720008100319	1.845039482226794	2.2765858115892095	-3.498832932221594	-0.8049730638207573	4.273966778454876	1.5157821140166459	-0.49694546931685124	-4.684354770277634	0.09108983702311399	1.6695232349206013	-0.49565505856304437	-0.269042699849831	-0.08971139765977675	-0.4661608922633035
516	-1.461415883189247	-0.29154214189355027	-1.1773883074598144	4.7045683741999875	1.7193735794526392	-1.89175807952095	-2.3054244460073656	-4.817924010510472	2.378249639228651	2.189316028789525	1.4668617211500459	-1.630661841090189	-5.465141759425721	5.624446377858964	3.2124733843758566	0.01892882767010958	-1.849780078032391	-4.2955803762701805	-0.4237038482458939	4.24636935115639	1.5886620243016971	1.9889635989517382	-3.866780032885634	-1.3929572070238927	3.615509977749156	1.1227694721484949	-0.8972628093953958	-4.902892577190478	-0.38661259315155205	1.3211332526230164	-0.6940118056895	-0.7359948139682078	-0.37139010335615336	-0.5761089906452266
520	-1.356403943451935	-0.31660383859808255	-1.4149816000499513	4.857350813999796	1.5163178405625346	-1.8877133083367041	-2.3185708464258346	-4.701571929505405	2.44464182236486	1.6156883198953884	1.2860276666597086	-1.732172127165077	-5.612041936056786	5.180864797863177	2.3744518696917307	-0.46393492700746414	-2.1005473083868136	-4.778913009022051	-0.9397892332191488	3.328924885928158	0.9418911314072013	1.455228563449314	-4.305707920647687	-2.051772827690255	2.678546183499162	0.2649739675984458	-1.5635796745878023	-5.21940039270607	-1.075594780113669	0.6530243141853175	-1.1931818693553642	-1.3850088084538725	-0.8894357062771874	-0.9559408998196051
524	-1.0592211458166294	-0.30321201605537085	-1.4413043224184905	4.938705431866905	1.3870315516738632	-1.8864345502909214	-2.4786281523114013	-4.508823860228863	2.3971481262720014	1.0557787391709628	1.0270156834421909	-1.9633544633886486	-5.766358360990661	4.836430537410768	1.5623271425856544	-1.1016166182361415	-2.5472047264638236	-5.111564146487852	-1.3574085201324433	2.377133840281273	0.06796807778602726	0.7448716144829054	-4.760345446965658	-2.5669567520182026	1.7801742508765859	-0.8282027819704209	-2.3987481533523125	-5.658990368860616	-1.755062337258957	-0.14009597862158768	-1.9049664687698287	-2.0030631968470485	-1.4855457506820358	-1.533797617854523
