time	FP1	FPZ	FP2	F7	F3	FZ	F4	F8	FT7	FC3	FCZ	FC4	FT8	T7	C3	CZ	C4	T8	TP7	CP3	CPZ	CP4	TP8	P7	P3	PZ	P4	P8	PO3	POZ	PO4	O1	OZ	O2
-200	-0.3758817007588299	-0.8432180264164588	-1.2029266327050898	-0.1857625539381144	0.1912181670606318	-0.1837988938221081	-1.0343419287316162	-1.2624847857071857	0.989100036508042	0.856463668568228	-0.3754257252274494	-0.27350369026749266	-0.009192652045822976	0.3375264099659277	0.7123463135854096	0.008971399604975335	0.14339466356790254	0.7417179923404463	1.3701401914336118	0.921963570174402	0.6993526202664699	0.7806326727231533	1.6364798504520257	2.095800871326043	0.6054567083331241	-0.11637043923561183	0.6536722166723902	0.4375454772392675	0.6073576196595015	-0.19682934830562018	-0.133506148716503	0.6692250950129447	0.09785823499291431	-0.1871109451099801
-196	-0.50793909898308	-1.8476438475690344	-1.9580575178301227	-0.3962650289067535	-0.1970666492970331	-0.893082139621405	-1.6657684999371	-1.3125808205843674	0.755520997524103	0.2187531733950356	-0.90551167497897	-0.5917465671857931	0.04895801829851966	0.12803234127621382	0.327624528772971	-0.3016748122704946	0.19268633376587124	0.6389539225658736	0.9152156091471274	0.3844577362367502	0.44382652528287286	0.7865285853555148	1.553256150138769	1.7264625982564574	0.07045692187640415	-0.36966097261558495	0.6022815689139556	0.3958154906769925	0.3694172492237137	-0.3868350972899368	-0.17560259953509302	0.41462534561378567	-0.04686749342171955	-0.22212159577556162
-192	-0.5705962166685139	-2.445105546500042	-2.7122120788762	-0.6704857928514061	-0.7028206569093253	-1.5441441496963815	-2.0817325062645162	-1.166978356276075	0.3039612166359836	-0.6309069975182885	-1.508980031972052	-0.7976551035769348	0.31022837679739135	-0.2906388633065822	-0.30219727678295416	-0.6957424265461841	0.1969511801992335	0.6071919187474443	0.30893641632282426	-0.4470122743287847	-0.05740091190150912	0.5654076919585607	1.3285663094356095	1.233393069967952	-0.6648397428893121	-0.8433936813041684	0.3079875103803958	0.14609625898668746	0.05077661561067008	-0.6677271706888763	-0.3903593709149958	0.10732903304420197	-0.24994799431637546	-0.38953131338954433
-188	-0.5955688342316543	-2.4662969050128227	-3.1349735180859293	-0.9593684053041155	-1.1785340279387944	-1.9318578194480893	-2.1578907912132266	-0.8953902102752151	-0.2568094425870158	-1.4358526432025183	-1.982429022552221	-0.8926412440651147	0.5761163816211601	-0.7829928974410102	-1.0042231057562063	-1.0745216580918422	0.05409906790902913	0.5563119635841558	-0.27892079878958237	-1.3260266747374316	-0.6804564578042599	0.10465075049204599	0.9678492521645699	0.7357762437363682	-1.385796901065103	-1.4251782858152229	-0.19284336220213558	-0.25361168320521205	-0.2644554965971761	-0.9591804718596132	-0.6884822232030031	-0.17032019750985558	-0.4448930907937909	-0.6194925888633303
-184	-0.6107326730567421	-1.978697771798702	-3.020948879244175	-1.1538701028301663	-1.4642629586444	-1.9344645689761149	-1.8955873203102325	-0.5864171370959467	-0.743825910597606	-1.9323747109262766	-2.1401858275738452	-0.8915392733952894	0.6671316010797843	-1.153857109017638	-1.5331121644413366	-1.3045610156500866	-0.23088528157592234	0.45517068986414067	-0.6644481403741265	-1.9402040194163361	-1.206270572477836	-0.45558452491177137	0.5703873023891036	0.379679827923618	-1.8358486844442123	-1.9089072894538488	-0.7269633394007085	-0.6540236456570986	-0.4679766583548342	-1.1443486184792058	-0.9262970066525663	-0.32385882653485887	-0.5461643920460553	-0.799198983082009
-180	-0.6322341545355066	-1.2406997649339404	-2.4040820537905057	-1.1579712600082273	-1.4603550397242129	-1.5607213934594597	-1.423871752005045	-0.3321105531413751	-0.9897835229679558	-1.9598215768924414	-1.8954224538632	-0.8089314678749417	0.5159765468921697	-1.2457582919139667	-1.6762459235785547	-1.2608544794674053	-0.5368422256267203	0.36253544596693393	-0.7237070184555607	-2.042994732467056	-1.402345892226629	-0.8738465287080562	0.2953211359674138	0.2779501371518658	-1.8245391799637938	-2.0745310731009354	-1.0505466434657889	-0.8706983305882581	-0.4688229250992186	-1.114600774811941	-0.9616075133840946	-0.282438843729278	-0.48103079078342353	-0.8132274726362817
-176	-0.6629963500449977	-0.5653505907090101	-1.5392805299042787	-0.9601914858417407	-1.1680364579274563	-0.9349281764267647	-0.9384054517895369	-0.20640890248160657	-0.9309118962626495	-1.521894689532219	-1.2961142030417132	-0.6538112743083001	0.19462956438993234	-1.0189746592544238	-1.350897427962908	-0.8765292145533339	-0.6879630667483202	0.38956770202508784	-0.4435422707326567	-1.5647693832945153	-1.124543306372532	-0.9230872965395153	0.28244173455454236	0.45998886111471704	-1.3149698939502228	-1.7870911314667273	-0.9658140515738525	-0.7695758323312998	-0.23092152119985426	-0.8182605484330531	-0.7158455830620484	-0.027552463044698345	-0.22102974299416148	-0.5918859228449261
-172	-0.6933920365946903	-0.16912339585043215	-0.7653278093088829	-0.6543278677632641	-0.6797739250186602	-0.23158226848784363	-0.6053848251317064	-0.24346303878350828	-0.6406235082664617	-0.7740332464702839	-0.4988679277222606	-0.4318194974487315	-0.13386498357830606	-0.5705931172269934	-0.6460157616517429	-0.17762412085986892	-0.5499267564240684	0.6224818213959138	0.07343181949195539	-0.6487355215859772	-0.3903816034474409	-0.5092179762381519	0.570392011156029	0.8571187236126556	-0.44707357770578143	-1.066250202347955	-0.42658796798768145	-0.33941993031637163	0.2096707964610267	-0.2903207235158967	-0.21482063775661836	0.397322862337234	0.20022582957260338	-0.14799801967925078
-168	-0.7015636545588307	-0.08594941326137308	-0.33076602137024885	-0.3914891173492162	-0.12988619473565988	0.4032235135388433	-0.48013695953262847	-0.4273613978563342	-0.2867869429500201	0.05180375637445902	0.3029460005264099	-0.1511949296948686	-0.31091838996589155	-0.0812222657537195	0.21199400669457158	0.7141554933637093	-0.1086593789099075	1.0501140329551013	0.6522982700091415	0.40711161391469264	0.6138796790836477	0.2692923837061647	1.0582907173140348	1.3314415182830257	0.5164695965125069	-0.09034281946261065	0.4239663769031443	0.2892999045697283	0.7550917844781591	0.3527594795857473	0.41235992208320466	0.8998910165954863	0.6924583894412858	0.4161398102267375
-164	-0.6556835754052576	-0.18444517208261477	-0.2776071720266941	-0.29316821620356226	0.3624741425899372	0.9005413628729886	-0.4851268517643692	-0.6887056214110573	-0.03864062567730218	0.7425536494580874	0.9563365554506251	0.17185716287615332	-0.2671158307007194	0.27790000964573625	0.951452968102573	1.613164182404813	0.5128876553937733	1.5453227719391944	1.1167148323474971	1.2734295097624997	1.5987799127267743	1.1546331614906542	1.5387182196868874	1.7326161817675325	1.2957130637833876	0.869459209631151	1.3076031175024525	0.8942654110264986	1.278040405861393	0.9530077552576135	0.9803664063497334	1.3684564794322476	1.1373237342730038	0.940857348450827
-160	-0.5234568105833058	-0.27197956970211157	-0.4451941538537913	-0.38272493981053735	0.7268606405980198	1.2651925055032058	-0.46153840306103067	-0.9175397134503417	0.02315707498902699	1.1737062901427555	1.3930047715303033	0.5111399280040819	-0.049107111866468274	0.4258306015707551	1.3628941739958516	2.325674289553652	1.1099375458350673	1.9150534819889904	1.3550606931806684	1.720920558399234	2.2832145633272343	1.842092747805828	1.7923188164281991	1.9563415001113718	1.7023225979740824	1.5569140871793994	1.9348405550744088	1.261901375445597	1.6654459196003901	1.372017618530007	1.3258103098774432	1.7084314780016887	1.4329686128676977	1.2741434541958168
-156	-0.2905980639273364	-0.22038392666965065	-0.5868253693069826	-0.5794140085850329	0.9373666024383696	1.5287049970177713	-0.27125787666499324	-1.001152632092999	-0.05945064112435377	1.3251992430607487	1.6219342906056322	0.8282013514589499	0.216901078272606	0.3975248326755455	1.3713045085617148	2.7062935760835254	1.4874912462825927	1.9922927567726176	1.351974960728437	1.6970590310165463	2.4986402925349234	2.1108086055868585	1.695355291854588	1.9755331227969872	1.70005380678108	1.8265006496091103	2.131496662480427	1.2856787410700743	1.853273744672435	1.5428385695605176	1.37770115981357	1.8694875193125906	1.5332848987014596	1.3382717337198826
-152	0.013529329526538805	-0.04046209146297518	-0.5280252085705816	-0.7573080043746022	0.9854701136503854	1.691425438425179	0.10555356714301824	-0.871381161397081	-0.16485813218455753	1.2484422890614262	1.6826462703183769	1.0692707273189666	0.3983325650171799	0.30092027707418795	1.0448758575761754	2.693682425373788	1.5402829608175803	1.7220545963678673	1.1729834050127448	1.3175756898039344	2.239515775748354	1.9086507510633832	1.2818570104660147	1.8310481263661227	1.3926144803172995	1.6833409028468356	1.9041103076544366	1.0112133000592365	1.8389679147067228	1.4877337179769268	1.1855642765630123	1.8532957983909462	1.4628910981437133	1.1649539441260348
-148	0.3024543814175437	0.13673824037361068	-0.26904329589627723	-0.8319553711867156	0.858233211257852	1.6985002713235764	0.5383535609958294	-0.5434420095074575	-0.1841031159282736	1.0141690943861854	1.5978159864139005	1.1695216864622195	0.4232644428057191	0.2371534997197722	0.5432727323167227	2.31716203104548	1.283090230563304	1.1937264173886575	0.9154755450023366	0.7859918455306676	1.6424220758932608	1.3529798950368128	0.7261558752799749	1.5918739993912439	0.9524760818275594	1.2541656462475985	1.4138776028222089	0.6045359953876033	1.6690289932073714	1.2947266069148453	0.890231070655062	1.7011167960133204	1.2999139991365507	0.8790254570702248
-144	0.4517178226033423	0.15733481903884108	0.026772042668818184	-0.8157325962452218	0.5428656325939346	1.4710987769178516	0.8071691969519619	-0.11981929808405914	-0.10337023410924688	0.6758172494991698	1.360067840957028	1.0722372504819482	0.3071249715680288	0.23427249432066632	0.03680136045462807	1.6783416228835664	0.8249381759796702	0.5981592520870526	0.6535281522463318	0.28783273624228634	0.9108178592574128	0.6560911519652026	0.2513533228250191	1.3099126782723782	0.5313030467924389	0.7103086095996181	0.8779304601438207	0.25988191300581803	1.4080424273227201	1.0641359063938205	0.6476733072141168	1.4669072590985393	1.1313624353454887	0.6324949844603852
-140	0.3528782418401624	-0.040064442801650425	0.14986181221318803	-0.8003959039507217	0.05955848827822195	0.9785817836850191	0.7314636688838226	0.25125849183542087	-0.01817960660040027	0.2692969732638008	0.9633101796624496	0.7616600971065342	0.1307799663818103	0.23642608463676987	-0.35839462189787497	0.9225555039001719	0.312112330602373	0.13625259663036812	0.4073925306048098	-0.08278360196908827	0.229990660563586	0.024312674937853457	0.014544583820337935	0.9974427794069005	0.20121672698717008	0.18987275612099733	0.45890825870998986	0.10010573987720496	1.1078797550840371	0.855922577604323	0.5471029863849636	1.1921260326804788	1.005697009408491	0.5238331543094674
-136	-0.013883328030224112	-0.3608817747064606	-0.0010783788720859049	-0.8799930192664209	-0.5006490337129419	0.30846801322303946	0.3011692754771085	0.4469091284912613	-0.06713362021185919	-0.15686370392772583	0.4579808402419487	0.29917049332425694	-0.00615581356297431	0.15567137261664926	-0.5992061480652444	0.2134959543321522	-0.12324942617293308	-0.06779535842706544	0.15439416429162683	-0.3293525568276139	-0.2842925481771125	-0.4138329018634976	0.0351132228084004	0.6405228956263349	-0.04519047576700472	-0.23815204143001203	0.20482712932371205	0.12483993886184575	0.7946785072290117	0.6687301976486242	0.5693337902953585	0.8968330599076503	0.9108055210959755	0.5483960495454563
-132	-0.5331072197805901	-0.5867281541315994	-0.32733255542127593	-1.0619626018415071	-0.9696717237786209	-0.32042658248110073	-0.2724036567486177	0.4452719975196714	-0.32356914796198183	-0.5121703134957126	-0.015426266899500373	-0.16282896656410847	-0.02597573020456491	-0.048712789889371645	-0.6895885450118859	-0.2874906055821394	-0.384777813178386	-0.005374555928101684	-0.12918511000442062	-0.49973761909198255	-0.5863156303861504	-0.6192624553304334	0.20411273785556025	0.23790159761445936	-0.24489606855074136	-0.5563312754890143	0.06821268779698728	0.23382018447493025	0.47957393405950166	0.46240532281477753	0.6100870355461652	0.590969859061686	0.791409311680625	0.610116599449899
-128	-0.9746981834598389	-0.4926359641035038	-0.5646576271106009	-1.234309789402283	-1.1502931088969366	-0.6287189110141083	-0.6319424494047123	0.3503871849273539	-0.7186018806434378	-0.6683644635492058	-0.2524534457508609	-0.4138318587822166	0.10806534412041456	-0.31760361710469837	-0.6375570281144444	-0.44591838008830614	-0.40965202347325064	0.2382803553287283	-0.42540922653557933	-0.6161555632293604	-0.6665711386063763	-0.6055064782113859	0.36535552051807196	-0.16482347208370815	-0.4039308716589293	-0.7513471822842441	-0.018501678434985788	0.3076986662725435	0.18315069331181227	0.2092949295720221	0.5561950192714017	0.2962944798141384	0.5973392709909477	0.5901930317282896
-124	-1.0889871092958598	0.014869045428643885	-0.43237656245739586	-1.2213124005953766	-0.9061822272310002	-0.410250483907607	-0.4528481948863313	0.34192031535606404	-1.0530954572792388	-0.5084573017634489	-0.0737594885752002	-0.26723778180362195	0.39219593902750066	-0.504742084659334	-0.43138754258913486	-0.189199804782021	-0.16516594547056168	0.5442490563956787	-0.6622901542154819	-0.63881146746522	-0.5197856413115688	-0.39362740417281233	0.41463023319464487	-0.4743791210595405	-0.47108557701382453	-0.7796776275023284	-0.06921935064005727	0.29076239393256725	-0.04783505561791561	-0.06205467491575857	0.36770346667913617	0.05953011274209021	0.33140399968399153	0.4308417428583046
-120	-0.7420791964868733	0.8157200196652059	0.18336482299762724	-0.89811306965097	-0.25087061461052435	0.3358734539611899	0.3603975763758502	0.5697790369907064	-1.1032421561043517	-5.2671562892813874e-05	0.5629699215980467	0.3357020310032487	0.7861946801363261	-0.4579346466423644	-0.05412470535679842	0.45357155685349915	0.33739134584120767	0.8138869980290562	-0.7449160795477955	-0.48911759133826266	-0.14368565344296133	0.0029095406570587468	0.3550556889152771	-0.5890004619986345	-0.36598336604222836	-0.577899454565114	-0.024836689171073296	0.2233564699017392	-0.14828628264181795	-0.26276174121319257	0.11466754943983949	-0.05741266146708081	0.06507850421925657	0.18228724552861478
-116	-0.017687514379667355	1.6025760133336453	1.1268922062079103	-0.2976207129593648	0.6194379314042092	1.3561476434800481	1.5733439882609646	1.0478258106479512	-0.7639424185538664	0.7514212112528682	1.4961096010581967	1.2566413847667386	1.2153233259034664	-0.12337850003086831	0.47357663392663313	1.3286492791009274	1.016282794293874	0.990381595972122	-0.6163190587695665	-0.11832119494605682	0.4299114335649991	0.5529528842316748	0.2764156751806423	-0.46052425983506023	-0.045540679131208045	-0.11552187026182882	0.19625155578178755	0.20458352514113007	-0.06946303677902561	-0.2878348820094928	-0.058062780501875494	-0.010802499922658408	-0.09374987310343418	-0.020027749189833202
-112	0.7848499397489437	2.0143349119827745	2.0217542597271043	0.3648965051498156	1.3816726172849274	2.2225599232826188	2.6916987828006715	1.6109832484579878	-0.14062936568517478	1.5112647972098139	2.39146589629062	2.1785662119221345	1.5749708374313567	0.39210811158364584	1.0565420362500293	2.177658790812365	1.7063077645137033	1.0483461591955265	-0.3100152007858904	0.42614599954778776	1.1002944680090718	1.167655107411146	0.27831470896071403	-0.14162412250048095	0.4362217474891153	0.546667038014177	0.612994848134191	0.31206172625908646	0.1791957314258549	-0.08471775033542464	-0.0195382218314643	0.18730190349019715	-0.06491087360682961	-0.03731533130522861
-108	1.2759015527936728	1.8160666181489424	2.454815381528017	0.7812111954038825	1.7196642116998302	2.52066659290961	3.1857941070231712	1.9784606645223841	0.4786704170539551	1.9995822856009542	2.876243345628198	2.7231690814883063	1.748657222147565	0.8494510629188188	1.5325615367342917	2.714150183500823	2.1890861932798513	0.9724544262175792	0.04717892396459438	0.9890047882859314	1.698575492385093	1.6896147685307636	0.39129337569626804	0.22148099485745548	0.9243677235153475	1.2427738873575978	1.1260553569973766	0.5354722724746616	0.5136063085940158	0.29968053026831226	0.25987905198287603	0.45709285024632684	0.14933155439344373	0.18208330823703067
-104	1.1746431559469699	1.032825228944491	2.2002718393087393	0.7165787797955794	1.4772589169398354	2.061391825239822	2.765648834875318	1.90061068054993	0.7673116306959336	2.018876070647457	2.7195603778841364	2.6268961363273196	1.649997826225086	0.9931066011150834	1.7338451103304087	2.7367873122736257	2.274161333064447	0.7533818464331598	0.29204654619868853	1.3685834373252985	2.0408914037675325	1.9379731367773152	0.5506160841391554	0.4555500138225336	1.2293137280898236	1.756563182210612	1.5390782317404217	0.7712025622924027	0.802305875183082	0.7277595978482526	0.6781031472251795	0.6799603087424022	0.4550298142865697	0.5608158097413027
-100	0.4757165300756341	-0.036904275324153545	1.3590860332507666	0.15841773112354748	0.7503903489240805	1.0024584506474414	1.5581124981642276	1.3139860596860442	0.544476865347435	1.561663027635244	1.964762444303978	1.8877204608940592	1.2740744320173412	0.6944850665678218	1.575859542682714	2.2281498852741204	1.8964543294709464	0.41099119082636065	0.3149266235029824	1.422697778924513	2.0140747973136315	1.7949124529344072	0.6432608945818244	0.4537507284152416	1.230847236386733	1.9236862610885936	1.6543217855647552	0.8846619702891788	0.9306733584748607	1.0375024054082072	1.0507429811651832	0.7597716431508833	0.7140184622857166	0.928768990079095
-96	-0.518236755016346	-0.9452236270881796	0.32478165544526394	-0.6506907327436079	-0.14018939400087604	-0.19935107180808828	0.07517691682670273	0.40592184560333494	-0.10845846655403811	0.8322687128035087	0.9325295067131247	0.7928460816393084	0.7223843317866896	0.03908805539275959	1.1193444700590587	1.382069941845997	1.1709718674659435	0.016133431304491384	0.13082928922523743	1.156085249843006	1.6439064699629995	1.2833834854148585	0.592287181312541	0.2426961207222808	0.9583216285352129	1.7233797268271682	1.3892648184986691	0.8011728504934074	0.8674672820124313	1.1302356691434996	1.2134473293185422	0.6823030096947394	0.821966228794028	1.1180782289886473
-92	-1.32802593372744	-1.3000254598219994	-0.4183111478257781	-1.319528218752557	-0.7907049039904479	-0.9964100097294848	-1.0253998015264099	-0.459026931557438	-0.8739321209777376	0.16056436259739104	0.07861288617074991	-0.20196966775923303	0.17614327326648552	-0.6963383537831439	0.5609776363514594	0.5306997881841902	0.361453055422868	-0.31903192320384494	-0.11593464732701743	0.7319101672767078	1.0969672175368206	0.5800719246524025	0.4157080043787524	-0.022419156450054673	0.5914598688451473	1.2986630168551632	0.8376733639548718	0.562006770145553	0.6892704350235229	1.0240315173044006	1.1126745911162428	0.5315070138863452	0.76713025376234	1.0567657920859512
-88	-1.536759611064513	-0.9496546363695949	-0.554202793629459	-1.5046752653279523	-0.9047017074631623	-1.019545552540641	-1.2688804832847271	-0.9180296040245137	-1.3587487901714788	-0.15499702056852427	-0.2279704356398307	-0.6893481594801137	-0.17919130578099152	-1.1732538908900525	0.14680300615916608	-0.0038259478654974087	-0.2325352275461066	-0.4870455550771672	-0.2244647437627335	0.3921145488852653	0.6052041038492038	-0.05303155617437769	0.21875773315034944	-0.1406816836619943	0.3707736423191203	0.8855663515620725	0.23429055452798767	0.3070370547172071	0.5416560159359168	0.8387958982270926	0.8319504240012117	0.4455834317878365	0.6328340156790117	0.8060483316097905
-84	-1.0109463904606062	-0.05745284617342886	-0.1046666053275162	-1.09246551714688	-0.43659973034300414	-0.2697540812834292	-0.6115260704813441	-0.806854544032987	-1.305963751356689	0.0026509598761921874	0.10685862573824166	-0.5174745904255273	-0.24909144577079328	-1.163990494650318	0.04704643401546409	-0.06455545856151189	-0.4223819364374028	-0.449549375829566	-0.05380162210589942	0.324013262169082	0.3461388638817139	-0.3934846212466134	0.11878441989233984	0.013484835590648888	0.4604513335523617	0.682828722660331	-0.16694331126979284	0.18830566060684167	0.5505451546120518	0.7166318875339401	0.5346280322881944	0.5295876847247788	0.5376552925840486	0.5156005607938758
-80	0.024023912786387533	0.9779267286405915	0.5899898990994079	-0.25870022112380703	0.38991853496335	0.8763888456152422	0.5346806631893982	-0.25290939147991914	-0.734454987578968	0.509426294471116	0.8523890950616695	0.13051514294574187	-0.08573255666306652	-0.6720800382811883	0.26306831770282074	0.26210263305293036	-0.22675701918571806	-0.27576261689180953	0.38263186715795555	0.5500689731061434	0.3470735839187216	-0.3699297299581986	0.1547624613907641	0.4005099226853276	0.8423774221133138	0.736936448143992	-0.23216962755713857	0.2699309282640313	0.7334219198783292	0.7243798356840867	0.3579385867618498	0.7742913345815098	0.5493410811859841	0.32454740919188807
-76	1.1011854382369248	1.718907709550251	1.0720072957629851	0.6310603602689083	1.2008516758164076	1.8591684056072595	1.5214834174843073	0.39522591133468526	0.07815545777615666	1.068014380619563	1.5750977953244079	0.8356647470356572	0.13561975921722438	0.07062455993941169	0.6244916304080209	0.6938593370085495	0.14290520512740398	-0.11240735621682432	0.9057183838865291	0.9089968777594774	0.4738919126943766	-0.09233638620905749	0.25182327564556417	0.8158745745087183	1.3092576232279505	0.9151471234104535	-0.018694184673317925	0.48288133618509294	0.9688538884497225	0.8024994114641791	0.3282921901997369	1.0365452740248204	0.6301936491314176	0.27422565152551176
-72	1.7602875188253546	1.9000582647035464	1.0393680307849666	1.2250000207490301	1.6645765262538912	2.225760215861819	1.8127108766565603	0.7630064468193214	0.7570760827023667	1.3684626783152887	1.8687845421338845	1.171838161370922	0.21426509266639196	0.7286609392842703	0.883258340512907	0.9057798958797821	0.40366408126958825	-0.09503807103480932	1.2560604779002242	1.144136902781498	0.5151209222185792	0.21663331930778978	0.2683155827900518	0.9888011192152482	1.5687853058307628	0.987283763777032	0.2640167766104145	0.6641082150858306	1.0506914827522273	0.796602783576082	0.35123535902036623	1.1025238009273326	0.6528381688801539	0.28824466394128906
-68	1.7901066496475904	1.5460284909315531	0.5305371271090088	1.37228250157072	1.6536992746562926	1.8615914536205511	1.2697073189149637	0.6626661403137758	1.0409698460046162	1.254326578788086	1.567937012528461	0.9388093328615152	0.04483825702075501	1.04102647041701	0.8557378032059858	0.7086652499426648	0.36369398144450815	-0.25039705570897947	1.2339606253940705	1.0535088750943573	0.31570836821956033	0.3524292102498807	0.10183730695762246	0.7308953982019688	1.4070687258481278	0.7727076391738261	0.3828992535937429	0.6607126576908392	0.8050553182303396	0.5581473694060904	0.28340056467030084	0.8075805882091629	0.4819686698665964	0.23316788614531647
-64	1.3249709572718353	0.9356507039289078	-0.09476435905611119	1.1880893677279019	1.2879468170073411	1.0338253948812968	0.21432827358969436	0.19394448350577487	0.9195080972344345	0.8005712012105636	0.8255709984916528	0.2673785083695814	-0.31233659307777417	0.9535189246899167	0.5303878770788681	0.15272706708495176	0.031351622114896505	-0.4580677736161341	0.8157126286892724	0.613880275130094	-0.11984434693596276	0.2437052273557804	-0.21872006301494648	0.052205022292654446	0.8178931454035852	0.2638439827456469	0.22141997460252072	0.4318024207180465	0.20453025348999657	0.053921695662496286	0.03936275457338433	0.145753889907962	0.07262713443777745	0.019365755792242145
-60	0.7434855680767979	0.4362444270563951	-0.37204795981887845	0.9560625528992844	0.838767228393028	0.22257396522594233	-0.7658089976049398	-0.32623451865799596	0.6143500193343828	0.2578162246393751	0.011395878129737904	-0.4681673336129893	-0.6630535705038376	0.6293693168962552	0.07359887640967783	-0.5062793480488549	-0.3991129686292537	-0.5140622245207517	0.17472821429960683	0.002265695243941473	-0.623060999727734	-0.01990567515235111	-0.5279070125602904	-0.8265604951970709	0.018410220695744307	-0.3538292935497974	-0.1558438535570326	0.08076380917900648	-0.5920099601103905	-0.5877802357138735	-0.3382625571293676	-0.70031714262579	-0.4798963951869224	-0.3258102825998782
-56	0.4316220570634115	0.29960825963670457	-0.023310713411128253	0.9368099546622175	0.5571224675417652	-0.1619012053693607	-1.1569296092387624	-0.5638634548256187	0.4220773865056919	-0.1025379893575105	-0.5087571131259122	-0.8772487618232457	-0.7971770147223984	0.3365953556145644	-0.27080604365641414	-0.9608193611682195	-0.6758051497563109	-0.26594123177141876	-0.407441287204113	-0.4999392318024263	-0.9622174477125413	-0.2618495815341753	-0.6187534316653368	-1.5775676925883746	-0.6616727693064571	-0.8023061732063053	-0.552382527387259	-0.205219432193472	-1.3044629064050342	-1.1289890976058143	-0.6935957652700182	-1.4346204959888322	-0.9755026077436967	-0.663037298435855
-52	0.5498847351496079	0.5305921421959976	0.8518328049133853	1.1984758346816589	0.5247089253529411	-0.016150321770661964	-0.8107261637245976	-0.37766629362122184	0.5155976401662892	-0.15223954579540352	-0.5866752848118171	-0.7901613096314688	-0.6281096323367525	0.27835452486332346	-0.3321256033141429	-1.0390863392344694	-0.65772193504214	0.2564351552210937	-0.6942020041104981	-0.6687397939964088	-0.991273698688223	-0.3495938471073964	-0.38690021536418956	-1.9334435414136903	-0.9594915484999105	-0.8773030020498543	-0.7729887942825218	-0.2760131948178126	-1.6729763704023004	-1.348790999821864	-0.852250454658272	-1.7947704746709106	-1.2161364524654392	-0.825301168265436
-48	0.9420480108318541	0.8986762143333861	1.8002634003009632	1.5734199245782168	0.6158283337303697	0.4015879620903359	-0.021906180251961307	0.09028948820683252	0.8294928052940377	0.01804447355780989	-0.37433779145143337	-0.3642710736137665	-0.26789256862714883	0.46931353092912614	-0.12206029861150511	-0.8144469240606625	-0.4180092801030753	0.8083833435629711	-0.6247395857296605	-0.46971359730384854	-0.7539421300926339	-0.2961373917732295	0.06993997824415293	-1.8266706420555805	-0.8237820842925256	-0.5790246114416984	-0.754636047365357	-0.12120377986824524	-1.5980132777876088	-1.171122905635423	-0.735754666855014	-1.6909494357332044	-1.1217280597976087	-0.7274593096486324
-44	1.2420713870160487	1.0822516652439567	2.255130046872872	1.7733856394816772	0.5942913874880533	0.6350299103916377	0.6551379544883612	0.5011820184451778	1.1054096194014917	0.1609196658840001	-0.2223679268706352	0.011729681834766238	0.020563056640564313	0.736127613116432	0.16956447022065643	-0.5657721743604419	-0.2093784952837862	1.0343061659448414	-0.34209558281358354	-0.07793848196856086	-0.4713805902023955	-0.26128017836407363	0.47057384133739744	-1.4187678062858144	-0.43747094163116407	-0.12246098338441544	-0.6095336064208229	0.11191964121218105	-1.195497152171174	-0.7145860177118349	-0.4208873201711111	-1.254728910139304	-0.7828258852267712	-0.4294975389127238
-40	1.1107127638430587	0.8610802867130052	1.8594691706440367	1.5866754014963491	0.28163617778243677	0.3130227021420514	0.7376810293646463	0.5325323925878275	1.0672444078202985	0.03504424905869852	-0.45608422044998426	-0.04182054836920193	-0.02748209231113807	0.8353596904644669	0.29257392809432964	-0.6076631530678488	-0.308186023649319	0.6605305655015101	-0.10175893430052128	0.22753740789663074	-0.4132470180091571	-0.44686216003129686	0.491840212295439	-1.0026360724884238	-0.1042399701824523	0.1847732211454691	-0.5503228292876009	0.20174327441778647	-0.7328441124533354	-0.2307231122390591	-0.10252094242914778	-0.7672727088629935	-0.4144807447459256	-0.10978386523423977
-36	0.4584792840826244	0.24798630115364179	0.69010037009528	1.0305778954235536	-0.3092186443151232	-0.6134513005027286	0.10359033171010491	0.09052923298867503	0.6145871266107007	-0.43172001729685255	-1.1614637345553789	-0.6502569301400278	-0.5087654577761597	0.6168030484839208	0.097517929725009	-1.088902232281914	-0.8264858105773559	-0.322856276412268	-0.11501438141633123	0.23228771925930167	-0.7258750777991471	-0.9475314593234113	-0.041380930587480665	-0.8348785617730546	-0.06619440002418227	0.1268573996202066	-0.7429935913400639	-0.011305842520064271	-0.48162576434606935	0.034960441203065615	0.019245874088095163	-0.5068092333395703	-0.23670883416970925	0.037001989688435495
-32	-0.48098102090516176	-0.5158885108320587	-0.7549484353078362	0.36177489070152014	-0.9618333553825783	-1.8233640147903694	-0.9323756075207033	-0.6181610211024099	-0.08850876219576065	-1.0831752988170642	-2.112893814474416	-1.586876269148735	-1.2685679165283141	0.1298511919081039	-0.36383771804502113	-1.8845103931531404	-1.6132717091837163	-1.6156634051539354	-0.42304485929492097	-0.08749179519975112	-1.3269581761236295	-1.6572636324048617	-1.0353631947126194	-0.9984052156036588	-0.36496654060724987	-0.28809818552712335	-1.1856316298114384	-0.5217846022783542	-0.5745109901228329	-0.025008235063594057	-0.14358569645392535	-0.6051211341838859	-0.3545474103082382	-0.08732233919508252
-28	-1.2728943792630574	-1.0949978800784137	-1.8077714397564946	-0.06841041130436924	-1.378226038314137	-2.798107378570834	-1.7987084343319888	-1.1976040571493751	-0.6910963637069621	-1.620447750768687	-2.8897664474006963	-2.3869936405951244	-1.9613859603952666	-0.3970246901024979	-0.8651723243804387	-2.6523129873068494	-2.3133854807620464	-2.736005060917569	-0.8763385988998235	-0.558095155737399	-1.9374437283237569	-2.2976481856510222	-2.1529383605006323	-1.3727430070550921	-0.8285111167970655	-0.8309496620179595	-1.6930843548943793	-1.1529200047948454	-0.9474356746594991	-0.33273562704955645	-0.5183752166058097	-0.9929904316627094	-0.708150206208461	-0.43104150782476497
-24	-1.526901002843554	-1.2408865658901949	-1.9751946876248072	-0.02491514564720597	-1.3600503171915082	-3.1107058446547677	-1.9928505370370175	-1.2880643573665413	-0.8573495127966433	-1.7817568734006664	-3.1142547051957346	-2.610698454941213	-2.2313761654783772	-0.6923009735748314	-1.1467647523537208	-3.0261890811810184	-2.559637063239686	-3.2638661779014977	-1.2308962314046148	-0.9245055294537202	-2.239542001791989	-2.5620489055797884	-2.9812526627611464	-1.724566932138807	-1.1893948286544764	-1.1914426058252097	-2.0028133341767806	-1.6538290935722857	-1.3963141406091673	-0.6891687494997928	-0.9224718785837631	-1.4609059058498362	-1.1208785744024146	-0.8312709310524877
-20	-1.1196978063923952	-0.919097719256192	-1.192552801935993	0.4631964850652062	-0.9389571523801851	-2.6643891267264332	-1.3625625337531586	-0.7783700804131919	-0.4726653981196076	-1.5093461236993382	-2.6724505357026622	-2.102741951401902	-1.9146571111022348	-0.6113392099204451	-1.0869430276130936	-2.835804693691722	-2.1909666006084776	-3.0649518889292207	-1.304425593897499	-1.01857638101904	-2.0716075844913733	-2.2968823851768816	-3.2479016698851635	-1.8620504093841628	-1.2616721359823697	-1.1726759642557696	-1.9408771942727299	-1.842220182536036	-1.7114193396274457	-0.9086379981941908	-1.180629250406649	-1.7955776407684212	-1.4147210085436512	-1.1190398903250254
-16	-0.2671523683478745	-0.3131625346383415	0.15272207519596442	1.1087532015463704	-0.37407848144499267	-1.7444534257714597	-0.18513828469263546	0.12038191377525419	0.2711057954142328	-0.9992576216264395	-1.7896617605801102	-1.0966536971060934	-1.1458427877106627	-0.23593965113198603	-0.7943109849902545	-2.2206408921442753	-1.366636153585403	-2.362594360108631	-1.0943677397754392	-0.8720764495766304	-1.5411807259749206	-1.6105412204134495	-2.9599320813788186	-1.7549455121554922	-1.0640197965460911	-0.8204280117301931	-1.5438487490776205	-1.7046719746466175	-1.8036723091363507	-0.9374105310614581	-1.2334284751268592	-1.905731077151077	-1.5185769758031078	-1.2223540513648414
-12	0.5961811527458859	0.290168612462814	1.4393572770971734	1.5279811582134464	-0.010190092001459839	-0.8539341666596363	0.9945564840955842	0.9856543516069209	0.9677403544788401	-0.5953878149259284	-0.9113767720100605	-0.09879853551477505	-0.30518120450216607	0.1635184283896459	-0.553384421858759	-1.5625494679101053	-0.5030760156327787	-1.61394810269092	-0.7820387462898547	-0.6990201455587521	-0.9795039271420111	-0.838185963898646	-2.3870747029118142	-1.5463635882436344	-0.8095263818329429	-0.4033380736658123	-1.0560915443459542	-1.3967307770750952	-1.74542748487392	-0.8810719229387762	-1.1672358483408545	-1.8611199808815682	-1.5014970264672631	-1.2013436525531416
-8	1.055222866255191	0.6562483294130785	2.139075989090929	1.46114682782341	-0.07995651642162621	-0.4346939910404121	1.6641206699318	1.4103172981894743	1.2146804302065421	-0.5885980114381272	-0.45776033285915885	0.3845854689901814	0.17254248217888932	0.28260829973394663	-0.6498045904919695	-1.2696279255283234	-0.058968234658372407	-1.2557489840274145	-0.6206263884133851	-0.7554300408364053	-0.7555510978696385	-0.37199255730169956	-1.9012346219698635	-1.4524842464014944	-0.7672132234276579	-0.2508772903307223	-0.7961969355508312	-1.145441648452337	-1.7055880980345022	-0.9240573025261409	-1.14708268352815	-1.8268648339877684	-1.512800570483219	-1.1947591274614284
-4	0.9313042736382152	0.7083770018812587	2.071985001101138	0.9178763008785384	-0.5674219713190146	-0.636097071949002	1.6063485105012447	1.2161356180004146	0.832744894309417	-1.0391387913217391	-0.5934951886451539	0.12112799256260467	0.024492476073654765	-0.035439278840950064	-1.1784473627855097	-1.5355269870136699	-0.28616070675126853	-1.4651700221263018	-0.7756077031580507	-1.162098524020634	-1.0554728481347477	-0.4479155529157528	-1.7671568349090854	-1.6155323941450497	-1.0815391513221104	-0.5458667860554431	-0.9679838394521328	-1.1130635710270649	-1.825972314039155	-1.1937893598933813	-1.29708718926057	-1.9413495014767375	-1.6711240964659368	-1.3152519431285878
0	0.35940346031047377	0.5326901660821496	1.4590479098675888	0.16945515530241437	-1.2112872569973356	-1.2574996916493373	0.9828227137547256	0.53683990104558	-0.03420246383853188	-1.7277271703968193	-1.1424388856654237	-0.7260265332011389	-0.7015978676248453	-0.6971130949539784	-1.9527151535323926	-2.215737575658852	-1.0859971019028962	-2.073390240202815	-1.2157885997594085	-1.8019328071876175	-1.7580484107453755	-1.0099358533156355	-2.005569691362815	-2.0049848505897554	-1.6642425018254132	-1.1989837854631524	-1.5296318492416885	-1.3054504361571795	-2.1221384948557382	-1.6593779283589964	-1.6084071357172995	-2.2201304379677076	-1.9767857740084243	-1.5650862415853413
4	-0.30952885668807345	0.2916027598171338	0.7569940667113628	-0.4051453162931617	-1.6491141277638772	-1.8893655490857066	0.20465914853399791	-0.2684465043919704	-0.9947823260940679	-2.270369285573411	-1.695449705611674	-1.6962611632435973	-1.673125978060309	-1.4003393614699762	-2.5814981395394727	-2.8995754645573273	-2.055511231001129	-2.6790647439073982	-1.726065392904677	-2.3638200700206977	-2.487356418051694	-1.734196539315117	-2.407989972710693	-2.4318990645997913	-2.2310745659765754	-1.887333388331865	-2.2052001897449047	-1.580771799864831	-2.474700921486356	-2.1351404136156362	-1.9386739681888148	-2.549535029650079	-2.307894462480622	-1.831478710318893
8	-0.7141012531371006	0.1133095544696086	0.38552775881705653	-0.5240101204993588	-1.6160429675309067	-2.1559450571940912	-0.315642713703506	-0.8109878877191455	-1.616372342797104	-2.3296782911609744	-1.8441742612054188	-2.2881302775787393	-2.4494996009017895	-1.7971645548269146	-2.676920407212373	-3.14013146561319	-2.700471871233722	-2.8949370311126175	-2.033686155906696	-2.512465232227802	-2.8178620267295766	-2.2022795621582842	-2.684434645550945	-2.666227333966665	-2.464188569523151	-2.2373135033387532	-2.634893887543089	-1.7454454854765966	-2.7130169799972146	-2.388047450712093	-2.101991171298207	-2.7693149973569064	-2.500596516971513	-1.9620850036674273
12	-0.669091580608985	0.032853968358538065	0.5100043999193329	-0.1346870955404562	-1.07941627229915	-1.9096507977908999	-0.3742072572797048	-0.8626052715457333	-1.6395024019809545	-1.7980121328734806	-1.4016011917966853	-2.221931213491115	-2.7083170345592515	-1.6797465043573754	-2.0737478680705643	-2.709002011135281	-2.694103711001997	-2.5743532115789964	-1.9685523460278078	-2.083458179935697	-2.5140635903780635	-2.125566000340249	-2.6449539594628804	-2.579977982682959	-2.200442070173788	-2.0421171136795992	-2.576371663264574	-1.6732331472113444	-2.7305471828185555	-2.2809355201353565	-1.9898313233681877	-2.783355705863327	-2.4576096472680327	-1.8682839823283244
16	-0.2338399136123011	0.017913976638984242	0.9944379304574252	0.5935018047607072	-0.23583677351536345	-1.2717671362239111	-0.03355624890796012	-0.4441694010010776	-1.0864990922199271	-0.8483464696446301	-0.4875416147320579	-1.5640051325411348	-2.398613923692617	-1.0872170897690787	-0.9327134466464372	-1.7290511087632277	-2.0407681413624483	-1.888467664719077	-1.560512061947537	-1.1869225472047247	-1.6675624805310203	-1.4990290365519243	-2.30802821530316	-2.2255382481652357	-1.530917640635537	-1.384901281674969	-2.042729611007765	-1.3763579095423033	-2.5544929439899784	-1.8624975634281389	-1.6458710390498363	-2.6233389311361055	-2.21425532735632	-1.5889561136182764
20	0.3593016853797767	0.04443648818837056	1.528359886125393	1.3903347218696862	0.6158428176590135	-0.517025111800411	0.4793328630743162	0.2161431903150392	-0.22096979562283	0.1689849640632908	0.5581114874100263	-0.6575819237319162	-1.748886342401503	-0.2762182347953223	0.33264771019873474	-0.6107952579335982	-1.0630539628845892	-1.2152435748889583	-1.01662027579174	-0.15757209022793164	-0.6529811008179645	-0.6030240043674033	-1.8774592829033037	-1.8000278427454057	-0.7513523082836818	-0.5941825494069682	-1.2976251807829544	-0.9897047852324062	-2.32315277466744	-1.3450537886038825	-1.244119164186782	-2.4225578246941764	-1.9170008849381752	-1.269909259450953
24	0.8611936547470818	0.15642172058667103	1.8322086287969694	2.0377500005772218	1.244228002267867	0.1107363921588292	0.947956559648876	0.8153595903791591	0.6080833658124544	0.9189546085044477	1.374700900421731	0.08653076716272207	-1.131858942035214	0.42464205515461223	1.2657908169259506	0.17003487007603615	-0.22397889140323476	-0.9151396728298753	-0.5954592212901891	0.620573340279669	0.07208965700545296	0.14579549394991018	-1.6102453429575316	-1.5208178720224255	-0.1940953130589982	-0.0580473242724662	-0.7120549660824831	-0.6859192830887769	-2.188400739866665	-0.9826502775178259	-0.9846865509921464	-2.319687360628948	-1.729396815702052	-1.0730338069527152
28	1.1406310767939505	0.4533926237103352	1.813080544662524	2.45831560467897	1.5887851674974922	0.5250414000606589	1.2904976573787086	1.1146817179193418	1.1380517454024524	1.245276447966819	1.7665327742798627	0.4079257835579465	-0.8684248306283304	0.7856770137977588	1.5918911655288959	0.3222222618073929	0.1098350209204891	-1.1306272716586852	-0.4586549687726563	0.9105529762166997	0.2062610829629368	0.4071407605859142	-1.66484844264267	-1.4937757215932639	-0.04508262488784624	-0.009257359406821316	-0.5673788175563063	-0.578756271331597	-2.2120428029478436	-0.9257660484782477	-0.9755493973897272	-2.3613634049878374	-1.7295647815906052	-1.077146169803966
32	1.2232927053083944	1.0076930497476897	1.5877020318953683	2.691300623774577	1.7397363141958448	0.7922540287042491	1.5609205921817961	1.024248001373678	1.287587401000253	1.2115802734303116	1.7694122746616918	0.3016549341215122	-1.075091359285167	0.7753750066254351	1.33126604220925	-0.12643472818401022	-0.16420689183738585	-1.723146791875974	-0.5906134232868291	0.7267355304489521	-0.252443432170564	0.07762707005213747	-2.0207996317387917	-1.657525177585476	-0.25557243759479287	-0.40735098616750626	-0.9157491303211649	-0.6722687465860708	-2.326539987412184	-1.1414992780475568	-1.174540159121058	-2.4709675249656304	-1.8658360195735797	-1.234192368252372
36	1.2287644116849605	1.7704646542671891	1.3807860578007767	2.800927870354484	1.8252422763517893	1.0220382187788544	1.8472316218468086	0.607878743067457	1.1433949441652071	1.0119943593224012	1.5771992166753035	-0.03383961683908749	-1.6299468237732686	0.5423885570183569	0.7468870859362519	-0.8780254699473529	-0.8669204690026424	-2.3765489995082136	-0.8311467149730895	0.29295045063442515	-1.0339306566837045	-0.6796318275458744	-2.5080599721528647	-1.8377065612171706	-0.5966930970385692	-0.98240172614974	-1.5707561930099299	-0.8787875153288822	-2.387684816054195	-1.4466103278829994	-1.4262442552796946	-2.5065088208811463	-1.9991687485765466	-1.4083149397579453
40	1.2645690409204293	2.5435819561635222	1.3795109952429607	2.7963976789444134	1.8930948924905975	1.2470849720940278	2.1587164347505707	0.033903982404701806	0.8684222676286115	0.8226200917455632	1.3932318652263243	-0.3490573457011276	-2.2571420612568307	0.30302208585527357	0.17019875304643234	-1.5538630446303396	-1.6584743219464828	-2.7925128866263407	-0.9915387605428699	-0.10921737524114411	-1.7647838547972787	-1.5363651475263853	-2.915887110023957	-1.8707047653651203	-0.8141691664167104	-1.4049607479863233	-2.2215342465579133	-1.0834895345035267	-2.2820215167604223	-1.629089947402141	-1.5683208664398456	-2.3675203263590117	-2.0034875819167777	-1.4718354903254154
44	1.3551746572611911	3.0557980460263066	1.6409749943310574	2.626413815543015	1.8743861866357328	1.3851324284868245	2.3929295479440293	-0.4913595902435061	0.602211414247232	0.6952614170640612	1.308274385010218	-0.4927295433955649	-2.6740889481741115	0.2104865903308466	-0.18303643120806634	-1.9044396829206338	-2.2196466866719318	-2.850565187886633	-0.975932238022153	-0.3034515969244406	-2.172121519326711	-2.1675109808556856	-3.1065244596250414	-1.7141156153316979	-0.7827596048619483	-1.4756962023670597	-2.5988616877744426	-1.2089741199487325	-2.0158283659584963	-1.5813037117134634	-1.5371425113015833	-2.077856058596691	-1.856731052479258	-1.393582936583165
48	1.4517047368590899	3.114736310724304	2.101021999776606	2.254067653687078	1.6595588880600776	1.3165680136819058	2.4157004295393705	-0.7746199945919715	0.41381016269157317	0.5623244629014037	1.2838749853144356	-0.4647715676017416	-2.715657227335519	0.2868680648713546	-0.29635104462188744	-1.9134221028656069	-2.38689422004789	-2.6417291097700946	-0.828215000922569	-0.29223668501504196	-2.201713318034348	-2.389337056803197	-3.0632905882742354	-1.4697653018083032	-0.5630723223775124	-1.2193447320670194	-2.5954167777337016	-1.2385635344705839	-1.7215962366507018	-1.3598514760970395	-1.4022198880078918	-1.7835845902234442	-1.6593177276679252	-1.2584190336880317
52	1.5059336385852733	2.747210495688472	2.661028616862481	1.7481722787588967	1.2320146529563565	1.0221264336528992	2.198579067401392	-0.669522045352466	0.3173984877202218	0.3405469647392616	1.2404016225015266	-0.3523247233078533	-2.3752021729582693	0.4469686735312416	-0.29787635728016104	-1.7453432039064203	-2.177004093395805	-2.367856019717539	-0.6806154233914745	-0.20591963775620306	-1.9925346324205055	-2.2009077016575977	-2.8561961578736366	-1.3074724641214348	-0.3331987849406143	-0.8350386002438726	-2.280998701058659	-1.1919198006100766	-1.5760769804263057	-1.1386502952437756	-1.3112649884496281	-1.6647452073981797	-1.568783517691424	-1.2070805995982885
56	1.5426198205147441	2.2261323872628567	3.2697067178190027	1.3095993962602297	0.7528488617009239	0.6663916690214107	1.9006551456148202	-0.11028118403724824	0.3167352668394805	0.0458792670402901	1.169589635757092	-0.2177080506550214	-1.7664117768512742	0.5841174706970286	-0.32378265179902826	-1.5924017389147527	-1.7184603170876964	-2.1789283697428754	-0.6483013613545294	-0.17680792465869782	-1.7455099777020808	-1.7331062511556383	-2.5642104084124657	-1.3451757397067852	-0.25071105297686347	-0.5489937649217548	-1.8251793338470654	-1.0834354134862072	-1.6848255353351527	-1.0906137200476735	-1.3859108651456258	-1.8190206243365525	-1.6946506457458326	-1.338411327797594
60	1.6642110305730513	1.9439841459784475	3.9302606483412057	1.1896624535088423	0.5144466148739377	0.5438271747210236	1.816237802688305	0.8528110363409692	0.42698249113045367	-0.17603592530151607	1.177157160647959	-0.029893696232661658	-1.0457173559489898	0.649299500733418	-0.40349817174127484	-1.5321317872465463	-1.152021285963191	-2.0649177975972526	-0.7470579724523915	-0.23127780796309963	-1.5822747905836925	-1.1542334527437996	-2.216235632069338	-1.5681189259038564	-0.34131368908539406	-0.46843024970042973	-1.3865387404721046	-0.9003299451985041	-2.0073461481912154	-1.272250529891819	-1.6339348513358316	-2.19141911907047	-2.0190133997486726	-1.6349790055003708
64	1.9735194394829796	2.1917757932639055	4.634410846453534	1.5371515712075663	0.770418642006296	0.9016311741953104	2.203314298788973	2.0335771986163214	0.6513487084156222	-0.13799655402628702	1.4140020573201857	0.3077102295736007	-0.3492073705916485	0.6693690998343585	-0.4479808796062617	-1.4934153519118618	-0.5710059986003101	-1.8736488771817228	-0.8925611950273834	-0.27601066162041604	-1.4878411255465407	-0.5959250911925773	-1.7925412609619393	-1.8419524384723809	-0.4889642583899651	-0.5294993506414446	-1.039072272538338	-0.617819844116577	-2.3725833832920293	-1.582271691142172	-1.9338178585819348	-2.5966694289451384	-2.39365720144561	-1.9597167919271907
68	2.459459537018611	2.959986679233295	5.276402460128072	2.2653829994226697	1.5345307549834093	1.7389993623697027	3.087358705355193	3.1362888733835117	0.9315204596842698	0.22960463108267282	1.9333163451020607	0.848433552030427	0.22554385605134508	0.698720155382355	-0.34903445751759166	-1.3510946001273272	-0.03102616771672852	-1.4390031062988122	-0.9806171630896704	-0.18738622916118022	-1.367508050326976	-0.13517835702145464	-1.2803583112815662	-2.0105476328633083	-0.5313336835797761	-0.5651884660756303	-0.7711157183251842	-0.23843853115440164	-2.5737280780661704	-1.8147506668049138	-2.097251886794792	-2.8193733620986854	-2.612727158625666	-2.1230909770768442
72	2.9253923819115797	3.8825631043637303	5.619148240207545	3.032836906405323	2.4798922476146066	2.717286818319564	4.168267716374329	3.8343181513300193	1.115277764365591	0.7576162199919576	2.5726463729755173	1.49125611405568	0.5973188265978414	0.742032824073355	-0.11477407784094536	-1.0766043635843254	0.3956990828060401	-0.7416949849476211	-0.9892535184679512	0.06191169082388401	-1.1677802771648584	0.17634856656373485	-0.738209424539246	-2.0102577158718526	-0.3913688649786855	-0.43891271837999585	-0.5405778871239416	0.1781830485136778	-2.478311055601997	-1.768128748244339	-1.9656493614159967	-2.725231879029485	-2.511935466146376	-1.9750366161072619
76	3.0232148094142355	4.373769749089129	5.360232339677164	3.3706262026563687	3.0285453719923296	3.2633006490332965	4.912693011278283	3.8814151189082544	0.9828951930025895	1.0548886034081344	2.9589056893983776	1.9596545646782024	0.6769072396354254	0.7114140373388315	0.06567545963633613	-0.8290404656459792	0.5822805151543337	0.016210278455219183	-1.023334142962289	0.33595472489413597	-0.9653068756527392	0.27895525027417556	-0.3097383074092854	-1.9178188990810074	-0.14933966062511272	-0.14851258657629757	-0.3339464358004668	0.528172908879962	-2.0821516461255185	-1.3401643003960124	-1.4783393107283065	-2.3123972357541653	-2.0325455614271535	-1.4638464413877612
80	2.3960254131858467	3.8990707299018865	4.277238835026205	2.9006886409003423	2.611917250714503	2.8332533764831975	4.798833358092851	3.2090248980564384	0.3379876903106798	0.681448636718686	2.6612744264169144	1.9047135066580407	0.3741371920199482	0.45795324329148734	-0.11023567589107712	-0.9096714235226974	0.37065738345977944	0.4798623609348416	-1.2606828180908856	0.3858285536561561	-0.9524135565553479	0.10598897907200316	-0.16613177913206362	-1.8954961252039564	-0.001114853887797986	0.17067301230255155	-0.18255434884234012	0.7196958046862386	-1.4764382801926397	-0.5549171552952884	-0.6734080297634312	-1.6747484164869988	-1.2156941860023225	-0.6294720753035886
84	0.8649646021939209	2.24825143246458	2.3723728596872142	1.5332404336365695	0.9760926341208386	1.2043032615773466	3.5874025731112584	1.9598442266573988	-0.8792328216288748	-0.603182016280304	1.4219613039355277	1.0858629914524902	-0.3595398357373755	-0.1377537396052463	-0.884069857749475	-1.5930758674454604	-0.34686043770954295	0.32033824839776665	-1.8282233430480592	-0.004044181657057699	-1.321470972539461	-0.3764733364613767	-0.40989419714436165	-2.0685377068746122	-0.12611064283002346	0.3422907284200855	-0.12975892391822455	0.7365308981419642	-0.7597048859489034	0.4805446254995405	0.3640117934096481	-0.9119639373642604	-0.14608696066212595	0.4490932214842516
88	-1.4394893609896622	-0.33259755289028287	-0.06787032616884242	-0.46563699723937285	-1.63412582461721	-1.3667534555260248	1.473222967242994	0.4359335888346762	-2.5192160542780186	-2.6556477479643235	-0.6616220457538813	-0.468456982383544	-1.4742662869425083	-1.0697135898285297	-2.2554068508425105	-2.9320261404397527	-1.5339558085813576	-0.5715630040043298	-2.6858563355345386	-0.8592566826107063	-2.1185548252023105	-1.1179995508577425	-0.9967228745091209	-2.4163157878904777	-0.5492319450816759	0.27933448482560147	-0.1770562972128498	0.6660253984801907	0.03817453225749659	1.649056668886459	1.560610886448325	-0.054992623488342794	1.1057636709905638	1.706374402506394
92	-4.082319726173846	-3.223957053627869	-2.546241515406685	-2.5771617824337216	-4.528875339517837	-4.2167796982159595	-0.9754028891732393	-1.018273351005767	-4.241995800752393	-4.947568880941207	-3.1177465836964395	-2.4207704006111648	-2.794280760385915	-2.168102258930365	-3.9129481216820348	-4.6638235928087175	-2.972072832233176	-1.9868525216484134	-3.5995080380159976	-1.9512618730871483	-3.1665818611305157	-1.964539165305213	-1.7273673967618635	-2.7537770201775085	-1.0906250449301522	0.05897153526556851	-0.25437018211038626	0.667228875859812	0.9633597111221328	2.871245853804268	2.8755698131439367	0.9380677318730922	2.498326056848461	3.1024277131906826
96	-6.47502134595683	-5.691300377781727	-4.534672248835477	-4.254616726623848	-6.8573942011315685	-6.556632502214405	-3.065972320445199	-2.141153568583975	-5.63244627484194	-6.7726392574978975	-5.275641904862658	-4.243751992001621	-4.051256646418289	-3.152516833929088	-5.339230523934289	-6.292139991132917	-4.318609703604615	-3.464500418499071	-4.234756935871987	-2.879673473717072	-4.119733800023477	-2.700145953036913	-2.3250522554823463	-2.8255269456097607	-1.4457395040250296	-0.11293096066811235	-0.24510832069025065	0.888274965427762	2.068495268367639	4.097869385863591	4.268178452206063	2.1101248211037213	3.9808750052080457	4.58531950746615
100	-8.105451563398006	-7.19306276412686	-5.67941378113205	-5.153779970508464	-7.9858879841405495	-7.818972567844441	-4.292160023343025	-2.8304021287029206	-6.363164885667952	-7.566823463409035	-6.556371195452369	-5.445610986312189	-4.975465285137132	-3.7531020546570186	-6.046125873559462	-7.313127022399167	-5.242944704170064	-4.495489585970536	-4.326634872956912	-3.2643442071513897	-4.6283554913968015	-3.135347596835595	-2.562422984329454	-2.459652894485774	-1.3533614839717016	-0.027900202129375464	-0.053316607936715714	1.3789945806019306	3.3181080734402095	5.263046251360523	5.6442837572644455	3.411627045600947	5.438940988160084	6.040042861947623
104	-8.743526436664952	-7.590020637422733	-5.932643875402373	-5.255640970312325	-7.780477504159894	-7.898517588700738	-4.547064292871573	-3.1476941029231975	-6.32998417209816	-7.178986531252243	-6.733863813565034	-5.789528832123567	-5.404670701686549	-3.834757556770194	-5.818862423510689	-7.46634243033753	-5.572687134978169	-4.762125480072736	-3.8291380308749585	-2.943484537322444	-4.523489940666688	-3.1958951869384644	-2.369217389800772	-1.6857148366329562	-0.752750812060516	0.38794568083091036	0.3308132580511141	2.0519638009716332	4.543936241121658	6.246721728765897	6.834339124590656	4.6606898190129185	6.678879720991453	7.275693875063256
108	-8.525030114584766	-7.161930542983537	-5.550740227990123	-4.8303637382622675	-6.652083380116725	-7.167654496216156	-4.135842312861224	-3.2599441922851793	-5.696632370871292	-5.949167713403868	-6.032388195066314	-5.395507798877652	-5.356992708032511	-3.4596455009850833	-4.835170733641977	-6.872110349470878	-5.373188482069989	-4.289683807986728	-2.9558305665728897	-2.0667359776768905	-3.9154982467976667	-2.9613668843842293	-1.8640230847026686	-0.7414123993274545	0.16510534244813932	1.0118154261792374	0.8099198916967565	2.7176458766987843	5.493304715592409	6.88720129181559	7.634550552166263	5.597833142452523	7.481143932527943	8.07741067754351
112	-7.877021292826056	-6.443131430571036	-4.971461760366966	-4.276309956244371	-5.34444092354882	-6.273994429960468	-3.5979561714885437	-3.353152028200975	-4.826201426718821	-4.551609027814933	-5.014283644414125	-4.676745402926239	-5.028720843016591	-2.855299704018478	-3.591817608347914	-5.978392109082036	-4.916873442633696	-3.4326949032900655	-2.0845518059552743	-1.030414340278703	-3.1487786690367923	-2.630704396281694	-1.2965180841136914	0.039490725745394	1.043635842549399	1.5766605098971835	1.2190893857694463	3.1760954776683854	5.950208648917597	7.0473880589892826	7.898232916918009	6.01134680183941	7.701886634454752	8.30407426644878
116	-7.321474533669595	-5.966292843060338	-4.626236427071096	-3.924207200633101	-4.573918331042298	-5.827383980343422	-3.436553231145925	-3.5609891324736003	-4.129310120647492	-3.6776552107465514	-4.313435543614017	-4.1420469179480985	-4.709386336834307	-2.3058390559153765	-2.6716656617422414	-5.34132479272783	-4.553536403603523	-2.700556509829089	-1.575817581012898	-0.28750392722021306	-2.6347122125862725	-2.428798430986404	-0.9287117100156104	0.3948470940157717	1.5371912679008866	1.8084336473582772	1.4056466782366668	3.3169450676142884	5.856797680372919	6.6962098906254335	7.623744468514347	5.85817049454792	7.362646561153536	7.97454688919848
120	-7.249585610206077	-6.038094982161281	-4.769985186931555	-3.906654348046802	-4.706317412891861	-6.135167583234556	-3.8935022255824494	-3.9280018707285005	-3.899010886838683	-3.721209039829704	-4.349966038211727	-4.164055813766555	-4.652369010623282	-2.0271053263029493	-2.4738271173961546	-5.357488141838633	-4.549173820454137	-2.5079972680667195	-1.6047713716044696	-0.13572028245038428	-2.655505412072959	-2.5043926175783837	-0.9165104008423142	0.25950980120942474	1.4771037064452321	1.565883513311844	1.3006082740371416	3.170789710622455	5.354701028655972	5.947436317686804	6.976409417658476	5.299739824265927	6.663675768240533	7.28054140160131
124	-7.766452769698232	-6.642585260786458	-5.395552621570411	-4.145209778810474	-5.626163945298475	-7.105016690435581	-4.87150858602826	-4.408249843911743	-4.200800408247758	-4.620634067313513	-5.162746416408678	-4.822983729583391	-4.960570799701104	-2.087216848825743	-3.042545072503249	-6.086989864239982	-4.972431170307146	-2.9731318875588713	-2.0932710117895836	-0.5922750815696821	-3.2415013231453416	-2.870164387132194	-1.2472306458454911	-0.22022741977402682	0.9381632185137814	0.9050207115211947	0.9428793168104376	2.886334650381773	4.714934813993151	5.024127947520374	6.221790298012193	4.623994338758886	5.901833042502869	6.508522494096125
128	-8.668329217006175	-7.49496267333778	-6.257821067269369	-4.442528713454103	-6.846788865922749	-8.339125612185478	-6.019261344971283	-4.880884158209179	-4.866109358899558	-5.925925239860255	-6.428909285526377	-5.891267284778079	-5.537965283716956	-2.4049756466227223	-4.077215184408169	-7.252845745848481	-5.679319367374964	-3.8641707799625347	-2.773342363984922	-1.4154163563278455	-4.181715001038865	-3.411689749687093	-1.7600949958232162	-0.7866759280370276	0.17447006658373637	0.03505901983469463	0.44521993286259154	2.6463661127033333	4.190940369515328	4.159567822444878	5.598848805596932	4.092098225752429	5.328936086551833	5.904802307479502
132	-9.556873297404417	-8.207042673371006	-6.992008191575392	-4.615519988804696	-7.789984206558987	-9.356444335202932	-6.921530229259435	-5.183418260838908	-5.587369904716489	-7.047924023953749	-7.6485299870980095	-6.960810166904404	-6.137116416695212	-2.818265192545819	-5.1093969216092905	-8.406960466140188	-6.400349124007908	-4.723923194402587	-3.3417024528056882	-2.2523634376879627	-5.152550207480563	-3.9569475550884032	-2.236206287460201	-1.221886631741693	-0.5322769866856097	-0.8020499924437073	-0.0743166727931538	2.569216960142379	3.881414403652519	3.4892797381996927	5.204189287397795	3.799355020467365	5.029666411098921	5.5587115147436785
136	-10.02941605896771	-8.473425843779996	-7.27321432184686	-4.590800750585856	-8.078171709646082	-9.819380735401317	-7.288410168366111	-5.166332708666469	-6.063157066296004	-7.54956720353439	-8.388873079100893	-7.638614158418211	-6.478726370666714	-3.1752083221377885	-5.741540417480322	-9.162454581969564	-6.877446157257699	-5.107220636824746	-3.613285532411755	-2.823315851712755	-5.884148582861238	-4.362653244448006	-2.5079009469610054	-1.4574935399450604	-1.018694636633976	-1.4514435493063436	-0.5502778873855537	2.649690144524775	3.6883227732043595	3.0002694054194325	4.957113253475703	3.6362523940786224	4.89256666855566	5.373029218459552
140	-9.858431791210927	-8.192736604986715	-6.9549083534122245	-4.419161785412514	-7.692273597369647	-9.660555815148015	-7.058896046936302	-4.754128920949859	-6.1287627065417425	-7.332661133372796	-8.467191674789389	-7.716216544696893	-6.385156138511599	-3.3982186231647074	-5.823299870093724	-9.367432570648823	-6.9792761626463555	-4.807857024451904	-3.5942828564496003	-3.0439736766256185	-6.273314460174587	-4.572346198935672	-2.5347003872772547	-1.5847730596585006	-1.3006588187757835	-1.8980263423682835	-0.9850241516993019	2.7678232123112347	3.3940918359894576	2.5670578414954868	4.666213500639597	3.371592751573606	4.69124220617333	5.138721929927586
144	-9.083877540541977	-7.487230758837038	-6.13454244972173	-4.215114582863718	-6.9323420349572356	-9.069995857227415	-6.390954478340709	-3.9997701543912973	-5.813946709259184	-6.639495356009102	-7.99562404521216	-7.2422375496167195	-5.868571743453544	-3.494470825909365	-5.4844169478231	-9.13875482159239	-6.7446403333132166	-3.9646317858734457	-3.4461252602355272	-3.0300049705299044	-6.391406519965544	-4.622556197893377	-2.4147765575476843	-1.7687883332417582	-1.523881669965435	-2.2297542038888443	-1.4183021748020048	2.7577745844832116	2.811994545512701	2.0532720037118604	4.159972657191171	2.8084866929672363	4.230916489409515	4.672449100141677
148	-7.9801153935179165	-6.625313742122788	-5.117585169269281	-4.068532456616371	-6.219269259963138	-8.367385843132194	-5.561622605587159	-3.1002650182651124	-5.304281698186346	-5.883237347054212	-7.280853253101988	-6.472760660995497	-5.129250036640953	-3.5182599932534777	-5.020406710347152	-8.75254628832675	-6.339451297013223	-2.994650356361354	-3.3714048777337484	-2.9925265236640795	-6.396291239801845	-4.5996346357564235	-2.3284871519427903	-2.1261191314423677	-1.8418554021109315	-2.542711013096263	-1.8741952133543547	2.497662776363075	1.9197348307778304	1.4179598057232794	3.40501140688474	1.9205800246386113	3.475258103179552	3.9371273418205734
152	-6.920066339187447	-5.889708980949006	-4.289787281649797	-3.98180388398988	-5.855533585069715	-7.833449820768094	-4.835459696959118	-2.3459739625828444	-4.830630767070187	-5.4093952042380975	-6.643550856029381	-5.733350262471704	-4.4645833856396315	-3.515887013141671	-4.70562313799127	-8.464434602347618	-5.9574770777017365	-2.383991712273236	-3.4927296550305824	-3.091397277656398	-6.409347041160483	-4.575305450332009	-2.4406630931268585	-2.641934149747604	-2.297151559752008	-2.8513045238985604	-2.319569343432591	1.97596013047108	0.8978193379622585	0.7639698366903938	2.54461836172426	0.8895426370096444	2.5821394855156368	3.0782368105417977
156	-6.205677493640032	-5.457816587019899	-3.950549115697209	-3.8672044179553637	-5.876671299402333	-7.5864920424609394	-4.367164123953218	-2.0128016421044435	-4.546270835842326	-5.32054327575149	-6.2570223650313945	-5.266309248025869	-4.133760918670923	-3.4900393397907927	-4.642176139555267	-8.365263917783547	-5.721547112324502	-2.446157449268382	-3.791344633066935	-3.3324663554931915	-6.433677657096369	-4.559886920860439	-2.8134574819103744	-3.173790923688608	-2.7768046785818936	-3.061052314659281	-2.662103646232936	1.3018803563627264	0.04801929729974148	0.29636949225939885	1.8329173280215596	0.020561210759226085	1.8267488433493284	2.354045861976527
160	-5.938961014058299	-5.339601980079592	-4.173149575187687	-3.6021563915859716	-6.05774067302965	-7.547564487474993	-4.162269104939279	-2.229679578873774	-4.4511842615279535	-5.444534764848842	-6.075623973765748	-5.1266302933003995	-4.2362551582192784	-3.4003589067438984	-4.7164659381042755	-8.341478326718113	-5.6279067851073075	-3.167017213454856	-4.128163804122066	-3.55771254594928	-6.352495177442937	-4.492601383310592	-3.3669590865004664	-3.5304329306159326	-3.060492984674121	-3.0139388961991296	-2.784758560779219	0.6602790935058376	-0.3569103172351033	0.2175025189391936	1.5066075286974023	-0.41078382626771065	1.460145231375133	2.003974909491231
164	-5.992250427375905	-5.391861425138079	-4.758448111917958	-3.110884420170064	-6.0583896484003255	-7.499008159777762	-4.099054326198734	-2.893914453829433	-4.404454220142029	-5.451379285400408	-5.87937162822242	-5.169778333962945	-4.6625370861591335	-3.195309869328248	-4.676704871767894	-8.151290872974656	-5.5563979008579185	-4.21086357960907	-4.32509230475402	-3.527370443975105	-6.001158699142964	-4.270468224233974	-3.906435718210318	-3.5724503903792337	-2.9301099703243514	-2.5756151611149947	-2.5960075789712236	0.2355175161375913	-0.20588914998047742	0.6191791876418925	1.666819210612548	-0.29224553630476874	1.5834724863127851	2.1291248744615126
168	-6.090307220341225	-5.397598252973937	-5.31371353715179	-2.422085755908747	-5.618121132971369	-7.202199440892122	-3.9934482473638013	-3.686004152528451	-4.213746537060287	-5.0437478891822645	-5.402488218018964	-5.129564749164572	-5.138652311702664	-2.850025646643488	-4.277296055485046	-7.563555698372119	-5.3319349154322015	-5.078537928156928	-4.254030216920739	-3.0437257213039786	-5.26349161726516	-3.795641412688655	-4.202237595438954	-3.274662486391696	-2.277808183641177	-1.7093151764628975	-2.0657589383421993	0.14339552783524961	0.4080115844438841	1.4340493642840364	2.2369868698862088	0.2834115915295564	2.1067502445436377	2.651060336095412
172	-5.959454998228969	-5.170609461127595	-5.4231452804973275	-1.6665201145058202	-4.692853915763988	-6.513851626162748	-3.6710212137997997	-4.189172734174332	-3.74912761695343	-4.113248814688287	-4.473611343533098	-4.741863238760368	-5.341763959749427	-2.3824267327239643	-3.4062514219115165	-6.479034407470135	-4.801395880974565	-5.335672365068762	-3.884714116778954	-2.04778670747632	-4.134472836546323	-3.015105955140885	-4.085420598205812	-2.718317024997261	-1.1543127269211508	-0.4927000390964756	-1.228623863932935	0.3995468010351561	1.2547191349775855	2.47365307183385	3.0176997108563826	1.0871363850802567	2.811759941631457	3.368522873956845
176	-5.469996915358286	-4.636498439526877	-4.8340391990684175	-1.021603700919539	-3.470619669734842	-5.452563272061238	-3.0236856861067722	-4.0637731449523615	-3.0240704936924705	-2.788457863443219	-3.1027412336214097	-3.8587753675310883	-5.033451067614023	-1.8435614062493855	-2.1361117309044437	-4.976830946754778	-3.8932795426301308	-4.797078120517937	-3.2789790547554314	-0.6460379345795433	-2.721497767253024	-1.938770527713107	-3.51789735859558	-2.0319249578673193	0.25868755513682423	0.9242210960895701	-0.1612707968454854	0.9292061901474186	2.0949435181177587	3.525524368921783	3.798122157997944	1.8822724771660537	3.4737622650180455	4.070466031288003
180	-4.69909523731195	-3.8563139341266583	-3.572112789672078	-0.6274247749700124	-2.2687447013795143	-4.190970887093377	-2.039146418191494	-3.1929254451246734	-2.1946809236429234	-1.3601505722037672	-1.4792851172292143	-2.507435792314353	-4.153911580088553	-1.2892206874722645	-0.6803967935549904	-3.2717108643898705	-2.63991355229482	-3.582661858096372	-2.5458855564689853	0.9401392316923861	-1.191130754324532	-0.6331926568257197	-2.6046333247227613	-1.322905894754161	1.7308210090807197	2.3901522099230874	1.047990915513562	1.6070755679563793	2.792156212432905	4.451700676168984	4.456523407174874	2.5357568199985865	3.9687428374225147	4.637130248759901
184	-3.8842291733902856	-2.9879755898376787	-1.9273377608276046	-0.5194241987465633	-1.374263402330184	-2.979091636765626	-0.7969068268683137	-1.7291234688018022	-1.480302330094383	-0.13309670951141336	0.11214747996625973	-0.8730257131469267	-2.8399019169632376	-0.751619396696246	0.7108777147464966	-1.6153037507282686	-1.1614254683735297	-2.032412762278929	-1.7887154772420453	2.4702031550029604	0.3029106549721473	0.8005622009092251	-1.5446650942904032	-0.6401152594617452	3.0739376467342927	3.8093533419753247	2.3199300707418606	2.3061964453645474	3.352415314793411	5.236686693321606	4.997962939041513	3.0562484187210925	4.31284235819071	5.078186976009377
188	-3.29759334685321	-2.2108917180508474	-0.3241943708817748	-0.6139048322436794	-0.9168704128958486	-2.0403072782502085	0.5566867575895572	-0.02327110798742015	-1.0546163293914879	0.709194539186934	1.4083661997523227	0.7742492537024046	-1.3691015208963784	-0.2338711017426011	1.8531938744486376	-0.20094665834237466	0.36968690063599674	-0.5409180508308159	-1.0770115825164028	3.7704341316396266	1.6650868612211696	2.2468254509465737	-0.5523546920182192	0.01306450456807664	4.193271149538741	5.149935232511579	3.5827982335232735	2.9304435179156725	3.8762254617100536	5.959568008635178	5.511381612214249	3.5447399526745373	4.6172256353152825	5.490026936975196
192	-3.106329671646407	-1.6527752834553173	0.8570584633169398	-0.7537785749477831	-0.8337835648466506	-1.4862294159558833	1.8451509429122426	1.525181170427547	-0.9654481386605003	1.1610747546445568	2.262416357050399	2.172868246314572	-0.05911843836282716	0.2707375281174178	2.679095976741182	0.8846319295482878	1.7688019231007328	0.5953932389485893	-0.4491613793953802	4.77298115478898	2.85881280177267	3.588040104390166	0.2137539530364111	0.6368997676981655	5.0833163133072174	6.407584174191057	4.759169089699341	3.424665203984777	4.463847625906382	6.715118391249081	6.08293817891696	4.100066174645886	4.996305453083783	5.968884453008629
196	-3.2919874108169487	-1.355218526279635	1.4218804800374163	-0.7897883037654061	-0.9320765710186201	-1.2878026929766382	2.901823274915422	2.617081635543383	-1.1237914533852336	1.3558676208596003	2.6768562726147564	3.145853511497181	0.8358485081550358	0.7514631133180395	3.22431921144861	1.6499776798552028	2.8740360664284488	1.251363631903782	0.06841567141425739	5.498850808565467	3.872349014042228	4.711921679998072	0.685658035931386	1.2012890546986652	5.783048615159948	7.555312137601916	5.757930741077857	3.766266098050296	5.136699663544752	7.5344924736530166	6.721570474820437	4.742063033529151	5.4884943823526005	6.535207731913273
200	-3.6673660185728223	-1.2833194700265314	1.4014332259081324	-0.6525387151455584	-1.004070756284545	-1.3126018014192753	3.604047766169209	3.134892694187818	-1.3644552196385777	1.4646698199486097	2.76756333606067	3.6333699134645623	1.1923326223787487	1.1650257081181632	3.5681779294525207	2.1468601172603634	3.5712368398146705	1.4476206266093914	0.44611129052063464	6.00302170191536	4.677011954897003	5.51804922618057	0.8723003246218416	1.6442713695973932	6.3218068916927805	8.514150598010673	6.48125360759881	3.94605349498102	5.817112907981659	8.34923169889092	7.337229233336849	5.393452153893828	6.030679210695629	7.109350186518389
204	-3.981262673816686	-1.364910122286355	0.9881086920586406	-0.3765102317363995	-0.9303668117875548	-1.4043878281421889	3.8961932560779746	3.1351125161171947	-1.5360323151908	1.5973397453033475	2.687158816228882	3.6826498415475397	1.0354943249307942	1.4476076327968632	3.7724795246245746	2.4183080135324206	3.8149301909450095	1.274955746292765	0.6549429280911485	6.321617587341452	5.213016496848164	5.935770019803661	0.8217415192837921	1.9045140695171257	6.6907358000630826	9.170631385537789	6.854100210051017	3.9599616427577953	6.3735079604404214	9.020427681083032	7.785981635463136	5.925854667961018	6.497037394332642	7.552994232181743
208	-4.050567616726425	-1.5296771487716034	0.42354690921659655	-0.06770475936723559	-0.7187128644917293	-1.459132548462956	3.8028101825069816	2.7786743570744874	-1.5643854101738417	1.7601028636363065	2.5534875328444455	3.4132485303533233	0.5143643008597107	1.5509619673671564	3.8552000425279083	2.4787871775032606	3.644615640975232	0.8353293517003528	0.6880734545501656	6.453785880007026	5.415724263822948	5.951818451159626	0.5904383048409211	1.9663512657110995	6.855316621638522	9.434817290327326	6.8627891367258576	3.8158714674929257	6.699525816215206	9.414260840489089	7.950971583319281	6.23760174130113	6.773276788776806	7.746705035678266
212	-3.842971553636663	-1.722059722367305	-0.09491480862972503	0.16671505528320177	-0.4664326596404707	-1.4552050792193318	3.4323692235118353	2.2504229488775542	-1.4607820473983057	1.885154480942957	2.41997026786172	2.980024091826138	-0.150460809089346	1.4803446493920667	3.8068692588059374	2.332910054992537	3.1873946109406393	0.23100845457403968	0.5820713624563449	6.383845790004165	5.266075597818939	5.633192048155487	0.23477750957341198	1.8841729116552741	6.796343786246643	9.303938842171434	6.57875440843907	3.546221485721334	6.776137334881644	9.47829625597683	7.809596995663522	6.3131222565523535	6.818919641444771	7.656210880022953
216	-3.4738919647247495	-1.8873962116272998	-0.4487741280192522	0.28453123497651295	-0.2787336104031378	-1.4278715812872438	2.9603714868189934	1.7106560425483792	-1.2803695169547555	1.9033195924388426	2.2942190112364624	2.5423247749990936	-0.731940327226888	1.3096680608108378	3.631142845522797	2.01397013155767	2.6357819967480003	-0.4090524007483241	0.42003387106704937	6.125291332038788	4.8339195129420105	5.129333483143428	-0.17584748521753443	1.7685273841075904	6.551858885435686	8.893399216132751	6.153057082853696	3.2181672968675845	6.68441007833833	9.278003669202246	7.453298073070659	6.232939227579991	6.686803324029309	7.354850750473756
220	-3.12663888141874	-1.9574450205019571	-0.5789843187019319	0.3273345819791932	-0.19705934772806655	-1.412123438130898	2.586789124633536	1.2797775236243412	-1.0690072747897246	1.8071405841977846	2.180940145708255	2.2363536301417137	-1.061351177396945	1.1562155455961562	3.375556460441162	1.6096560914407698	2.195660824000557	-0.914036271648579	0.3085793546991988	5.752818569917668	4.281677712120711	4.639787185398701	-0.5459968433900146	1.739960189241056	6.230047687059948	8.411363580447919	5.776085362156288	2.9282565042950957	6.565504534357532	8.974162079088025	7.050606709799027	6.132775291217891	6.493998987968243	6.992191773880837
224	-2.9447863027610524	-1.8595241261263808	-0.45629718784522905	0.3863988508959272	-0.17752242043497768	-1.3938399518107873	2.4772872862259194	1.0373197767770765	-0.8388391711990902	1.6662729936492053	2.1152496284485705	2.150472397143211	-1.0765966149805242	1.1253812284666689	3.1297581116812503	1.2520198790411021	2.0189609476614025	-1.1060962649075707	0.3359716824155317	5.396615014756205	3.81765531529726	4.352035034635947	-0.7673574070630055	1.8757356357900405	5.980691894690244	8.08387658939242	5.614974007735174	2.777237169883292	6.553548796320091	8.754118897270533	6.776124460278405	6.138312801122123	6.3659443694561	6.729658586677458
228	-2.9613172933199015	-1.5562856158064744	-0.07837529460669446	0.5386868701685719	-0.1266810294767615	-1.3075023856530363	2.701000206803677	1.012426492995932	-0.5848836287990371	1.5873120983102322	2.1579599326009915	2.3007862509812345	-0.8398303964392024	1.2566980091791322	2.9883391781698907	1.0696842643433742	2.1459951346575665	-0.8831710793131762	0.5325818644428661	5.195041166540764	3.615222206524907	4.371056068828646	-0.7597047667396142	2.1783406679468738	5.935123905455926	8.063132265714325	5.752871498842095	2.8340337204906265	6.718422872747086	8.75182626421968	6.7423696347715865	6.3118882019900395	6.385610564322219	6.677321893999537
232	-3.098560563847419	-1.0919502945987425	0.5008090721837598	0.7866382579016247	0.029653925373787117	-1.0860605212447771	3.189749948077637	1.1644939154788199	-0.3258657149193794	1.6429992872718084	2.350913757110778	2.6137022906117293	-0.5156188594197757	1.4979195556968765	2.996849767748013	1.1231216163889388	2.482639306476079	-0.3048375241212589	0.850543020008347	5.2258262502337915	3.732633819692827	4.668718803062472	-0.5209161030015247	2.5762245590016395	6.140537246459524	8.358808496352092	6.15182970401158	3.102380983149297	7.039631348956376	8.990719772527665	6.959784490179699	6.630228502699979	6.565322859400716	6.854672891476573
236	-3.2302701391679602	-0.6079066380411415	1.1409156293673897	1.050270435542597	0.2918817989609453	-0.7275374513377356	3.749873628685555	1.3782354558479877	-0.12647587028996257	1.8194380952675053	2.6663238934909574	2.937507860396616	-0.3064827017198732	1.7279385284666593	3.118426553482321	1.3629590238492035	2.8354728150304505	0.38914862176873016	1.1773844927625583	5.458135114240774	4.078761090471161	5.08621119168736	-0.14869090877185412	2.9567508622858982	6.527417166442219	8.829336144089906	6.661427004208125	3.5111589343114455	7.4207181743186865	9.37629983442038	7.339188557214959	7.000208360164308	6.849668008676709	7.189494591681035
240	-3.2625355638148914	-0.3015339366929236	1.6290826756354968	1.2177054851305453	0.5785494432147487	-0.33057594215854	4.134371270231882	1.4967619142889717	-0.07340437155310561	2.013854975384255	2.988106958474432	3.089836828060118	-0.3675676872986806	1.821371550729848	3.2420558847589316	1.6375778872153057	2.9943845196463266	0.8642596580619422	1.3814327681949568	5.755609497797584	4.445281971198617	5.395780549731456	0.18899010074106942	3.2135856070445574	6.929905873922126	9.23920629076016	7.073461037896843	3.9371867080466196	7.731259326488748	9.738459562509922	7.72995279267857	7.299043160130037	7.140535813423296	7.549702625286978
244	-3.180371514873776	-0.3337108484425868	1.755868788100732	1.2184218137496474	0.7682930807743272	-0.06569651497704988	4.152719964033213	1.3907362187558794	-0.2181966448281729	2.0841572232078573	3.147477142016763	2.9299123213227753	-0.7348699551148465	1.7169160799547545	3.230600825736339	1.7522551969157025	2.8258500027836275	0.8463632443040257	1.3676090205949707	5.932702526372684	4.593156802978589	5.395652280536223	0.32677170551767787	3.2840666688020343	7.151917439523711	9.355696654540758	7.199900608958229	4.2510094535311485	7.853351573189771	9.90017220858601	7.972224692243894	7.416617374768493	7.328205566977796	7.788897971515343
248	-3.037879697759168	-0.7329442482563052	1.4204026424785863	1.0749269696752914	0.7664856295307216	-0.08988661296323222	3.767248144175136	1.0373275253808776	-0.5249002562621871	1.9229259442417583	3.0024099274172023	2.4256503520758947	-1.3024685349958849	1.4507744275657843	2.9869017525601165	1.5556075533692213	2.334561342067225	0.2702488296361382	1.1184560032262798	5.840242371119063	4.35611199232829	4.998816000715385	0.1851091678237362	3.162266723278251	7.051315289814328	9.043752647454806	6.945976239787314	4.368308533130016	7.716905097551599	9.744759535028194	7.946884612046641	7.286437493047606	7.32038686811448	7.792137603159996
252	-2.907313577941111	-1.3563052381604364	0.7038136702887762	0.9009731389186514	0.5565846548333148	-0.45301261429852907	3.122872344715603	0.5534421787594006	-0.8632217027804441	1.5126126966433613	2.5171530183182615	1.6769998031237705	-1.8701776218880577	1.1361942262573619	2.502700560926772	1.010409471821825	1.6588026243290768	-0.6743896586557587	0.7009528857653593	5.436487184150166	3.7123131658287263	4.271487702075638	-0.1871315832181815	2.8880731986561923	6.60189722301687	8.317742326717005	6.3464865524275895	4.282288540518827	7.315394859917855	9.255277610299663	7.60915325151017	6.89924953626149	7.06481550340329	7.5087842751705605
256	-2.825134031792393	-1.9389493416469818	-0.1396467384150498	0.8411696531992794	0.20823824353095063	-1.0531285974616502	2.4893298086259352	0.15023438594557714	-1.0639508935769049	0.9337201094895071	1.795054073570036	0.8800241328909151	-2.2418584767006915	0.9014627314696003	1.8664263439739448	0.21404671614964746	1.0007163260943448	-1.6325025517254952	0.23677051007573488	4.806981074594496	2.7913532186605186	3.4011149320563208	-0.6391232593612529	2.5229339535911417	5.903573974963073	7.330362301438903	5.549040780362577	4.0611839191898556	6.702971918348839	8.514561631640005	6.999797326534974	6.301385386769975	6.564414007779475	6.966274720723614
260	-2.7717311312314217	-2.212344640868224	-0.784162936614997	0.9869837736006348	-0.15902407427215545	-1.671555514883732	2.137820715275129	0.028082894090441082	-1.008812663392324	0.3264905206066599	1.0420124504483952	0.2449399673715076	-2.3241555632086093	0.8218913057557344	1.227088209868819	-0.6423458440775429	0.5275309668573518	-2.2646925392193347	-0.15031084380346973	4.1233105555381275	1.8140715314840576	2.6092743807718346	-1.0003230546491098	2.1246838515998	5.13594196930228	6.306345923714238	4.7505574106439346	3.8107485674967045	5.9759726373474225	7.6696243092493415	6.232310756207067	5.580299363352505	5.880782112532824	6.261705859587441
264	-2.697217457637202	-2.0376310297065503	-0.9820036267282902	1.321364995481318	-0.43462285289705227	-2.0785381741497786	2.2069718782017356	0.26096111470139655	-0.7014647108487534	-0.17216254727288904	0.4730318474747615	-0.09711281930723527	-2.1758780424495514	0.8836271740538458	0.731883106768048	-1.3576588596398678	0.29306369945921246	-2.419485324473052	-0.3857199241913272	3.5628485589673184	0.9955630873340096	2.051931376044957	-1.1729365557620697	1.7323322252405393	4.479232299939805	5.453186021388278	4.115272511582592	3.6211535839208207	5.245804773437745	6.877357465546498	5.458636746929937	4.842144477063091	5.122297750891904	5.5323862889800655
268	-2.5694265300728802	-1.4780621491308006	-0.6764675361720275	1.7240915254932787	-0.5638383612702316	-2.150089258487562	2.6301817827576226	0.7399819474611014	-0.2730900042314735	-0.480470656135561	0.2117991144078093	-0.15007735750931284	-1.9788284251797197	1.0004521583093673	0.46933615089176134	-1.8052790119368596	0.22030977849173727	-2.199385160615299	-0.4688743937098522	3.232344380800907	0.45913928631255596	1.7566994384282246	-1.184050437798829	1.3645884956239591	4.042395104692615	4.889206397110287	3.7112347985981726	3.5235950857845637	4.609512794300819	6.253243907399333	4.82127236102692	4.185146321220631	4.41491316634365	4.912116038318314
272	-2.403966182361355	-0.7620953898262298	-0.01105427832345715	2.034763807881514	-0.5568281994112521	-1.9250547837291814	3.1707723060662247	1.2207272021944493	0.08582945891406546	-0.5870186671695011	0.2413508140907744	-0.039407040824340635	-1.9387991379425271	1.0725449296575018	0.44355174787115204	-1.9766545245809604	0.15552547534776867	-1.8835571956762989	-0.46024107816844734	3.1332554738092613	0.20110614547022973	1.6287938315276445	-1.1630003422938089	1.0287783119930385	3.831560602051093	4.617096889282893	3.4950799853774313	3.479825964725026	4.124583710747316	5.840376839197337	4.406234730086264	3.674015274308598	3.861632337357249	4.486488807795019
276	-2.253081792864982	-0.15918904502731604	0.7630832772062429	2.137868875827986	-0.4612442839421291	-1.5697644909326607	3.549998512841925	1.4518264495434139	0.22833897115754645	-0.5308845625825274	0.43256845961076573	0.06444009377184039	-2.17046594071761	1.0485126945726087	0.5868628606284516	-1.9643738220210236	-0.036199703721203715	-1.7481768087118883	-0.43997171410104646	3.181931249214321	0.11929061978739741	1.5208322963464247	-1.256689783738174	0.7327581029511416	3.770144691485328	4.549106586415	3.352459660649012	3.411493292778409	3.7970325850942004	5.608938679839035	4.216328610265438	3.3247761642436866	3.507966747963914	4.266141403871362
280	-2.160057062417474	0.16196508664723744	1.420120950928089	2.0193593451060754	-0.3212032608028855	-1.27256023562529	3.5970499424716667	1.3100070920294642	0.12613192168815457	-0.36881446745262203	0.6298921092342603	0.040005177158441825	-2.633538477924319	0.9512923335853088	0.7968767265227782	-1.9002903651897158	-0.390912412610148	-1.902681703532067	-0.4633087802156795	3.2651810563619232	0.08238049575749004	1.3220816817282877	-1.5374829730316808	0.4895611393012389	3.7518010044741463	4.562984455032306	3.1690471092322015	3.2495999254198162	3.5849683194247772	5.480687127581052	4.175590504594366	3.1036822717507477	3.327698699178935	4.188656319533302
284	-2.1128368324341547	0.21443727558355213	1.8637448502215597	1.7699980691090653	-0.14762531183641125	-1.128320929539569	3.3426337157733075	0.8709026553100323	-0.12322650073649423	-0.14852963350466028	0.7459762673617387	-0.12110713093698597	-3.151289455086972	0.8566491582223006	0.9794142817564953	-1.8817764473134853	-0.8202306011471954	-2.2372820320863913	-0.534612535080592	3.2991282856615904	0.003253029185516053	1.022756693165163	-1.955196852515995	0.3135470442008167	3.6963384058135165	4.562486637040399	2.898622267080486	2.9804377480598347	3.420006028123738	5.3685107095598275	4.167750348058985	2.94495343418458	3.2399732984757375	4.152295102126326
288	-2.0304872938389664	0.17223770872976105	2.1451122706613828	1.5351344308241703	0.0834173334519014	-1.0802707644844927	3.004853479428245	0.3687413325536673	-0.3591697504988995	0.1005211991514017	0.810528097490509	-0.31283557336025153	-3.501806488732641	0.8409875014053056	1.0791754695348654	-1.9251569460900686	-1.154917952482672	-2.5079100068669886	-0.6131994112745437	3.260246268624138	-0.12155821888750723	0.7180573326101447	-2.3602724015726233	0.21079535729116478	3.5804135709011207	4.514310825394453	2.5910224849133754	2.662780278158718	3.238233558108426	5.214004980274623	4.09181212345823	2.7808089186077947	3.151102058084271	4.065963734851616
292	-1.799626226649923	0.25939351254776155	2.388932222056905	1.4446604215387402	0.4050422598626052	-0.9589455103505018	2.86958812942796	0.06821150315467536	-0.45054098849986823	0.3598525515054001	0.9419391131461243	-0.37823983931412497	-3.533054581305114	0.9304071045273211	1.087792274589709	-1.9700516412587028	-1.2342401711773612	-2.50498270356017	-0.647415219102891	3.1769320884603407	-0.22392289283960967	0.5505613074707452	-2.58602570834518	0.1681223656462792	3.430814019124282	4.447411049104619	2.3635160863331106	2.4028937755952637	3.0061082764068883	5.006673800225575	3.9066874882292137	2.5692310268385103	2.9992325230215378	3.8898596665401324
296	-1.3460562195171841	0.6138371213673856	2.6912629536391743	1.564866062028097	0.8243424275566443	-0.5964214190683689	3.130786411010319	0.12190005897501163	-0.3582698395743527	0.611194609052585	1.2599645821231555	-0.20056275972750678	-3.237624160221781	1.0851834985037663	1.033253309502187	-1.9275834511727483	-0.9916128491161387	-2.195942157923186	-0.6132770165218453	3.096093169978526	-0.21481798534993257	0.625630317538935	-2.5398700173148616	0.15038163922012296	3.2929365551779557	4.422723758975297	2.3325011671304097	2.300823921116637	2.7318193843534293	4.779798018785441	3.6441540626072566	2.3091652335040247	2.780879252088452	3.648035278646652
300	-0.6973425132311396	1.2033416002409683	3.0503311080213105	1.8855192613680616	1.297742363514287	0.04994291427043069	3.7750377559718755	0.49152770514367067	-0.13745826448067952	0.8317389467220825	1.7918844177781728	0.22474925163268933	-2.7507533957649764	1.2276653020380774	0.9585821604368684	-1.7442117885421504	-0.49460041398105137	-1.7562981799606099	-0.5356801138704687	3.048020116739914	-0.044482707864986884	0.9439057087908784	-2.2533442917199102	0.10913549336059065	3.196418515718271	4.489691722978583	2.5391399796274956	2.3936185776358934	2.4555871424666202	4.585445869312754	3.381855956122279	2.0348360487107993	2.5443961556090984	3.405369273171068
304	0.005332207293756976	1.8370677186360809	3.3672156248909317	2.340830081751715	1.7342301563346856	0.8382979014212515	4.572733867544312	0.9732145642504805	0.11430029542198315	0.9997163985761174	2.429839366500133	0.7745733837598748	-2.2785189094236844	1.2904291120373899	0.9018379427075142	-1.4434666597161927	0.08081120977264443	-1.4694637023065014	-0.48051714775836846	3.0312199516059386	0.2618571513240427	1.3889496291378927	-1.8658062172512673	0.00019647755785133842	3.1385970036419666	4.652075755771728	2.9110829756671897	2.6264836721865152	2.2239193860172235	4.461355674923904	3.1911420741574963	1.7924700930162571	2.354438775793895	3.2223660864535413
308	0.5603110180059745	2.263492101676589	3.513754358956992	2.841041557768466	2.0254309126261467	1.4879167042359251	5.183328615453393	1.3016339507618468	0.31935509958700115	1.1027500601583287	2.9671795293280496	1.2466533152576542	-2.0019841143607593	1.251721617399399	0.8828577973010276	-1.123483893418969	0.5238130675442288	-1.558917280075953	-0.5234231339590928	3.02108477783392	0.6092116817352038	1.7750290587432749	-1.5549682339509747	-0.1991705889441641	3.0909228246851836	4.857605445041633	3.2813808835152365	2.86743020287396	2.059705490634094	4.404246319141578	3.087617389512865	1.6104358394017528	2.2467164936561996	3.1120748441325126
312	0.7960132936407418	2.296703571243007	3.410890570611962	3.294256202009951	2.085634464720241	1.7076746182242417	5.316334711003814	1.2804125515081748	0.4515284884496913	1.1385614843232845	3.195244065800582	1.4451061450712452	-2.0087051340886632	1.1357204885418832	0.8972095228431011	-0.9118161774502354	0.6737468821681238	-2.059046978520278	-0.7138119321920914	2.9904732628660406	0.8741536714418083	1.9301049660589602	-1.4556925260030744	-0.4829976248467561	3.0185220165336277	5.014944540713726	3.4583928497736465	2.9620938226300746	1.943620796064814	4.363440502594211	3.0141663475230183	1.478089567267328	2.1990933362752156	3.0252582950505555
316	0.6548686607039459	1.905959601358569	3.0729343813559664	3.614289513045817	1.887234563831077	1.346780058321509	4.870708930115972	0.8694848992329843	0.5229080902248889	1.1095379562975018	3.012885086082161	1.2666248051135423	-2.2774648608881374	0.9816654895793332	0.9201434231414913	-0.8996725059682914	0.48056867597364666	-2.796610825153592	-1.0529682609676094	2.9270329401502355	0.9617856120622338	1.7750289395339856	-1.6061066348533568	-0.8219374397506741	2.8998055384855794	5.032250868489856	3.3160865223131113	2.807518475119949	1.8196599437547993	4.261708248822741	2.870722525024461	1.347384687836584	2.1384355967890794	2.876185409913623
320	0.2246241265824605	1.2253389327583675	2.591795437944871	3.726330032477297	1.4751238785693714	0.4853475081587706	3.981981267412284	0.18587224138538536	0.5441383109659655	1.014992115319166	2.486742490212057	0.7471706848353771	-2.713424675766449	0.8071421364433021	0.9169042683339955	-1.0931569310245288	0.01602499741740267	-3.4831678779398554	-1.4975248537401704	2.8354265618262215	0.8478762486031842	1.3596634830478926	-1.9435385416552318	-1.1795660227558298	2.7332916190756644	4.8590550299989115	2.8576486038538564	2.4064838825503108	1.6216977793757605	4.032601346325008	2.573819630800314	1.1558120221520456	1.9788203189480507	2.5936973029455626
324	-0.30209502501510016	0.4874888348192426	2.079617018217489	3.5865604786919976	0.9545356607179283	-0.5854485020161473	2.9562442228065864	-0.5626169428925781	0.4972457575164715	0.8490412809870226	1.8284172965616685	0.049982786052394465	-3.201647273563346	0.5944636449110193	0.8574217536259287	-1.406220432545826	-0.5614697322974825	-3.865907659306904	-1.9806574533046795	2.7276184490002664	0.587869463866877	0.8409291484582179	-2.3457529485605755	-1.5275617799338657	2.5325291092828586	4.513349521685942	2.220391744729743	1.8732871961981388	1.3086558547358176	3.656661739653925	2.111688370141522	0.8595644213909046	1.6699527459897683	2.16781544138043
328	-0.7157093268444359	-0.076902359529885	1.6180252988018418	3.213202706807487	0.45975726726802696	-1.4825640879393196	2.131746286732116	-1.1688154906327037	0.34743028791447933	0.6112254842585008	1.3023486104508994	-0.5957240447262575	-3.643693676332174	0.31188821713858333	0.7334513049681293	-1.697323675638681	-1.0663335296411407	-3.845652570551891	-2.435421222259966	2.613721125679431	0.292760431027361	0.41694942011467756	-2.6877934864848476	-1.849298114875954	2.318836444722283	4.083598603428919	1.619593020164766	1.3871548140789476	0.8921142794019858	3.179713718015696	1.5638493260000852	0.46187683823321085	1.2305091588424206	1.6662238794220343
332	-0.879946110411101	-0.32282638468298863	1.2412958113801895	2.7071072986919447	0.1116263267559819	-1.8946459245530267	1.7365983680749222	-1.4987989626236722	0.08496347048289081	0.32047280588300736	1.1087820501943688	-0.9796868537963649	-3.9657425780306754	-0.04605171072777053	0.5673518166522912	-1.8337956620647522	-1.3468087877602182	-3.4985062987690494	-2.809184305727926	2.499566310293816	0.08235886672207178	0.24565657911267166	-2.886036865577227	-2.133497232772617	2.1160967296579796	3.700159063533973	1.2553726403012528	1.1134362192652598	0.43909868487122555	2.7003467014800093	1.0701640817326048	0.01921427617586339	0.7458121757750863	1.2082189291013348
336	-0.7805552462897855	-0.22741776647370743	0.9588289832702601	2.240521663731044	-0.021040566212460716	-1.7131208138129084	1.807615990843313	-1.518421526889926	-0.23539642930203583	0.022215742561756176	1.298663374483031	-0.9863089298141916	-4.111827363123273	-0.42754706632434075	0.4080760766693682	-1.7520736411681752	-1.3283249106248787	-3.007628910100559	-3.0639147681127477	2.39280866972473	0.03766420101550846	0.3840619017917963	-2.9150774405313724	-2.36180638670669	1.950351710163726	3.486129751940556	1.2275432317258856	1.1300988168794408	0.04785868513421909	2.3312725961954013	0.7644667606126315	-0.378284960030106	0.33166831648058065	0.9091324783259991
340	-0.5105263577923131	0.12683109907076584	0.7901976088600453	2.003990168280255	0.05912337809775045	-1.068526861354048	2.202013487024679	-1.276727196331017	-0.49215957398133925	-0.2193935656968856	1.761245961510923	-0.6314234717639633	-4.040962209035833	-0.7279419284561601	0.31385925332936193	-1.4837772808760148	-1.0270818445977246	-2.5551228458743744	-3.1693859020322495	2.310505861170928	0.17267104939734523	0.7739942054280546	-2.800881855568834	-2.501775258423615	1.8500699950238464	3.5082242400286936	1.4993491134935601	1.3947660887789692	-0.19334082256617502	2.152015203764682	0.7085058075182932	-0.6440324171018492	0.08299707600381236	0.8254522660395601
344	-0.20831109530784342	0.6031157359154811	0.7797489742619444	2.1280929988537665	0.28499561476278557	-0.25872829491142535	2.686684124839089	-0.8701847769701699	-0.5456213341288778	-0.3438431015870188	2.2861432971455233	-0.04678281012286872	-3.7396712208744	-0.8343593457137272	0.32719117320422564	-1.136848089208897	-0.5353243933513472	-2.2364015522759924	-3.1028656881193863	2.2775514068321328	0.43491691241130925	1.2756695715167927	-2.5989949637598238	-2.516065114344568	1.8398784352580129	3.748301973416086	1.924862260727043	1.7697054103039571	-0.2452238046892114	2.1758155767819845	0.8625535347141989	-0.7325193863494188	0.033448196863126035	0.930135247743187
348	0.013780223170893896	1.065670368365044	0.9737946962566147	2.6161241465321283	0.5557099566734442	0.38960748812537493	3.0507962626679634	-0.4102489341868467	-0.31259405534023144	-0.32143899717237706	2.66206168456312	0.5747313484940112	-3.2480881132135506	-0.6869418603719618	0.45184060817126964	-0.8460412004091173	0.009530197804946666	-2.046093935568973	-2.8613569664238394	2.311464065437918	0.7290425878238036	1.7279466346983283	-2.374207490648769	-2.386561387712305	1.9252203654319493	4.107427109838484	2.32136511216585	2.0891599602405146	-0.13704626227587102	2.3447101056982182	1.1069593401617392	-0.660965977430495	0.1439275886954938	1.1288592786898213
352	0.11580604285565863	1.4178144895996838	1.3726249898587348	3.3305785571886317	0.779019830644248	0.6573083980177324	3.1848235049900993	-0.0022646160739108615	0.1786614204902761	-0.17127492980629613	2.761579744996065	1.0491827699874816	-2.675339930455499	-0.31935888448193483	0.643107770249783	-0.7187631708117928	0.46295317890584736	-1.9272342871645356	-2.4798808035228386	2.401588672296557	0.9504332518423301	2.0069782683245907	-2.187246793946727	-2.1394646113738838	2.075793976311248	4.441779125443301	2.5479161675020667	2.233657116018883	0.04221980635593156	2.554148667562625	1.3008502688943187	-0.5054630624407169	0.32292994775302436	1.3060818877623357
356	0.13267961110948945	1.6169018704599516	1.892904753674244	4.049581994322907	0.9088991857469372	0.5069013821201604	3.099381439013193	0.26726260713810823	0.79076099196104	0.04312017176589361	2.576344960383782	1.262427684457635	-2.18167185232567	0.1494015153450722	0.8205884078288788	-0.799816010363166	0.711262522332195	-1.835362310544073	-2.041028732868748	2.4993560251075793	1.0172886822765637	2.061646217863081	-2.0864384121669417	-1.8530644131605123	2.222069019429488	4.616671073701692	2.553138488045522	2.174199575656914	0.17751012697702379	2.694437735430475	1.3452700342545816	-0.3730271449207763	0.46556150795695544	1.3746161426170744
360	0.13884559238664645	1.6665648179892887	2.3736016690408013	4.567614066989612	0.9589219069112304	0.0659383012179708	2.883618824354084	0.3372470131942485	1.3392643894714658	0.23778136014508977	2.1930141393606326	1.1953867643693288	-1.9292705010342115	0.5682559595066063	0.8981546736929182	-1.0689889165591802	0.6964522582590221	-1.7822977259459927	-1.6615759092341844	2.5291619236987084	0.8899764992178691	1.9121169995668998	-2.1029968208623186	-1.6383762318254118	2.2722365798802193	4.55466030878257	2.371646398278526	1.964696521567023	0.1704402859676136	2.6889071396650195	1.2176187007679713	-0.3625303199674962	0.49126130218451963	1.303194996404573
364	0.20222781547510346	1.5988047082589383	2.6303872995722895	4.790413367574558	0.9852061842839863	-0.46087998035418165	2.6364827089502105	0.1804653252575265	1.6807166295532903	0.34066894564448646	1.7320170358797629	0.9089772082267512	-2.020678991938071	0.8236696103281185	0.8179507830949375	-1.4669970236933443	0.423021971111385	-1.8277621223079517	-1.456354733604857	2.4183299480416425	0.5732248411011167	1.6188421208517814	-2.2466003838084703	-1.5981597860040968	2.1457693522637276	4.256208409053912	2.0782618470172975	1.6930224852732587	-0.02913789071236644	2.5109832223438486	0.9612741446067075	-0.5329251871959056	0.36308887509227616	1.1102675171477108
368	0.34982472569835094	1.455388899943355	2.528744691186334	4.773085582126363	1.0460659239107564	-0.901495990861301	2.410726302736133	-0.18873761546643836	1.7758386090265703	0.3162827185751659	1.2848288980470124	0.5011702167255421	-2.454990619183214	0.8878508187766112	0.5743435606760816	-1.9304567526715364	-0.051782607901488045	-2.0329344221286867	-1.4941970072214728	2.1331911033178237	0.10598067912523915	1.243844386775061	-2.5025243695972605	-1.7821459725207776	1.8100101902086059	3.787224760030462	1.7332378582109702	1.4245736563001479	-0.41277745261880205	2.1775450651504205	0.6437312944372042	-0.8887929297895524	0.08617878683505086	0.8352951982389828
372	0.5579606280544807	1.2700356212975576	2.0424525686195483	4.684313285444975	1.15855240529332	-1.194011208380675	2.194617265882464	-0.7173637133606446	1.6959630208111836	0.17112334029385384	0.880139825506132	0.057354606543216155	-3.1277911584086286	0.8198584297461575	0.21649862771209866	-2.4162197052033427	-0.6419016702657981	-2.415422910313997	-1.766274805377926	1.700626965043793	-0.45460632328650974	0.8225062468743296	-2.834404699798772	-2.162236923480696	1.3003241983008593	3.2418370165038692	1.350011226106625	1.1704663008702352	-0.9264525747750373	1.7274124578732	0.3109673849837732	-1.387387868239431	-0.30824497264285305	0.5079371320298074
376	0.7669002990433771	1.059586045451023	1.269804355276413	4.709993827372324	1.277620908372523	-1.3952451909124641	1.937756891126616	-1.3273483481273443	1.570639367906465	-0.05810059592359971	0.49185389156138043	-0.3791006793941201	-3.8731379411184834	0.7210096102630608	-0.1704969997869742	-2.904443733511711	-1.259434219995283	-2.9269490168106036	-2.1855354253902566	1.2031539648196892	-1.0475958559289882	0.3598939767334144	-3.190556994965858	-2.6428854398758177	0.7121942025323268	2.701802485320328	0.9035691596106444	0.8994288421810648	-1.4963844976792067	1.2014869421188197	-0.032234802760755146	-1.9593961189391087	-0.7791112045644579	0.13667742873493213
380	0.9060146785749595	0.8266677835573957	0.3954567303209952	4.950536238569213	1.31078004506096	-1.6262403685519136	1.5978728492448726	-1.9361135910743075	1.5120176038714264	-0.3255585721856272	0.075289636660269	-0.8053570369414309	-4.526339519516916	0.6755740029444556	-0.49796941750686247	-3.3842990312961647	-1.8349155141279647	-3.4679183872404415	-2.6211478643996937	0.7476572375494502	-1.617496247976151	-0.15128298065614076	-3.5144460112532196	-3.102819673333736	0.16644962089952592	2.212193721908034	0.36884975340223997	0.5797716364527823	-2.0538141675593686	0.6356931908770236	-0.4070851792548015	-2.5321044857945507	-1.2836601701752073	-0.27872630883417127
384	0.9170992351265637	0.5716392979494497	-0.37777575755107545	5.369386659417235	1.1648571461831638	-1.9906806895540925	1.1782865494543115	-2.47406148285882	1.5608016213111247	-0.5941633567113991	-0.39403843780214565	-1.2347761361418284	-4.979558455292814	0.7104233485405209	-0.7062947136212878	-3.8372359178936977	-2.3267228544618934	-3.9305505653326613	-2.952206842598274	0.42138171089595233	-2.12017416418748	-0.7054851037333477	-3.7587335014811796	-3.447199812768825	-0.23819871186675334	1.7804069474092015	-0.2392444306532138	0.22060953024955593	-2.550285094498039	0.06549471600209168	-0.8262280800939978	-3.047313444073241	-1.779031510629837	-0.7247136216939861
388	0.7736560086744529	0.3101168863096205	-0.8946827627481622	5.814343914610964	0.8027284721134726	-2.5086736615739227	0.73832559399162	-2.892650596944806	1.6797211127787652	-0.8418619611465976	-0.8986757971008738	-1.6655659633546647	-5.204489694806704	0.7931609133722171	-0.7836247662786787	-4.231571186826075	-2.7190027168290256	-4.242008675355631	-3.1142885606338813	0.25759223038487467	-2.5275814469418347	-1.2684781519335089	-3.8972067734551765	-3.6431698707152105	-0.4624178695924711	1.39337396269911	-0.8526381232669124	-0.11781354218778652	-2.9608111306777465	-0.46801525236222885	-1.2668579784833147	-3.469786873640143	-2.223413461793647	-1.16143655483743
392	0.4934670018611865	0.08235336819360514	-1.0901098223820147	6.1046113813768885	0.2785928540348561	-3.101546994961705	0.3710239818265449	-3.1677288929116774	1.7922654106666152	-1.0579026910775267	-1.384728428205557	-2.0634331651089357	-5.239756570938367	0.8646931030376545	-0.7648898939848238	-4.532009113313636	-3.0124638004539523	-4.388655651456331	-3.1184699456636076	0.22599001171752364	-2.8313527035753987	-1.7809748604631874	-3.9335536857474427	-3.7231743241722763	-0.5379233942755715	1.0381422016636108	-1.374976273879898	-0.3561344137736986	-3.281508675873312	-0.9220977998340972	-1.6733332830143144	-3.790057649580194	-2.5840911799992345	-1.5340323409450558
396	0.1408302333375607	-0.056826915448481015	-0.9970944498637125	6.1323790395404245	-0.27070581844647734	-3.633622398739193	0.15798500140357066	-3.2999608433377112	1.8371480656970351	-1.234905835848532	-1.7885271265650304	-2.371762746544834	-5.159959780063174	0.8806824065861525	-0.7126373034604684	-4.71776818038004	-3.216362229809764	-4.417482841782719	-3.0359172744395377	0.25115024980078204	-3.043841831151708	-2.179817194203522	-3.9054031273468364	-3.7576851749915168	-0.5491285310232517	0.7128708940627534	-1.729694600506598	-0.44866645222873736	-3.5262014776847215	-1.2679932085448407	-1.9882086465229192	-4.0234651463969024	-2.850236408666882	-1.8020675136844697
400	-0.18521749926534195	-0.0643868817253515	-0.7250189762883995	5.923268303221454	-0.6775506717741513	-3.982801188903744	0.12727029589468444	-3.313017359952086	1.8053485109524923	-1.3631474937355075	-2.065061087162931	-2.539545768048102	-5.040256487518716	0.8377695658512964	-0.687923846892157	-4.795083987527366	-3.341811648514641	-4.409849632573476	-2.957198373957742	0.25045999821370335	-3.192821256205869	-2.4223682819242693	-3.87545846914302	-3.8132142924355477	-0.5923712834661067	0.4251541484589071	-1.9005470227894707	-0.4203045357582911	-3.722400417466466	-1.5080999097895207	-2.189985031320795	-4.204836834781757	-3.040824405622217	-1.967053050796913
404	-0.37943774365947397	0.06119398384737497	-0.421695201524357	5.6279606677060485	-0.8137897232490283	-4.1012792483732925	0.23423369169701552	-3.250549308199402	1.7419490770228998	-1.428356047838755	-2.2025191728296765	-2.5509111816851786	-4.934995638785451	0.7708517293541405	-0.7216408234496385	-4.7930731652363	-3.3982870492967368	-4.443871486888213	-2.946177236748019	0.17471608475442568	-3.3078009998730926	-2.4998791154688074	-3.910581340453269	-3.9165327450097767	-0.729777632301318	0.18422268284539117	-1.938174958104015	-0.36098050980028173	-3.9030744930906303	-1.6799819427036438	-2.310729736216139	-4.376078594603319	-3.198312512905872	-2.0773768372539068
408	-0.36972585227125915	0.26301211052293944	-0.23284551442486268	5.444932447037779	-0.6477352364398821	-4.037209500610248	0.37134906555832914	-3.1696584144674746	1.715502853830698	-1.4151333534751664	-2.219828600047327	-2.44026874879802	-4.875282275288752	0.7266986351739293	-0.7985922674043722	-4.745998370585865	-3.395227900516008	-4.558710086756965	-3.010927669552679	0.03268007925842548	-3.403729668606726	-2.43627070765516	-4.0553345577849464	-4.042268266008853	-0.9580407714497403	-0.004412062455005175	-1.9293696831628675	-0.3771062185780039	-4.0921416179337164	-1.838417286999678	-2.418760055157256	-4.567036617192485	-3.3660414133918213	-2.202687496346097
412	-0.154478400555643	0.43422207126659446	-0.2650462382300535	5.516458020587663	-0.26299324565291565	-3.9102187057953715	0.4021727134564285	-3.1331534306576634	1.7775560572567923	-1.3169759478697185	-2.15513801030587	-2.285728687237513	-4.879026400645509	0.7336882930351578	-0.865293679436895	-4.676814544314005	-3.349026194700039	-4.735931861364454	-3.107240669034854	-0.11452925176314857	-3.4738533409150323	-2.278847211806278	-4.3108925710557395	-4.131542672216563	-1.2093244760498376	-0.14025419915074447	-1.9507795523028435	-0.5292674885738538	-4.291864384305685	-2.0247993418117014	-2.577720635581725	-4.780256736130474	-3.5626277833636277	-2.393359893478221
416	0.18179281010029005	0.4558497655803522	-0.5591411576459214	5.853386387351747	0.17091016428235287	-3.85617541293255	0.2055990243727657	-3.2019610324126515	1.9371944616999355	-1.1473407716393758	-2.053623909533726	-2.1853334848542674	-4.964839922767719	0.7864337543659166	-0.8586569406764905	-4.5940394285561945	-3.2921738541453354	-4.908226000791514	-3.167527906050002	-0.1857548947412801	-3.497005215398816	-2.087939733955754	-4.632104385125129	-4.127332676957416	-1.383291121805072	-0.22555831017766662	-2.0349914976239813	-0.7960457781720623	-4.4780859834143785	-2.2412581387200294	-2.8076050210639445	-4.986738669202908	-3.7681307697527417	-2.649216168390718
420	0.49258556837647344	0.24764349994124282	-1.0785021754691824	6.325223906759837	0.46350663783351187	-3.9694325823701138	-0.28241813111527087	-3.423141470849586	2.1590444987145863	-0.9467256641327272	-1.959750766574627	-2.2260248604839536	-5.159310327855342	0.8527366497444774	-0.7430924754454966	-4.502935875014236	-3.277169934581776	-4.995623575949274	-3.137934915249473	-0.1232946288453005	-3.456302872514519	-1.9292399834561635	-4.948315607929067	-4.006588448899229	-1.3959568703692855	-0.2632630460768103	-2.167531246434858	-1.0881217690651956	-4.607958305169002	-2.4461302695504332	-3.0723252218879	-5.136608587647765	-3.93185066184122	-2.9172158167619355
424	0.6292911752071519	-0.19250652145419908	-1.7204492048695401	6.720925790984174	0.476248561133556	-4.267234791472362	-1.040838000530706	-3.822707881812824	2.379745238971579	-0.7799363712646451	-1.9121516894700716	-2.4567010340653703	-5.492313371143007	0.8947151280701935	-0.5384914861434914	-4.421704281133633	-3.3680813227494637	-4.9574470394856025	-3.0077514572499076	0.07154028844652581	-3.3600234900519124	-1.866788144166818	-5.200110422356823	-3.7958803081043118	-1.2250711886947123	-0.2602667205915164	-2.31293200862574	-1.3044235673395816	-4.64328001757372	-2.5784103805293244	-3.3037490761314916	-5.186011778135827	-4.002478112605896	-3.1228358666730927
428	0.5100716935631144	-0.7809630016636645	-2.3487169683284828	6.848010999556138	0.1717506642773698	-4.690762507993389	-1.960372562227354	-4.398364532809992	2.531212085055227	-0.7224013191104076	-1.9391329239524266	-2.8752903865699353	-5.981338485875135	0.8887063242409124	-0.3245242527874513	-4.3899636157779796	-3.6188404468722175	-4.831245887002716	-2.817229502240817	0.32766741431477864	-3.252549640073014	-1.9524292896567716	-5.373210893416369	-3.5653400331126397	-0.9317185259183582	-0.23558160603172423	-2.450569623482096	-1.3963353598626536	-4.580175865053599	-2.600422852626458	-3.449062815541221	-5.129200922413782	-3.965880383969048	-3.218703023413473
432	0.1635159398957328	-1.3769106830165547	-2.838316910253372	6.626380903680153	-0.3769260337373028	-5.1369643081668865	-2.868578426748014	-5.112294184175218	2.5629734928272097	-0.8356671312214421	-2.0520398564981743	-3.4302554043948574	-6.612665636533384	0.8321742394417782	-0.21338221376904673	-4.456772793007985	-4.04487799576911	-4.737385737856146	-2.6413588457176846	0.5268072472623163	-3.203964940564941	-2.2101459447373006	-5.511139855775651	-3.4045779619090277	-0.6448095424584687	-0.22487597110716187	-2.594794743662396	-1.4009722435866034	-4.467291820691387	-2.532850497526676	-3.511235466675144	-5.016892420500068	-3.8675026795970666	-3.2208545126658534
436	-0.27852308679832266	-1.831588502074292	-3.1165935914508154	6.13122461678333	-1.0143276427408878	-5.4995679716495935	-3.576558819323939	-5.883145317482912	2.4588084158807284	-1.135470864290194	-2.233923191152489	-4.029886712390211	-7.324161511049286	0.7404804211040995	-0.29540854617875617	-4.647989261336244	-4.5971703413290514	-4.836318480678874	-2.554494136082871	0.5571457729578135	-3.2760059750815413	-2.6162028246630333	-5.693552002837077	-3.387253514320932	-0.5071308600019663	-0.26993220976389076	-2.7818522383073088	-1.4178148472275516	-4.393775928848188	-2.45452093458357	-3.552396526904474	-4.942537295260551	-3.799084415380768	-3.205641738427529
440	-0.639344452197456	-2.035555357562133	-3.1797866741007166	5.565920338883193	-1.554046388517206	-5.701133236796208	-3.936107387141752	-6.584587080543485	2.245609277777647	-1.5662524660620722	-2.433074706610373	-4.560328948904977	-8.002803782285097	0.639683543020727	-0.5833280667836164	-4.934100615441763	-5.1581702102129565	-5.24605177508507	-2.59288572610435	0.37436056042568006	-3.483139267710435	-3.0894277017794125	-5.986959919118998	-3.5383770376515398	-0.6060816630320163	-0.3963362862594026	-3.034217588393414	-1.5424894055523048	-4.448848236295814	-2.4635426935939955	-3.656862011259865	-4.999535547985296	-3.8543755910834565	-3.2675080216880796
444	-0.778014598312649	-1.9461897562481474	-3.0762977522428603	5.179640280044003	-1.8353526545916439	-5.70661829461317	-3.8891906640088623	-7.064917546554888	1.995591397015449	-1.999738211351293	-2.5698013240782815	-4.9109954709993655	-8.507785775639046	0.5627040848830197	-0.9845282410560227	-5.2216734754334855	-5.572661862608848	-5.960612282009006	-2.7318189075162724	0.0395863129689209	-3.771332016006256	-3.5071914107466333	-6.393028719973656	-3.8175005816398135	-0.9222151017747191	-0.591039775309831	-3.329005232989113	-1.7983925297154768	-4.671251285203295	-2.6192440920503746	-3.8745248219896156	-5.228951440960764	-4.075326909266453	-3.460132113303801
448	-0.6505050642756014	-1.5896396596828348	-2.868041508109233	5.162652002651591	-1.769055838886835	-5.521036134132013	-3.491142979390667	-7.1894674119630855	1.8128230525977445	-2.268753522866919	-2.5592632229085988	-5.004325377227354	-8.713601090365994	0.5472417459976504	-1.3233383860555592	-5.381476388695793	-5.705639824767007	-6.81986377901563	-2.890060179089408	-0.29026997016099865	-4.030885686234125	-3.7484497929347556	-6.827960950778634	-4.126121987415796	-1.3244103159844935	-0.7961121181415299	-3.595791330795767	-2.1107625908012078	-5.017510878292696	-2.9001281188222894	-4.18135165112523	-5.587166295250451	-4.420063007639242	-3.757614603092281
452	-0.3213345400326719	-1.0456896993938838	-2.596534960866865	5.565329537645671	-1.3619157041496892	-5.179150568283765	-2.894925348602271	-6.90084169552871	1.798631782759001	-2.230005020233426	-2.343914502901765	-4.824212538936978	-8.563321091966118	0.6300981028860839	-1.4118651116010936	-5.305194841341999	-5.504639134814281	-7.5584487724206575	-2.96273016181609	-0.42421209705061047	-4.142751683266144	-3.746285190660558	-7.150142174788202	-4.339876163969624	-1.6212310750083474	-0.9276057458345953	-3.7482964897887805	-2.340727800181539	-5.369822965415889	-3.204078904645464	-4.480675209176884	-5.954081520306745	-4.772208678594642	-4.057613362558246
456	0.07880352417600207	-0.42684453618046936	-2.272024387345355	6.273613437072026	-0.7159685474439096	-4.735063540901559	-2.2986049594065414	-6.265658839618965	2.004581923192091	-1.8331288053006887	-1.9215375136498658	-4.429358948014942	-8.104411104721434	0.831952271745195	-1.1411287755765684	-4.96327446638129	-5.0339045397503295	-7.915321330113391	-2.869923107530752	-0.2285309130143998	-4.037697305021859	-3.5237758070670666	-7.222636204603952	-4.357182968582911	-1.6502801138220298	-0.915170071198634	-3.7328164483239576	-2.3611886441697973	-5.585949883662946	-3.3958275232409347	-4.648382651990769	-6.1838893734252665	-4.990932928835873	-4.228471745305581
460	0.4228184510523133	0.14283983373341164	-1.890756363863384	7.0504975140900745	-0.002963020924448441	-4.255062092528485	-1.8748409700742208	-5.478348241325971	2.3948078095054495	-1.1631056040962164	-1.3554769720187285	-3.942590703546892	-7.485817413503693	1.135785815232392	-0.5487472997162308	-4.432263363138224	-4.45950506991759	-7.755036334485357	-2.6004064017445416	0.29453059956575367	-3.7384979630496034	-3.193273297830704	-6.984895688541592	-4.147639264125385	-1.3648614848963412	-0.7450122814442202	-3.567144146496146	-2.1335935538783306	-5.571310029268755	-3.381215563820429	-4.601740825478889	-6.178254588741006	-4.980946051419681	-4.179975022252974
464	0.6434352381673523	0.5508214817445328	-1.4674508534575184	7.62525985699929	0.5828854426926319	-3.810874214087574	-1.7105319456782702	-4.810758578552244	2.8402147221382292	-0.4278177012132601	-0.7599982004051026	-3.514210930534819	-6.911368829443782	1.4731234274864704	0.17649871066354497	-3.8714311025150048	-3.986526956029958	-7.140229207131346	-2.22699474726129	0.9847210024767397	-3.3595635806139867	-2.9127859995734124	-6.496114237596691	-3.7757518196144817	-0.8711961485801653	-0.48005545018110396	-3.342922202253292	-1.7398821071565973	-5.332571493036795	-3.1652576843455287	-4.3502230534393505	-5.941071972152335	-4.742995727008241	-3.9156000515306864
468	0.7528702597683442	0.72296982821084	-1.0582313510879884	7.800042609548729	0.8868224002382531	-3.4664051445227044	-1.7819315150094173	-4.512567508748464	3.1619906345643485	0.11649097472820454	-0.26231193476253073	-3.269135228486339	-6.565021498317492	1.7371801094064612	0.7657070736626312	-3.455865374422972	-3.774758329397874	-6.314415438922135	-1.882346982971835	1.578822966404175	-3.060280553720678	-2.818581097162331	-5.92666958266233	-3.384517899551227	-0.39117517968597687	-0.2428984337872989	-3.1893622794689964	-1.3544414009230155	-4.983283030326135	-2.861438505577686	-4.002163876919433	-5.585209832395282	-4.379863727955579	-3.540563097597803
472	0.8198425153060427	0.6542993767431334	-0.7499833684105817	7.5309433746934715	0.8517069795085821	-3.257985583662805	-1.9748855779377823	-4.7047471881338625	3.212747565741131	0.2757370166969431	0.04437911126733851	-3.2595181382854004	-6.539528353392843	1.8245032979677296	0.9892459486780838	-3.297054044028644	-3.873001565691582	-5.60126923100586	-1.702463741772554	1.8249449683844001	-2.9728038235948557	-2.9671263619850445	-5.498214230960873	-3.1402611653198935	-0.1630407269652996	-0.1656420673718254	-3.2173845686743703	-1.1706973284728013	-4.697251308025835	-2.6454198293652684	-3.723188629286986	-5.286662565235224	-4.05537365843182	-3.221678010435991
476	0.9238058305304685	0.4294839788560716	-0.6145722254495445	6.949453336336153	0.5485792146183885	-3.1769153991598458	-2.139938110670784	-5.3187022074883155	2.9579598828974696	0.01367889900032185	0.13669444586097254	-3.4438629063441444	-6.8022823161999115	1.689383502509619	0.7684305290848322	-3.3908762846212332	-4.203819741125877	-5.267920003942212	-1.7622032121035989	1.6034908254193483	-3.139426223457988	-3.314585677361456	-5.398665891368458	-3.159414998660817	-0.3259555391188291	-0.3288090518756017	-3.471792212303903	-1.3190317120628314	-4.630619037381076	-2.6752753190207255	-3.6667635348249537	-5.206607328620938	-3.925531138999509	-3.118173829789111
480	1.1182240219493997	0.21567293947127103	-0.6539278609931864	6.319020255347277	0.16508436161323134	-3.1612720409687505	-2.1535754149423836	-6.113533004584344	2.5159852441207704	-0.5143522607214964	0.07413226347326493	-3.7015645410542284	-7.215702515504026	1.3854966128654826	0.22318540457166575	-3.6180055050103115	-4.604052532016022	-5.4237046104824875	-2.0352089353675726	0.9938285921754249	-3.4901139648058632	-3.741701831907481	-5.711878285292029	-3.4520573528871763	-0.8467959740240024	-0.7191047650301381	-3.9144019981737257	-1.8163115932383507	-4.851791846423499	-3.0176687164411775	-3.909449329042553	-5.419905648852675	-4.074222554410842	-3.315230361197719
484	1.4204746448892933	0.21616731529495112	-0.7701895813570024	5.9428906290691295	-0.054929293553428835	-3.1070904653303995	-1.959129924596214	-6.7702717610133964	2.125537866947986	-1.0157341931447461	-0.01761321905278756	-3.8785638711279775	-7.601447086215906	1.0611318323047254	-0.37467890883262167	-3.7979257010892598	-4.899712073353293	-5.99510668194633	-2.4010152756152654	0.24717566308558195	-3.872549285648168	-4.109392155762477	-6.38886640843021	-3.912432183878162	-1.529826756429612	-1.2290885417424309	-4.443743694530137	-2.5676610404990905	-5.315587984015954	-3.618121138020884	-4.422424782077859	-5.886656269469897	-4.48488377392456	-3.792553415259928
488	1.8229109002819308	0.5908372983320402	-0.7932893613813837	6.049468978867184	0.09089906490741141	-2.904889576253505	-1.577121730637291	-7.025120240594576	2.044630999171299	-1.1903946369634146	0.006388696825765671	-3.8502263925618276	-7.81853101663706	0.8976228214489302	-0.7289108615591826	-3.7736358547302977	-4.979791151825429	-6.781006319091763	-2.6999287537118994	-0.3287175289437802	-4.122082699858855	-4.317146767206942	-7.268096428640788	-4.365725506250552	-2.1091008133090656	-1.7021872954307837	-4.9383478039991555	-3.411113968820016	-5.893231853864917	-4.329461086786447	-5.0896739831214886	-6.479352457853854	-5.05811833058275	-4.439797867055969
492	2.304027789974515	1.372480985037321	-0.5623571858513028	6.695827944062677	0.6660968644490959	-2.4929606851579056	-1.0897785397671893	-6.782442075771487	2.4232485233160896	-0.8794661142079367	0.2474026673746359	-3.577195396928533	-7.818705539036522	1.0179632876444282	-0.6665787083962437	-3.48736857487444	-4.836755740351842	-7.551302890785867	-2.8105568814843482	-0.5189185725462103	-4.139083375017348	-4.3386063466205345	-8.13431928488274	-4.650973785101902	-2.378389829352809	-2.00257515401686	-5.302793489419351	-4.180139054234981	-6.438078864055472	-4.980456339659443	-5.759286865952363	-7.047172528594318	-5.660517201437328	-5.106153952104538
496	2.8274228501459895	2.4248967109492576	-0.017580952450948893	7.734470824741138	1.5456567963676724	-1.900697941749661	-0.6098285302024269	-6.150506957738064	3.2139899649536927	-0.15720850189571975	0.7108350974255898	-3.1271841447077686	-7.652145843259535	1.4096447193795267	-0.2300997519644107	-3.011589042689437	-4.5576772574749045	-8.137269953210252	-2.710430853676229	-0.3081231705515621	-3.936976422860383	-4.221948612997831	-8.792449928973072	-4.698409545480185	-2.291761869366445	-2.076858992101406	-5.4985999922208855	-4.7572631715828155	-6.85039089380672	-5.449305997441776	-6.304243071851871	-7.481780986969694	-6.179323180809842	-5.660871491444978
500	3.32836841696594	3.47088693696134	0.7428586464246331	8.85663030295654	2.4433412490191446	-1.259666201272163	-0.2523005896397204	-5.389545903903691	4.169700135193954	0.6841199380768404	1.2862883773752978	-2.657427065815666	-7.430720310523903	1.9090608310184025	0.33667364631527924	-2.523705476111166	-4.2802076231656825	-8.468989350871276	-2.4864816602871787	0.11243440927490345	-3.6397349742547664	-4.062826623195718	-9.125225997774008	-4.558795440608068	-1.9812768647716215	-1.9782079408291744	-5.551410661032864	-5.098712908269565	-7.106814366517468	-5.705793843168718	-6.664404852253585	-7.750149230463272	-6.556299193041663	-6.036652072924202
504	3.7046415712283443	4.186840523639449	1.476425047961533	9.69754502709076	3.012796632789538	-0.7724924068020855	-0.11567564279438049	-4.794672953898033	4.936809527330676	1.2559921709774842	1.773393268876189	-2.362061256167106	-7.27096269679151	2.2675728740661887	0.7059397679625464	-2.235328191835587	-4.136664380119892	-8.562242486316986	-2.2879991473605643	0.4442928422200958	-3.4294946107108655	-3.9654397864359807	-9.1202726133871	-4.368937481340098	-1.6825888114409586	-1.8401265097889417	-5.535020337435329	-5.22934626212676	-7.243610840628877	-5.804292664178577	-6.853499395233198	-7.8820700446443634	-6.788632852580808	-6.2389702639417175
508	3.8338944815160256	4.33154534199969	1.8914419364858597	9.970386479954147	2.987942926492424	-0.6402747614907615	-0.26316770844773274	-4.571061122797559	5.205536829203474	1.252056595502191	1.9535109947474243	-2.398347133303276	-7.244622212238872	2.272671455367403	0.6311493500033334	-2.3048155249578777	-4.207965840205985	-8.476946809347279	-2.2465541306042414	0.43690973409969824	-3.4675173671914052	-4.006536950486273	-8.86248586324449	-4.271757591906499	-1.6088787276655718	-1.8119795276670128	-5.539743886312563	-5.216996656597637	-7.31186626495606	-5.83859346823016	-6.93461368717318	-7.928356150637121	-6.9056658570460705	-6.323669894465176
512	3.622565021905538	3.8522372148528934	1.7836444332866477	9.576340651176068	2.301746362596852	-0.9753562187364979	-0.7012785059389451	-4.755457866106416	4.848541724361392	0.5972662553012823	1.6831322865906484	-2.819549791846775	-7.357812862893035	1.8614197922440314	0.07510143499486586	-2.77026628748512	-4.501749981004779	-8.27961061294609	-2.406754010799751	0.016445241826975696	-3.8240287207377115	-4.212857712599641	-8.497951486113095	-4.336970795172028	-1.842056031344739	-1.9884475419385759	-5.637660012316569	-5.14073942793885	-7.338666897365202	-5.888616070185164	-6.981646520153799	-7.922036150958254	-6.941669446585298	-6.360047324335491
516	3.0657195967519897	2.914129488263258	1.1430433959712096	8.645629860984382	1.124959823629171	-1.7412245229628394	-1.3637633289237718	-5.216960416973705	3.9807171721090793	-0.509417234565133	0.9676953529721484	-3.5433971792404275	-7.562613944987046	1.1616283625838328	-0.7674291114504893	-3.5301172644179992	-4.9561967724599505	-8.032911280378029	-2.7071821621255934	-0.6810979825943577	-4.447468269563458	-4.555129039707901	-8.18418214639015	-4.530009735114339	-2.3009376467785816	-2.3671374261219413	-5.856415256973006	-5.065752970303465	-7.32071731626428	-5.989279255050643	-7.048095685330269	-7.869132975737818	-6.923247319861789	-6.40080974870157
520	2.2848739566335916	1.842053647158954	0.18033666863210365	7.492643814243293	-0.19280777822929449	-2.7454721858326314	-2.105920071053302	-5.725963578072628	2.9130752013091326	-1.6795912938627722	-0.017144028054106617	-4.366156090203322	-7.782737235446913	0.4374751139562878	-1.563782807216684	-4.375230301301017	-5.458461747693319	-7.793378810279664	-3.020081274037015	-1.3871036732938593	-5.182450281410199	-4.954952227480183	-8.036526659702396	-4.744698035658728	-2.799450628842101	-2.851783029985609	-6.1679963909824815	-5.0263223521168845	-7.251277905276267	-6.132789119495444	-7.15381811243151	-7.771452884126526	-6.874731523322903	-6.469353659508737
