time	FP1	FPZ	FP2	F7	F3	FZ	F4	F8	FT7	FC3	FCZ	FC4	FT8	T7	C3	CZ	C4	T8	TP7	CP3	CPZ	CP4	TP8	P7	P3	PZ	P4	P8	PO3	POZ	PO4	O1	OZ	O2
-200	-1.8926700305837112	-0.513252555028167	-0.8227789381234886	-0.4873714732739761	0.4637792396757039	0.05037961142456534	0.5102960454454826	-0.6687278730674838	-0.793896017454376	-0.411091565047909	-0.28874099181708063	-0.21674099509830466	-0.4214312423556356	-0.7333288770280697	-0.718040285681782	-0.73060917669848	-0.7263378482600148	-1.4158064091222708	-0.28636121677578674	-1.0645076009577015	-0.6245331152406798	-1.0069484685270353	-2.9806599541749965	0.2541842156191566	-1.0251257393704245	-0.5111740218608074	-1.2882443633933087	-0.968359944759716	-0.83493095425568	-0.48902416105781316	-0.5121539222184408	-0.058484010250729974	0.12090068279974703	-0.04477947939057427
-196	-1.3814250195911555	-0.611481128579297	-0.5447158203677362	-0.6994653326494555	0.5059818016628874	0.36797335650999774	0.6783422810594146	-0.7083498221633098	-1.3856247628514262	-0.214864193850678	0.012004987306385514	0.06590028090528069	-0.30532419604462124	-1.056603429033993	-0.481024442888771	-0.39027526876143004	-0.47727763532300493	-1.1350940437268755	-0.4402661610454935	-0.8944195486374986	-0.44294434674010197	-0.7622123937436285	-2.102053636965774	0.4007751335515861	-0.8994742013156243	-0.5432577715509218	-1.2236614196400442	-0.8083863237952024	-0.6115484818277231	-0.4006942500488301	-0.5315881358076797	0.16933213131590855	0.24875196751733214	0.07197242957063693
-192	-0.24498504338400517	-0.4283853162440231	-0.19207796405934602	-0.6692091209681853	0.46780052662996763	0.5048873411782849	0.8320509174320493	-0.4613600361619906	-1.5913002450820846	-0.044086560495648616	0.312992422982582	0.42582040917652425	0.006767287833294185	-1.1761089533675855	-0.2393402898229318	-0.015717605089201177	-0.04783935087761889	-0.652178226254867	-0.4951268422023785	-0.7310949545521729	-0.21729221885179578	-0.37495642805799523	-0.7278143745166629	0.37509298229883087	-0.8010459522050009	-0.571542321192645	-1.0371742222349025	-0.5403982983296868	-0.47089794159254533	-0.34799209149239135	-0.5169047700229134	0.2504971915119493	0.25189825828850226	0.1166613620554454
-188	0.9717329715990393	-0.03810666864430085	0.08965988434565966	-0.42835435163114044	0.33388256942375116	0.44534423834895676	0.9091934538774503	-0.015334414279488251	-1.3467737402291788	0.05556697384394836	0.5490077720132417	0.7529701571527356	0.4190098334700712	-1.0463809940622435	-0.06749714148884589	0.30190044565272217	0.4383030820747723	-0.09012857801808702	-0.42877688895688637	-0.6370093210349861	-0.015207192822149256	0.04407790664630714	0.6651449782744362	0.2062851483382041	-0.7543612103489916	-0.6031143650086547	-0.7692802528986049	-0.2013565594834601	-0.4208218742713129	-0.3499107352005447	-0.4737309801538893	0.20173871466247267	0.15974548418721182	0.08834359772550504
-184	1.7480977729531155	0.44813102370607183	0.26727089218371114	-0.09143003053231062	0.13833272422197146	0.2513336830946152	0.8869076944847113	0.45732521895339706	-0.7647626976731943	0.07907333950105787	0.6771625859329985	0.9509217715096758	0.7941693643546258	-0.7090408188084463	0.003569936836438369	0.49527653926735393	0.8409260490166973	0.421563475259736	-0.25386464531700015	-0.6183894261006125	0.12180732904913644	0.38250788949713577	1.6512584644589028	-0.006413624140073607	-0.7380396705113543	-0.6270503981971234	-0.472260921001183	0.14763349257388603	-0.4187329102911439	-0.3931975056734552	-0.40285161035870615	0.09081469453294486	0.04330460716281451	0.023749191254021067
-180	1.835165138379654	0.9065006352425864	0.41783383383162187	0.1940230424273905	-0.03319774932228306	0.03435852742461132	0.792724726582852	0.7792423347826327	-0.07822214047233077	0.061558279984741796	0.6902890187955179	0.9755678152249163	1.003760454504628	-0.27484804322468503	-0.010920443544532508	0.5405118451776971	1.0551266643587662	0.7746770958415221	-0.01348758019826935	-0.6330741627922053	0.18263730360649683	0.5628708586786801	2.0148258158359056	-0.15085148773253992	-0.7073128205561258	-0.6278825386407316	-0.20328463562662533	0.42497885119906526	-0.4059483994725153	-0.44520366079460894	-0.309499531202918	-0.0076536792137207035	-0.0274763795784798	-0.02794854149616626
-176	1.3428897823761308	1.2163460223959404	0.6456478221804733	0.3111838988553732	-0.07204585504223424	-0.09262772626140343	0.69015759055412	0.8486946799785288	0.46652650715343263	0.05891885221030067	0.6188436134926543	0.8522667267262546	0.981593844796494	0.12338821558794218	-0.06574165059419208	0.46151566388910625	1.050365445346129	0.9149893499161312	0.23527544677460843	-0.6214872582957026	0.18053996517375803	0.5678345546691083	1.8054622366144366	-0.15687841137378702	-0.624698816152737	-0.5960934743136427	-0.00786637978504853	0.5540953264552003	-0.34327405604478484	-0.47009855390115846	-0.2051086271591143	-0.04854359092973299	-0.018974840593114863	-0.03108614861567262
-172	0.6326269491435847	1.2795299259305692	0.9784489249321503	0.22267576995896166	0.10095822785637207	-0.0644264741105436	0.6437674744564915	0.6793842298521026	0.7134404164421443	0.11748985916515098	0.5179587589538155	0.6600758416676668	0.7519758920757476	0.38352784417595714	-0.11124607892559732	0.31688243070705935	0.8760544635588965	0.8615666606131444	0.4407062817414038	-0.5434896336185128	0.14116302096966268	0.4414073217691596	1.2715231148088166	-0.022587029206350424	-0.4832748162465842	-0.5315723405768542	0.09713023131404631	0.5000216948282649	-0.2302047753482398	-0.4428457606578924	-0.10058715169067915	-0.026851739666617115	0.056439000970681566	0.023064760433019024
-168	0.08934173710439366	1.0502231094547647	1.3171986308220371	-0.017618656113964435	0.4834276425554025	0.10632428500034055	0.680265126895014	0.3815461983584353	0.6460458619972784	0.24666017231654347	0.44192731268886726	0.48906028147245584	0.417648135561293	0.4660434711133924	-0.11746779054547861	0.17267665223393996	0.6302217825236806	0.6947293264014947	0.5685453996609049	-0.40257006781982047	0.08877566434381039	0.26442021064755816	0.7112527471704765	0.19360575031037155	-0.31269526402680453	-0.44263774044815146	0.1290249523243135	0.2940771274294474	-0.10177940104536937	-0.35922902731797896	0.0012853854536222298	0.03583677104008268	0.15676136275290486	0.11862030595394575
-164	-0.09289973205714917	0.5642708525716299	1.4808454476162052	-0.29501354619882697	0.9679844354985792	0.3311226359590397	0.7653839568841196	0.09714839582949576	0.36538156774777303	0.4073042561261203	0.4163475622155776	0.39209645887562167	0.11119452835857736	0.39221304556050796	-0.0877577287723257	0.07273980211727968	0.407648651762763	0.516241072305015	0.6022006854111995	-0.24550284383302287	0.036254119036455965	0.11560440779347315	0.3307313910717218	0.40481987493350974	-0.16597835677679912	-0.34352049144798646	0.12833730844043714	0.03120655558575036	-0.006805045513018916	-0.23851497411113307	0.10690895441004682	0.11454750568556495	0.2399693721434642	0.22865185083834372
-160	0.010348015438716092	-0.05616341144567775	1.3147472109979041	-0.4909260558608269	1.3674638236806644	0.4794760930353499	0.8121362904071335	-0.07280576210713771	0.018612937954758747	0.5225104676405963	0.4213297654481617	0.3572715213815302	-0.0658634824878054	0.21559482758449008	-0.05837482571764802	0.01973461913550336	0.2548544400456413	0.4039554883771594	0.5369335399422858	-0.1393262293397405	-0.018087942107547744	0.03677259748830626	0.1792047615295156	0.5323294387728796	-0.09397398656722382	-0.2519593828515651	0.13437318767953915	-0.1657766397582273	0.019941702434736575	-0.11697706550628179	0.2234229886851406	0.19752876410680997	0.28842255400317207	0.33007025635354237
-156	0.1466957327000024	-0.6339034422128716	0.7896022180648872	-0.5370992408543429	1.4859127960836358	0.4316674758026157	0.7196284514378125	-0.10974259646841761	-0.27842926908768306	0.5091420995255445	0.39715921778541635	0.31745260873754116	-0.0828578991586132	-0.011899815842267444	-0.08198209831281719	-0.022838881181632374	0.15700113733706972	0.38534214995369453	0.3774546673304811	-0.1368700709463598	-0.0851495785351515	0.020428018592876306	0.18077352597372073	0.5315792547156306	-0.11922524094282447	-0.18506291461950727	0.1627153303091311	-0.20051692375579025	-0.022111231405341842	-0.032333783723735375	0.3471983066375992	0.28721862958871597	0.3147307328384227	0.41190460220291497
-152	0.07494968156965086	-1.0064628098826318	0.02348626771600004	-0.4413479853454355	1.207795259287341	0.13164831664702822	0.42653575431899005	-0.069086409930802	-0.4842585909061182	0.31897520938448437	0.27507367660691256	0.19530773113531336	0.019596291656490114	-0.2584289901884414	-0.19938968071664406	-0.10553906831321323	0.0644074751300694	0.439170359456387	0.14418604933574855	-0.24633708534035417	-0.17219175354875524	0.02701557979617496	0.22480843904480186	0.4035874296966006	-0.220276653210487	-0.15084062478605703	0.20003203997176666	-0.04897686454209199	-0.09501967555136197	-0.0029976745060398165	0.460289596349172	0.3892023255535372	0.3486893764275358	0.4757116424947749
-148	-0.2771549813902473	-1.0969204874954346	-0.7797638754231007	-0.27483567526092534	0.5654596672086736	-0.3813718547729074	-0.04663946840312641	-0.03270247942893358	-0.6219161137137789	-0.028243293914416986	0.020560115523881102	-0.04137895990891775	0.16371893841416407	-0.5063667880625197	-0.41092225805485194	-0.25694519216514905	-0.0600138044332213	0.5213295208166431	-0.11617137462372581	-0.41945481194451845	-0.26962631872767573	0.019002787720863362	0.24975046452408853	0.1926460857295883	-0.33422195827024537	-0.13952143455088709	0.21801519338877354	0.2269425237409519	-0.1368140425804124	-0.014715422839026347	0.5374067412159629	0.5003499972108588	0.4145186234975848	0.5289099799153936
-144	-0.77357542319492	-0.9461981034231521	-1.4311661684142407	-0.12895569172725938	-0.2519665354089201	-0.9761483644635629	-0.5891238436130081	-0.05290855453961363	-0.7319215517638311	-0.4379399407773951	-0.33283010041128697	-0.34626281174021134	0.28217151689813535	-0.7329304199787522	-0.6621378643484652	-0.4560833561826372	-0.20366421290475786	0.5960805997104037	-0.3316352359028138	-0.5647376165436875	-0.34565389069072333	-0.010123777177701772	0.2683472030540253	-0.028593361305524766	-0.37843924665271755	-0.12058660357547668	0.19662634978718893	0.5068623410779312	-0.0887750459456224	-0.02376384468337307	0.5597769603901354	0.6046316608422262	0.5119265901038413	0.5761802181955533
-140	-1.1691923111960223	-0.6943460089319119	-1.8281300021745766	-0.06629484875153639	-0.961136934714781	-1.4698523245894557	-1.0362246010367384	-0.12262906848225767	-0.8237881043616327	-0.7682956437740461	-0.6816529614404602	-0.606464026827285	0.34772375138229006	-0.8944053627320779	-0.8555120208121467	-0.6316400750425302	-0.30408078355310114	0.6445730908332417	-0.4235050369537476	-0.5818625077815792	-0.3554544439878177	-0.03232141575997571	0.3230372063110269	-0.18171621813194705	-0.28449153828319274	-0.0524712725149036	0.1384563144526012	0.6659273488397827	0.0762078536612962	0.020097527602237517	0.5250833021258302	0.6799653155325507	0.6122288092414718	0.6139585360284865
-136	-1.272966858510921	-0.5083585368673055	-1.955743307897916	-0.09284993982714565	-1.2983949151636405	-1.6955358939278016	-1.2377406327468925	-0.18774223280236363	-0.8579823949132704	-0.8864171482594484	-0.8914617277526324	-0.6989236456391045	0.3698480715950625	-0.9302828288432783	-0.8889753200021046	-0.6932908875127618	-0.28919222877921347	0.6529092772211914	-0.3397331527238755	-0.405237673690008	-0.26354467802266296	-0.01041767929844402	0.41790628327716345	-0.2083986247284751	-0.031209129761340097	0.09473168826027616	0.06400298311048365	0.6298382266355194	0.3359424463373432	0.14025445247048413	0.4462509740053131	0.7095205765930321	0.6705484373329068	0.6292617305127073
-132	-1.0627297136178298	-0.4882640826295564	-1.8301663352535418	-0.16090321500208363	-1.1334748239509953	-1.568824048849769	-1.1235723467115923	-0.18733569932369945	-0.7645418028602143	-0.7280890327190944	-0.8598031379926274	-0.5592194781489586	0.3687233915556352	-0.7866275290655922	-0.7046797853798207	-0.5796362147001944	-0.1322777714965895	0.5979919418495905	-0.08756992198769321	-0.03791099404657787	-0.0676567552765708	0.06552959962035841	0.48913261170870814	-0.09285786724488077	0.33849894914994993	0.3146226398153954	-0.007780575173820692	0.40709304706789196	0.621691404203543	0.3085906795816775	0.33906623635516747	0.688958166290333	0.646381376541872	0.602782367138094
-128	-0.6818809492061505	-0.6059112533530336	-1.4444100820313157	-0.19816990146671773	-0.5280414806385642	-1.1244326801521083	-0.7349165063422987	-0.09357473975636506	-0.48414131876781874	-0.3316586009235068	-0.5718577489719999	-0.22386795225842668	0.3472798755937684	-0.4446292508343587	-0.32424968399198667	-0.29741832538854096	0.11476232827537367	0.44648271686361474	0.2580196850938022	0.4404399681892197	0.18947739851320033	0.15593250056475097	0.438194124784398	0.1293072846247405	0.7270188909294989	0.5525793419238105	-0.08127974698287964	0.08275705555048846	0.8420014360150199	0.4465685177495523	0.20533469267501542	0.6252896769949037	0.5216743336857981	0.5145091401461492
-124	-0.3241324714583318	-0.7123829108372093	-0.7763655166098118	-0.14811550043380645	0.2885497801171239	-0.5064415918915239	-0.20716755039839235	0.07159204762980197	-0.011973232000639026	0.17069973008450465	-0.11870504140686063	0.1782711441784334	0.28404301333239035	0.0577452442082169	0.1486045863452761	0.07015112769773665	0.3339165738735097	0.17727655127589995	0.5791969880739536	0.8965842105163413	0.42911353598972785	0.18144234969105677	0.2050078953096982	0.38153120779031213	1.0157650683506618	0.7179830056182974	-0.19030260991687095	-0.22356897536098816	0.9177961922361626	0.45677849535057513	0.025360515277133535	0.5283455835354404	0.30747568529700176	0.34958869130563636
-120	-0.09812117343209649	-0.620064376219217	0.14205014669793745	0.0008115055368282452	1.01639306288643	0.08565687366555405	0.2868925027756508	0.2508777969702016	0.5816305265046992	0.6039133652698515	0.3351308396938082	0.48410805937611806	0.15369978508290788	0.6262525900288191	0.5638033733438368	0.3939148177691936	0.3979087759938968	-0.18736685765167713	0.7646245937115983	1.1908683746788933	0.5651198611296671	0.06353417767934763	-0.1728032077956398	0.5766924605114597	1.1103187771420882	0.7191304546319714	-0.38126975201666496	-0.41432765021620654	0.8150000551627816	0.27112442186567803	-0.23323787689926725	0.4032156755280751	0.0379906407529579	0.10389443460698117
-116	0.033155597662662385	-0.2200336599755124	1.1505986423052839	0.20997491425906414	1.412465091953888	0.47495627283344344	0.6069199427540208	0.3848093440353926	1.1656112641469583	0.8233205059245504	0.6225993021504694	0.574688313940592	-0.04247334961300474	1.1355124683321423	0.7876096943997213	0.5558544383320151	0.24130572317711568	-0.5683742747261867	0.7615811209524062	1.232628938423861	0.5407274351773055	-0.2255425894526468	-0.5650496468582988	0.6563637836097169	0.9806901191746913	0.5077669607694033	-0.6811826807943697	-0.4577540147668286	0.5612333402769002	-0.10742899003323794	-0.5918842539148766	0.2512115829801011	-0.24195459423966353	-0.20988772756513904
-112	0.19750156948769987	0.42976412068580866	1.954638953042306	0.4079836894701996	1.3883259261365377	0.5760501608609818	0.6952375156015665	0.44103956111182396	1.5861778219230203	0.7755382041424181	0.6490250213449203	0.4324432004500865	-0.2603910260778816	1.465308066483253	0.7621572594473505	0.504332421936827	-0.09566327905344109	-0.8536601641082956	0.5997251257059935	1.0202999089230138	0.3563706269803471	-0.6332575662837162	-0.8199434259693926	0.6182921513205847	0.6781645400091432	0.1118312847771052	-1.0685105296814206	-0.39830204743913195	0.23845149516460756	-0.5924433454814583	-1.0339404318454228	0.07881763557561702	-0.4888043391284365	-0.5579872117259833
-108	0.48002770421903107	1.0941750975640114	2.224975341901398	0.5206898437705285	1.0312792036722103	0.42311862004264433	0.5865614995452282	0.42231213939854706	1.7147558884242586	0.5165028559042076	0.43219536433773614	0.14653916619973395	-0.42703911554284735	1.5349302253116854	0.5308070169398704	0.2784156792287086	-0.47900754092395353	-0.9553026532849616	0.3713304093045615	0.6459868533990998	0.07310470920225391	-1.0391712162484152	-0.8626272656595999	0.5156133161878256	0.318494736344163	-0.3640607288228852	-1.467966076005656	-0.32895323551094935	-0.04690665367323812	-1.0421349975977439	-1.4925442896353134	-0.09309871471264884	-0.6674302799539996	-0.8867287017369028
-104	0.8138232210593076	1.4507309161752082	1.7677015021516678	0.5011704551441206	0.5451180921143097	0.14535933696286746	0.37929257654749	0.3524085870428405	1.4932601414172584	0.18000306143613806	0.0883140934264157	-0.13536894287264278	-0.4822290527566403	1.3274916376930226	0.21696996634063123	-0.010973592261086476	-0.7451007943414881	-0.8645244814980106	0.18129107310299877	0.26039943033277374	-0.21084064191991855	-1.3059792485642916	-0.7505900840882186	0.42692929398512597	0.03692522263144891	-0.7734994868776679	-1.7750234559066802	-0.33962726507269936	-0.20408561774225592	-1.315646645085294	-1.863368506495398	-0.22782044055163211	-0.7530454974235414	-1.1314258546873697
-100	0.9829756592728331	1.2473516432740797	0.6657673699736095	0.347859381751134	0.14439615570805134	-0.09728215610261462	0.18617793870650534	0.25598287517768	0.963041720343059	-0.08689691849465285	-0.22664438130853815	-0.2812055938296665	-0.4198838461765285	0.8980922080253513	-0.03324378273438493	-0.2321941399672406	-0.781863270216079	-0.6588383300359645	0.09459126716812047	0.012063696950018472	-0.3979816724742731	-1.34129607338815	-0.6333210452302417	0.41069030658029415	-0.06618849171378383	-0.9825490092266081	-1.896091575603759	-0.4646416592787816	-0.19134531866877788	-1.3281874623143737	-2.0368273206784284	-0.28381109166015484	-0.7305059414539896	-1.2314006059074307
-96	0.7588109950934637	0.44989669209379535	-0.703477142465224	0.1047810536957766	-0.04420000676082125	-0.1868642563870388	0.08834963269577331	0.14796838126971104	0.2654412978146274	-0.18932472121599364	-0.38842055103463696	-0.23435166418988937	-0.29638668819937314	0.3632688811190434	-0.11662166536212522	-0.2897686354950586	-0.581458924732824	-0.4519387472186445	0.11028303923181218	-0.013376334648334973	-0.4265770007330705	-1.1353642911856048	-0.6396489723268446	0.46888226152294266	0.03416711455897902	-0.9191611385980729	-1.7818987324548736	-0.6547518952051257	-0.029310669675972876	-1.079283115523058	-1.9356398533588288	-0.23605547785765338	-0.5963406547749022	-1.1484705180735963
-92	0.0812996102307009	-0.6988875848291064	-1.8099158956608092	-0.15343292018776103	-0.025495773116948596	-0.09512432640616214	0.1120771315844412	0.03704421585386195	-0.39433815975764197	-0.11988234489691113	-0.3530113688139322	-0.03097253284979183	-0.19962412068511498	-0.12946093049742236	-0.015102560593800529	-0.16026405949660963	-0.23721165895176494	-0.3212204567428598	0.17149226324175967	0.17224594907188043	-0.28931552098662006	-0.7568252067531405	-0.773301957085381	0.5421935902257888	0.2772395901832923	-0.5982123002207688	-1.440017100513171	-0.7930982688907163	0.20888522214603164	-0.6447205527240437	-1.5441083869096066	-0.09583441888932034	-0.3651967039424689	-0.8835486151322303
-88	-0.842289982099649	-1.752529735908845	-2.2109689656702813	-0.3456466189240791	0.09372108406008035	0.11640327394421958	0.2329720997888848	-0.0628493873678327	-0.8117575624951869	0.05281744884030446	-0.16014385182956237	0.23022371472406936	-0.19540567646759321	-0.44429877288223596	0.206168293432417	0.10828743847686753	0.11189507664801501	-0.258317738119249	0.2025760407101633	0.4689527142128893	-0.028708554731842972	-0.31076550405242864	-0.8913280345347387	0.5411409125970684	0.5429323301912699	-0.110947310644415	-0.9230156517566761	-0.7507320027470704	0.42689010393128507	-0.1391067352359093	-0.917222974368805	0.0843960417166423	-0.0757198778863327	-0.4834149765684197
-84	-1.5982253511131843	-2.2502245846202427	-1.7659876302001234	-0.4087963391950155	0.18337325705484167	0.34146916780089814	0.39903738993986937	-0.12526504663789112	-0.8569890239059518	0.23168976546442466	0.10418915722290958	0.4456718552781376	-0.2802528433876597	-0.5009581433999667	0.4407816816168543	0.42889311801390495	0.3566818824345783	-0.1750026042811376	0.15085458717406042	0.738579986614879	0.28621190714100136	0.1158485707695985	-0.7853172401628029	0.3989810933530211	0.7045113426541106	0.4148939539447878	-0.3023481063361775	-0.4540956604936859	0.5421438203475271	0.33101588404051646	-0.16489967662186109	0.22764331044896804	0.21185623055852112	-0.031241547237435465
-80	-1.7781646206784125	-1.9395714949275766	-0.7110541444945863	-0.31749036827991106	0.16913588302348107	0.4887483405648114	0.5533976540898657	-0.12035192518842729	-0.5319270478170169	0.3450693777432092	0.35704186468579047	0.5551332221320537	-0.3767368485952634	-0.3051344148561355	0.5979226812525363	0.7169498187083694	0.46711942435583886	0.025702109495478857	0.010501533720205536	0.8701958038294255	0.5864686355089025	0.48624998208303627	-0.3274834147768216	0.11811382293682621	0.6841379982841617	0.86200594684403	0.3528799703748566	0.06730199588234397	0.5154207931856871	0.699217377327816	0.5789692387268418	0.2654511325809905	0.42967197190521855	0.3764592697652452
-76	-1.2244663207610589	-0.9154511070980405	0.45942446473476384	-0.09315940714203814	0.06948114168983043	0.5256170021138016	0.6503297670157595	-0.03701507290793066	0.020165571892012277	0.3787496676419241	0.5517616258042014	0.557765124820111	-0.37878429794045115	0.050399124495099416	0.6437466724355174	0.9189642048522322	0.49013569827310066	0.3590182652945853	-0.1826207335152911	0.8292433598562824	0.8209819772973369	0.807136593211352	0.41227802530149	-0.2183039778919812	0.486250429117871	1.156530377329065	0.9804509257358115	0.6786466223748694	0.36165532378440257	0.9433320736910084	1.1890994280357154	0.1706421818001193	0.5236626850258402	0.6580022556858109
-72	-0.16072007973147362	0.40107902783220617	1.2404997317465793	0.20151632973337716	-0.026927070624197268	0.48481750365876597	0.6610628349780104	0.09845781301435737	0.5670066461552683	0.3710778048206412	0.6807958466507541	0.49387013787510703	-0.22149582151280592	0.42061489714285294	0.6081897601031098	1.018080947212918	0.5023637401295111	0.7143655401313674	-0.37304076458207314	0.6665713770249548	0.9611894464066955	1.0919043990223811	1.1616176337478004	-0.4794323730285175	0.19373963724336024	1.2770706382933457	1.5157505235549948	1.1890754669685761	0.1386596109942556	1.0682008239479497	1.5734392364830752	-0.02732190482870864	0.4746522593435341	0.7701990584954977
-68	0.8937646724070049	1.4476383887934896	1.3517079319205174	0.4814138102297832	-0.025483965809377434	0.4346759904377354	0.5757083282240579	0.22408147099663422	0.8840086437794452	0.3783469488605159	0.7550686578760446	0.4097447086956424	0.06562101824405187	0.6675563437773813	0.5576323852765313	1.0212938759767787	0.5508004413049803	0.8948796368893582	-0.5063425289721574	0.4847852575460239	0.99644255386545	1.3225316967952059	1.5715860088723979	-0.5496792183349412	-0.07115425151503205	1.2436435191226751	1.8847143602470469	1.4312764370067967	-0.07866121063637954	1.0854617329848755	1.687960024386687	-0.25237274106203883	0.30948576253000964	0.7194906454994398
-64	1.3908175194911478	1.7870193674745989	0.8446933009755697	0.6662632806168887	0.10725354376178453	0.4332741786031246	0.40500396387843374	0.2691558890699737	0.8552697875363912	0.43237125764402423	0.7796660045966266	0.32999148881567053	0.3596907546975658	0.7199622374477119	0.5503928051403906	0.9421531534249724	0.6194568856811999	0.7285531740867885	-0.540859399860505	0.3794021894889552	0.9273593998383606	1.4393042289634572	1.407021638178874	-0.3891526748845646	-0.20404875226955543	1.097270485968672	2.013586277646286	1.3338748182951927	-0.227513014695818	1.0042803262150464	1.5412644108959739	-0.41505119099730825	0.0934989822530468	0.555041013746819
-60	1.0568038198492218	1.3201084103633358	0.039378791948078716	0.7085233908884575	0.3150705091151069	0.4947378920938787	0.18025596394328153	0.19453322838305737	0.5303347097358627	0.5167296515770053	0.7450676541590766	0.25237151916682404	0.5049246536858201	0.6038570984853256	0.601218102844558	0.7922533134485137	0.6419695599560259	0.18901184153519637	-0.4512985337307284	0.38609552285943105	0.7631559352680407	1.3686807121053264	0.691797791164908	-0.06169535204092763	-0.16658291178606835	0.882605550444975	1.8571932268936795	0.9509426927399391	-0.2791949503525346	0.8365922549106652	1.1899428337571578	-0.45385765914769866	-0.09494064724316992	0.3464392712906234
-56	0.06234470739121306	0.33413359438458895	-0.6624222381079706	0.6104541405524099	0.47878745077367607	0.586771605917531	-0.050481896720031956	0.02143092261804464	0.09949058269177308	0.574987529256609	0.639196334655563	0.1631467934304096	0.40087193149445693	0.4236344386372282	0.6732149107148465	0.5847552999991597	0.5498930201952107	-0.5532998428680364	-0.23419521689891015	0.4629545200103514	0.5235742317332169	1.0735559436396294	-0.28176870870976023	0.28615325617069043	-0.0027936662011095745	0.6392528994633121	1.4324860536648145	0.4354760039778908	-0.24579721627166412	0.6088023766405646	0.7257130723750566	-0.36438095477613247	-0.1970565016062857	0.15639623960109386
-52	-1.051873442855139	-0.6478424055909177	-0.9757671927611866	0.42085716022093084	0.48049378273767546	0.6555579288143882	-0.23490749240217773	-0.17301480428405822	-0.20507626183708297	0.5441296086878503	0.4664407658721397	0.056232645965699865	0.06686559302614216	0.29953813477230334	0.6994662863237696	0.34194192203974055	0.32301551022038344	-1.1913785904368823	0.07898306826677344	0.5161053525292041	0.2403048419845743	0.5928803071312034	-1.0880461903758112	0.48895510907701517	0.18408603919758856	0.39980381626277867	0.8344578721912921	-0.02972012378222365	-0.16960340695475765	0.36676862743283917	0.2546787553556094	-0.20053121396933907	-0.19808740863855687	0.019548131103633192
-48	-1.6604465204278316	-1.1401419610801584	-0.8430823066406479	0.21377099996477383	0.2688144736655622	0.6602225286980886	-0.33567780171520867	-0.2931518547286127	-0.22698505165489177	0.3929941048236727	0.2567639344408447	-0.05869744330726089	-0.35656773954012166	0.29952925368025424	0.6215714796585576	0.09729474013321106	0.009824489218524121	-1.4298064672610573	0.41384118690910043	0.4552490699718224	-0.04504035401893632	0.04369559873039272	-1.377520796158935	0.43891563900758246	0.28477200793847524	0.19090484034499983	0.21900595669288983	-0.30940934937560055	-0.09999476347949397	0.16677208202694666	-0.12676407364788514	-0.047545719771745175	-0.13078550961376043	-0.06331531687486557
-44	-1.3920347655436776	-0.9374164915259205	-0.40986502067081776	0.05659781009570404	-0.11081246258653173	0.594410775591237	-0.3489358714353821	-0.27818813849785307	0.03450636184444224	0.14361071550350665	0.054555520277566646	-0.16509222942632185	-0.6749484521991173	0.4005618383307959	0.42330688131269206	-0.1133225929856203	-0.2956127814935634	-1.142712470984252	0.6622803194491188	0.24795556005817648	-0.28863266037547486	-0.4211215962268092	-1.0465829345982327	0.13783499563703122	0.24019882022294775	0.03202650687953284	-0.2465131723617373	-0.36488127616311394	-0.06961410475082744	0.054842196266470696	-0.35443094283264115	0.01853645029454384	-0.05705664292473626	-0.11581359029378425
-40	-0.33352041160301027	-0.20034073242627903	0.09569843089260863	-0.017081156329898213	-0.5388806448682475	0.4828061747282209	-0.3093023888408212	-0.14049267733388873	0.4271230090801569	-0.1366851326352499	-0.10631149980406851	-0.2554475062596591	-0.7391486149246006	0.5022705184653178	0.1428665068118813	-0.266621141952655	-0.5041596876767042	-0.45031604057105384	0.7163303476367827	-0.05781602844899926	-0.4556609678685028	-0.6782264692349084	-0.2749610834332161	-0.3027128867612819	0.07150074076481719	-0.06806630624036909	-0.4446994651057269	-0.2541219883701682	-0.08133140930860829	0.04619727644581541	-0.4094413508568239	-0.034801065833919204	-0.0363568774437893	-0.16673101442680008
-36	1.0126639579001173	0.6542074067764773	0.489802180484102	-0.015719018836865873	-0.8825252033840206	0.3582120230690665	-0.2761236720266249	0.03695680191722924	0.7329449039073961	-0.36760148313218294	-0.22340002599579886	-0.3399111619950478	-0.5244362937084268	0.48948103065886306	-0.141990109919639	-0.3628420224565621	-0.5777023420053395	0.33266472732477514	0.5200809227210406	-0.35506087451935947	-0.5299022184344644	-0.6868831497970063	0.5771610126228561	-0.7135825139149301	-0.1316777017368283	-0.11375856370814856	-0.3520980766466671	-0.08971676207779299	-0.11153092207167915	0.11725743085343618	-0.31747621217681266	-0.18585844291015471	-0.09729717647306009	-0.232355757961141
-32	1.9984555193989648	1.1964194744420997	0.7030662876498245	0.021548386608794025	-1.0613937351132072	0.23622552990876822	-0.3087560526681893	0.1435527946900924	0.7883825878265724	-0.4954863178141113	-0.32771199858895805	-0.44065359123555536	-0.14378072285113805	0.30533257049719104	-0.34945613057599056	-0.4248667944671704	-0.5447722063615514	0.8551700093612891	0.11180464150095787	-0.5330609069717165	-0.5183948265338912	-0.5020214902600749	1.1497575015603372	-0.9478241777331642	-0.25970464879270355	-0.12157553403677077	-0.04421532515448985	0.020407861047122222	-0.12772127953707763	0.21580572371833415	-0.13393893804112442	-0.37538087273236914	-0.2267681652542629	-0.30884522121654817
-28	2.1740481798595668	1.2149354188762476	0.7679490427655523	0.050862721970411334	-1.0834624739948668	0.105699956150217	-0.44119056947898116	0.10243762258654275	0.5703228697682641	-0.5183396922376132	-0.46233880403137617	-0.5742169008062536	0.21300509518250496	-0.00917638463445324	-0.4319161165776685	-0.48417869087999854	-0.47744113086321105	0.9073315239886576	-0.37448835278375586	-0.5362982140352289	-0.4489705849279359	-0.24065425931252665	1.2430109946339156	-0.9496216750011174	-0.24286426542476766	-0.1140363958579064	0.34164321336320286	0.019402468528040798	-0.11007634522541418	0.2847454242669725	0.07847715149377785	-0.5387983904586651	-0.37949266933949577	-0.3763477792774743
-24	1.5154379567985818	0.8050473312079599	0.7506352048041997	0.049274135256578123	-1.0309051249225443	-0.0578573754459175	-0.6678369624442754	-0.08562924691277041	0.1989301885112307	-0.48265099403594	-0.6504181607037383	-0.7347966414019579	0.3774717142588438	-0.33513313447262627	-0.3969827582350043	-0.5613580331934555	-0.4455570865349123	0.5203338848328286	-0.7595481853381846	-0.39347210427124213	-0.3612004807412699	-0.02172813559053129	0.8773022867941189	-0.7769484500342433	-0.08945190138882164	-0.1105265987109107	0.6670772416438864	-0.08414896556351092	-0.0633793397137733	0.2877807609921734	0.2701912515494306	-0.6355467422651803	-0.5017163144795954	-0.41155937210124754
-20	0.41570413007685175	0.2753781967363012	0.6837983114144444	0.025219663913949454	-1.0052857373605792	-0.2653151445842788	-0.9467892026838973	-0.3409097484087711	-0.1410063948647496	-0.45365849022768456	-0.8727561809439329	-0.8913192130473343	0.28563868927364366	-0.5439957366560227	-0.3009101144822794	-0.6523769481400464	-0.47748210905639066	-0.06032726525930367	-0.9021972991099576	-0.20015980252752014	-0.2931632094134138	0.08766452945987409	0.2475664013334205	-0.5660251364722301	0.1190993782851184	-0.11884171485698553	0.8478498437456153	-0.23152212740141712	-0.012284330061355557	0.22510051670462505	0.4166141439886625	-0.6590965373564796	-0.5545740113561829	-0.3993967761446352
-16	-0.5474180565364508	-0.060782361622175964	0.5439473376845874	0.008091035278575224	-1.0643228265593643	-0.4931019532151813	-1.2178679673917927	-0.5469040260812057	-0.31247660438799807	-0.47776785372272246	-1.0721390220276064	-1.0032219861450864	0.0013478680014107508	-0.5750191793229048	-0.22070459965773265	-0.730795560422222	-0.5516691193957436	-0.5128265010283882	-0.7751045207481273	-0.06779506040384232	-0.269988029513582	0.09098050720371076	-0.38872334262933145	-0.45828524116204805	0.2712315910167136	-0.1334804144111862	0.8765827991288517	-0.34767991216616845	0.015123434326612683	0.1299354430732812	0.5162902461368306	-0.6271188243291528	-0.5272111283342946	-0.3393322220818061
-12	-0.9283608770773483	-0.08051284382281332	0.2815652780576554	0.023723544493026057	-1.1874663799822822	-0.6842302066693964	-1.4242212736411255	-0.6138628109692189	-0.30387052816918675	-0.5576660022960997	-1.1832340925860463	-1.0443609926559054	-0.33030214822345555	-0.4731589245771018	-0.21803311948564447	-0.7641029934664858	-0.6196989997476663	-0.6162516459164957	-0.4871273326495925	-0.06727780384720683	-0.29707458540298914	0.04111930345048023	-0.8276074507799074	-0.52652698622329	0.28324764895451565	-0.14064986968292575	0.8071148375160639	-0.3752562394204585	0.004555466107698545	0.049553368115484636	0.5790102467223438	-0.5623655901061949	-0.43592461833566015	-0.24407873986132236
-8	-0.637556908905155	0.08812137670918224	-0.12147002636520411	0.06829436851186513	-1.2909882036039715	-0.7746444921009124	-1.5267325601178439	-0.527987478830534	-0.22598312738106946	-0.6539453847587061	-1.1700407237076134	-1.0185452673945459	-0.5707667455567857	-0.3627472212692862	-0.31306824009054485	-0.7339149098940217	-0.6428978426914141	-0.36626171973262667	-0.2327250385369146	-0.19947394678298253	-0.3598145237421294	-0.002844103139163753	-0.9813066100140466	-0.7391301374847669	0.13813191617423018	-0.12689952520279524	0.7137097698312043	-0.2931042008152351	-0.0384036264344027	0.02169185685105131	0.6134627445944966	-0.4776014077526074	-0.31206002752671463	-0.13223712112895533
-4	0.04549071553785122	0.17503239170228888	-0.6091240033029606	0.09902109925780445	-1.2853186098072507	-0.7308839541102008	-1.5089443883945663	-0.35771235733317597	-0.23443618357596746	-0.7135484796628493	-1.048540589546293	-0.9556886529635524	-0.6613079292767081	-0.3731681993122812	-0.48191466805856625	-0.6485081298667332	-0.6175896509790356	0.03505663937419992	-0.1926137055063958	-0.40810486571272203	-0.43091675530356505	-0.012758300607477357	-0.8734217264058145	-0.9818267797476882	-0.11524286837092022	-0.08799470938877374	0.648739217073944	-0.11717750847557476	-0.09849794929193166	0.05644271881039004	0.620314000470906	-0.37583234811308047	-0.18880073678509612	-0.02234560431858754
0	0.6618376953581342	-0.03210416428089851	-1.0541869375316102	0.05270097018883653	-1.1397105426623635	-0.5743418917460321	-1.3735135759008028	-0.21234823709757739	-0.4240338493608597	-0.7056112867660186	-0.8783059694049576	-0.88820457234246	-0.6409231408149911	-0.5579732642391411	-0.6747971160064146	-0.5386921153772989	-0.5703864083194342	0.29996818228327204	-0.43603056559148096	-0.6224302633783132	-0.4812550532588247	0.001486003860804752	-0.5935795888219427	-1.122451660183355	-0.39756894011256794	-0.03210636220216906	0.6240289195517977	0.11252471031151018	-0.16868378179400118	0.13323998417593047	0.5953384026755344	-0.2620768540441301	-0.09160837507960891	0.07086747866858048
4	0.8451338985086371	-0.5279802666685344	-1.3015458550970913	-0.11881335794730523	-0.9148722267894434	-0.3766127815274766	-1.1374356717956093	-0.1775906379507509	-0.7627531866843102	-0.6436332447967962	-0.7283071857184216	-0.8235278108785559	-0.6049598440155309	-0.8585988857526259	-0.8442002513552326	-0.4401257921074019	-0.5290396796220974	0.21598294322796513	-0.8795775748933853	-0.8021569231761645	-0.4908593582634916	0.014737227894410766	-0.24817655917928447	-1.0837855311687339	-0.646128712453307	0.023519324079379983	0.6211203321033917	0.35036399872059476	-0.26198881798401913	0.21280990487251958	0.5393137918207366	-0.15611274501009667	-0.035383053034617334	0.1369448300718806
8	0.5170687424002764	-1.0699678632424996	-1.2331836192467402	-0.4143279482394297	-0.7405773382562596	-0.2258886838216613	-0.8300967195533772	-0.26579761438019506	-1.106541630812208	-0.5792374596276539	-0.6365991814753221	-0.7309058290147781	-0.6302078350368384	-1.136020538322925	-0.9655756329953529	-0.37116104270685985	-0.48861622687000034	-0.2356319719564323	-1.3276720013476575	-0.9550319289890752	-0.453417121219276	0.022611232417358424	0.07181969266878563	-0.8828876592279847	-0.841854272147441	0.06248332171757856	0.6216875895062869	0.5624752626523047	-0.40444001453331524	0.2589331560750011	0.468050180683979	-0.09243701375034548	-0.024429999230217003	0.16967979030684446
12	-0.09669013296987777	-1.3151130643066118	-0.8256002643721637	-0.7709513287153087	-0.7496976237442499	-0.18458889378196658	-0.49524423354996727	-0.4096536029963332	-1.2848691907867789	-0.5724012837263345	-0.5907881245002247	-0.5565140829340789	-0.7184087615948531	-1.2518407074793596	-1.0410375568809103	-0.3214738658894826	-0.4007412781134392	-0.8727396704573718	-1.5747410019216832	-1.1179615230944717	-0.3741567423433852	0.06159549936001976	0.2988785795772065	-0.617801724304611	-1.0020984385939071	0.0797969696891265	0.6340792759145151	0.7346207480956698	-0.6116918906026907	0.2579950385732498	0.4138495017570256	-0.10383705023536854	-0.05250455053305574	0.16809575217245418
16	-0.6208934172213048	-1.025724885258194	-0.16905528264278705	-1.0833972665136473	-0.9992703174157447	-0.2592542164932732	-0.18862670612395255	-0.5017110692708685	-1.203999516308338	-0.6521058662162924	-0.5392485247348724	-0.2594782405500959	-0.7914904932066041	-1.1504806251089266	-1.0838261815363681	-0.25691750580772077	-0.1962918783238763	-1.4121965134252081	-1.5131652316990343	-1.3155145611928052	-0.26168668204041545	0.1974429036162278	0.3916609277373475	-0.4112099100698117	-1.1475212545033	0.08790391661384886	0.697698412564195	0.870371637531069	-0.8637068845876908	0.22799913527621757	0.41621228947460137	-0.19876496443633046	-0.10316427025974552	0.13872280681871915
20	-0.7550127487193864	-0.2189942592813822	0.5563172087928828	-1.2500214545161183	-1.424900051334114	-0.3998000611701673	0.032354354776711544	-0.4591184544892596	-0.9081190205534418	-0.7928334454546478	-0.4268525828074937	0.1510524000884093	-0.742268500838202	-0.8962760545036305	-1.0981491776397323	-0.13906550372299004	0.16839170413417798	-1.6180673796809468	-1.1898007362843719	-1.527243610340858	-0.11985980689066235	0.48532396432414376	0.33708268318901763	-0.34635421546274364	-1.2709238497117579	0.11424057901864958	0.8614060260958802	0.9803515051885772	-1.0977709265649427	0.21292278116827798	0.50516939035665	-0.3480133107458778	-0.15167897901386745	0.09719755476015014
24	-0.43777987250425493	0.8244087079214673	1.1354715795459296	-1.2227185933713673	-1.8591679287701024	-0.528836010551414	0.12524661390154088	-0.2741792493096713	-0.5617633447769048	-0.923139152580339	-0.23446182847431735	0.6008789524166424	-0.5078498112254318	-0.6426179392802557	-1.0694719525992202	0.050044529013645284	0.6679863316837054	-1.4153819048432523	-0.7826463560371609	-1.688670034913459	0.05320942760980927	0.9236606932208069	0.15831050236786726	-0.4336497474689061	-1.3335506882377224	0.1903224433623699	1.146420356717078	1.0667232248076983	-1.2312331168560349	0.26357087426397563	0.6847084743378666	-0.4925187217675266	-0.1706928755503728	0.0663127822989879
28	0.1404136713774384	1.6960158305263213	1.3920558655878748	-1.0324662897745598	-2.106816763327039	-0.5825899228645816	0.07783006857056873	-0.022663569020629378	-0.3628073027510681	-0.9607917046131135	0.003958183796396117	0.9706187223724213	-0.11907742887473528	-0.5495878444147312	-0.971471307209136	0.2927022568942071	1.1957671612113248	-0.9102886296177883	-0.5106383549195633	-1.7272723869583313	0.2583897405299559	1.4317344390960944	-0.07907283286157855	-0.6217290743389459	-1.2927473750854308	0.33627739463781287	1.5178896150412933	1.1134905787011578	-1.2045228450881447	0.4134770025304423	0.9251949763780964	-0.5705848321813906	-0.1397641446637997	0.06925632042088588
32	0.6716347319811957	2.061988586941806	1.2542163101955297	-0.7745680789465031	-2.040115589713095	-0.5395099507061971	-0.08550185688604584	0.17635294750511477	-0.4346094120496894	-0.8562335350353312	0.2177343661056233	1.1449454993904795	0.3036938003978739	-0.6958867889954656	-0.7871241549646069	0.5386626110782096	1.5962697227230411	-0.31671529928353115	-0.5222780691312038	-1.6115658242545516	0.48496490594492336	1.8699465942854916	-0.27868354250165295	-0.8407794215909201	-1.1418309182902497	0.5474747405534891	1.8851560306637174	1.089587924113679	-1.0203350756633425	0.6602444632073106	1.1706144780167727	-0.5493305907685301	-0.053958345068360024	0.12128885804786671
36	0.9186050272637225	1.822499151396862	0.7873157838970759	-0.5624759779080402	-1.665688868131881	-0.42299690735832024	-0.3105489603785064	0.22607296648168035	-0.7625205497563392	-0.6210575684126017	0.3386111846957786	1.0666938993225428	0.6077609046850336	-1.0364479992447926	-0.5304217921216596	0.724616227704669	1.7302918390457398	0.16595789748253162	-0.8224471786715063	-1.3812675441200566	0.702508924617937	2.0957877583042257	-0.33917847190099615	-1.0460804674440447	-0.9316271519981483	0.7888843993296695	2.133230919220433	0.9673849915875865	-0.7534913401653357	0.959037003480001	1.3571274246283922	-0.4414671350300407	0.07337262462926228	0.22319102230942164
40	0.8448972680694762	1.1434776754119467	0.17662081077805908	-0.47251242279917777	-1.1274334163811044	-0.2826517515198782	-0.5346294031950208	0.104865886006239	-1.2078789442083944	-0.32625946320177146	0.3374058297698515	0.7657263259628451	0.683993039788434	-1.4268174135424077	-0.25355583365319856	0.7990479449125295	1.5392107924700675	0.4481587398658224	-1.2736594644814625	-1.136551734915822	0.8616130330266626	2.0276298471756484	-0.19130055558066456	-1.230464455358952	-0.7527558784553091	0.9988365148121646	2.171447510005293	0.7481182198709793	-0.5199552165255267	1.2297803132479475	1.4329826795638292	-0.2960656277811011	0.21415112858586915	0.3581702998178291
44	0.6159781798069567	0.35770869164753155	-0.34140217218033975	-0.5064373003571109	-0.6391196830825754	-0.16529791015376122	-0.7092914563390941	-0.12123022942929755	-1.5834535320357945	-0.06905268860310547	0.23781084954301793	0.34854823262906404	0.5205489979952799	-1.6949536757591055	-0.029351992458504235	0.7415630202644216	1.0775296660874825	0.5668696746819203	-1.6622379976266777	-0.9874002908572737	0.9073508358935161	1.6846765237235903	0.16884306030560006	-1.397952314662038	-0.6825011355334726	1.1033709021367417	1.9755645940493494	0.4778259980535541	-0.41738000406744785	1.3769154513881245	1.3724318708101502	-0.16772948163123416	0.33437085067251837	0.4943716215526587
48	0.4818838822596175	-0.19663876245443207	-0.5767017588360213	-0.5942645653979721	-0.3818109025852145	-0.09451372152546347	-0.8139318803264588	-0.33474442278270494	-1.7454765991010908	0.07244306784459517	0.09881433819618123	-0.04804515081434753	0.20303900488612608	-1.720394726224353	0.08308570065978901	0.5674698338486485	0.4945504354865334	0.6215511544747405	-1.7931344463852463	-0.9912275646932833	0.800479290848552	1.180891749261577	0.6661135537495909	-1.5209563932165338	-0.7274994831791095	1.0379545662423317	1.602730031735356	0.24209232567223052	-0.4695147562093798	1.3167037930623613	1.1798446148648065	-0.08431498685053301	0.40279856222499	0.5917016848883906
52	0.6145194157344068	-0.32068985619640894	-0.46725240231799703	-0.6378292425264462	-0.42411145460816135	-0.07453396897571447	-0.860803661557301	-0.4350932229501097	-1.6553040701081736	0.06915716064397176	-0.027245964786166223	-0.32102167525303577	-0.13946229184225803	-1.483182307313369	0.06761243177271162	0.3140129737078496	-0.030641686093930438	0.6714181287026288	-1.571303602066165	-1.1180163593675265	0.5347327576488005	0.673471627919246	1.1525298327911306	-1.5199742278824047	-0.8023805598027971	0.7694401125554889	1.1712440222733007	0.13522776927184868	-0.6081715210818546	1.0052086089504346	0.8859963990730412	-0.032413646496952164	0.3966851820467145	0.6121247991366013
56	0.9971840952492284	-0.018282901449535226	-0.10670341524363841	-0.5707629308595298	-0.7035361510634026	-0.11077418895410196	-0.8902167655403521	-0.3993976404119823	-1.3847094739285661	-0.05775772393068524	-0.1340036239817036	-0.4492272127253684	-0.4058859934095931	-1.062480685412587	-0.04148785759464745	0.017730072095929535	-0.3676731279150221	0.6698186976687641	-1.036689636474102	-1.2650016514311169	0.14251862430352802	0.2932829253421429	1.443505402735199	-1.2896306482179947	-0.7643737177623721	0.3137583724683343	0.8163756111514352	0.21580026989335097	-0.7051858884173307	0.46162363770284426	0.5438656793214512	0.031206205408463188	0.30619713586747527	0.5335609899401195
60	1.4305108749512345	0.5283054100049632	0.2914141409192183	-0.39987963337074156	-1.0730202170937408	-0.2263691717631438	-0.9578909253731533	-0.30170345230223683	-1.0651905509758135	-0.2597166591285955	-0.2712795727556367	-0.5009763824212219	-0.5736538157284822	-0.591127811369942	-0.17866954162310625	-0.30266171617387144	-0.48839846130086323	0.48209658143396145	-0.3409174076056054	-1.3132985797149406	-0.31232461254420457	0.09352184063426046	1.3784441913134642	-0.763151762942917	-0.4892033624218779	-0.2547084980732772	0.6457099898248171	0.4744243311824885	-0.6360591037903759	-0.21779885833110746	0.22862645925973352	0.1506978716621804	0.14044815266435393	0.36438441184552073
64	1.6415482718030598	1.0378360722088174	0.48268657800878106	-0.21095824188376347	-1.3885319197883612	-0.46180215361349586	-1.1219022245692025	-0.2814763181255528	-0.8226807692737913	-0.49313506359527043	-0.5194286690949103	-0.5983753785284625	-0.7027507406611803	-0.19993726858681307	-0.28495222258149866	-0.6483787281832525	-0.4700702714972839	-0.023021463246634465	0.3142830125503227	-1.1946629255650039	-0.7509741764181814	0.04132826615866428	0.8883625842553606	0.02017620573314239	0.05370915667563475	-0.8071714619284576	0.7128384691360774	0.8347387888814093	-0.33838355455795616	-0.8612679221342844	0.040752418236362505	0.3467250755615998	-0.06141974016418208	0.1563020791637477
68	1.4248667919424132	1.2237963645554748	0.290130554897221	-0.13409391011714916	-1.5861178596505277	-0.8530915954032187	-1.42994272347867	-0.47591644405370603	-0.7353996615916281	-0.739748893300618	-0.9395703649640861	-0.8548217990273903	-0.8941292144135308	0.019277835216130124	-0.34098046931961856	-1.0261610720475591	-0.4474259007601592	-0.8588125684036061	0.7487600426843002	-0.9289482808501267	-1.0971261235193905	0.05384767041916245	0.04938187437702792	0.8926532842033289	0.7734503130458524	-1.1811059683543588	1.017003414447389	1.1912854879819783	0.16911825494983324	-1.244186517435208	0.10289791200407798	0.6135398133999965	-0.21916003469924522	0.007800489644383415
72	0.7392394524030089	0.8712322093901633	-0.3363865605444434	-0.2874131791487716	-1.7104213194578464	-1.4026864731660156	-1.9061742972885078	-0.952373025397003	-0.8268450477705102	-1.0075939868283232	-1.5295813045030466	-1.317706343184952	-1.22916495489684	0.02317453728725694	-0.37926009201616945	-1.4288893901988586	-0.5413938151042119	-1.85872339733049	0.8579313137328269	-0.613986907839328	-1.2919609514042498	0.053780455006477004	-0.9102573967840049	1.6059856374247683	1.4943281374396475	-1.2193189828605413	1.5193202457215802	1.463612552762253	0.8150517919943161	-1.1377158136253465	0.537868498397872	0.9381833648836646	-0.2139962906202948	0.047834377615083
76	-0.2892170243113774	-0.11195149244415248	-1.3271790709366096	-0.7279034834603771	-1.883131499304388	-2.0639862962110547	-2.538596146849938	-1.6743044810938326	-1.0880168648906559	-1.3150818314728283	-2.2116792146156317	-1.9425617407391187	-1.7231917337780212	-0.1945237810468843	-0.4657042908831544	-1.8234325601316879	-0.7997114638164939	-2.717249625021318	0.6353223903828121	-0.37219503427949036	-1.3037048545346945	0.013040020097651817	-1.6665810304526267	1.935926790118053	2.0416529127072605	-0.8195285180381586	2.1617486422319288	1.6371418196352299	1.5316960772943382	-0.3757318248799206	1.4273235761845624	1.3264864649660681	0.08619061090642832	0.39903020758019203
80	-1.4516615830963815	-1.6639330345105208	-2.546229832896339	-1.431133385859697	-2.229411834810119	-2.751847021784554	-3.2721784032223082	-2.5184597905470176	-1.5047011337437195	-1.6690125423254552	-2.859353535108707	-2.609994166460325	-2.318139785635907	-0.6181342586169734	-0.6575185639946799	-2.1540837233517447	-1.1780911654292312	-3.125280372358449	0.16430677432061602	-0.2826218895929211	-1.131918069842682	-0.03857670342123226	-1.9128782700880491	1.7931489899185349	2.3312818945199627	0.021932290811597303	2.878367416744051	1.7655150845775371	2.301601880938281	1.0785161229560247	2.763956539805128	1.8133804752342766	0.7785856108081556	1.1280950279364408
84	-2.573505395113852	-3.569627037572641	-3.851138820461746	-2.3041918219565227	-2.8078284192719987	-3.379536143353478	-4.017586221088259	-3.3316249763296666	-2.061266178648953	-2.0546271749120524	-3.352681628345595	-3.177533380115317	-2.910583488745233	-1.2096880643820496	-0.9646663045369553	-2.363660329573103	-1.5690934618434735	-2.9329395220139847	-0.41524672403400026	-0.33982658300432506	-0.8098145106850597	-0.042097616834450506	-1.4969987831467109	1.2783428398282197	2.409756177540218	1.189889070367706	3.597084990002706	1.9318053673608195	3.1614384571365433	3.0911862772144256	4.420613277718419	2.445619576955287	1.870339150474991	2.2026622239767764
88	-3.5910684971742683	-5.503542886190339	-5.12792204515871	-3.2197091498147414	-3.5767218976316326	-3.8978328606423163	-4.672735202435876	-3.993786324908114	-2.7243742874026218	-2.439691775838051	-3.630064716710822	-3.5370185285912488	-3.394048682226749	-1.898034210181374	-1.3342038359335222	-2.4192209182694957	-1.8566563082548984	-2.245589250617053	-0.9504244899595702	-0.4585344481812248	-0.40084656971816907	0.047771394132165926	-0.5141153322591124	0.6479722245069107	2.4254131255902878	2.4692444738988137	4.242208946961571	2.192018980213975	4.159878720271242	5.367160306731205	6.160395129862757	3.2432565607202557	3.2455665983273385	3.478453865805761
92	-4.5444502715769035	-7.114851933635847	-6.288412555076654	-4.0519761936882	-4.4097766764884545	-4.311386574350391	-5.153244005543997	-4.456925380898224	-3.4240016850808126	-2.785972588180939	-3.707791080650324	-3.650082102143071	-3.695845117774601	-2.57328318899869	-1.6648029046941766	-2.3266346395878483	-1.965487713619774	-1.3946155274466467	-1.3135223355508625	-0.5172899352364795	0.01504747006968339	0.23415797889718074	0.699272511624094	0.20442143031007265	2.548743956806617	3.6049814133226135	4.746781337197658	2.5352387364275066	5.297670827841708	7.518630962462594	7.695760230661626	4.164676178907811	4.67904948006886	4.730918395495765
96	-5.497639642186689	-8.13337705466051	-7.239562493165954	-4.701223361543638	-5.151314245569621	-4.6627426029738	-5.419877992297569	-4.742139327474271	-4.05077170302962	-3.061374179740256	-3.659657707511351	-3.548522940259591	-3.791661968194918	-3.0987436693157067	-1.847596402271913	-2.126325840349927	-1.8816862058815231	-0.7869186977545848	-1.4294037782819715	-0.417463569779212	0.364494412217176	0.4808844315785471	1.6860113101353205	0.1633776720213642	2.8851828502290413	4.384340752022645	5.074094282690853	2.88694214091979	6.488988383122495	9.175438857754655	8.77911184001749	5.099796282290268	5.900306686763314	5.724998459666862
100	-6.44343756002583	-8.45725343476321	-7.869188765685187	-5.1034965386285815	-5.677772507637659	-4.989908682622639	-5.487084851716511	-4.903370844858948	-4.483062255984823	-3.24402975217033	-3.5686066060566626	-3.303564540151733	-3.6987087633209597	-3.3475673114182003	-1.8124175025957165	-1.8712812614879324	-1.6389100510226724	-0.7103324514574679	-1.2868428197795987	-0.12643890050913398	0.6073791369362112	0.7423297744128763	2.057232613137896	0.5636594281270676	3.427017918517411	4.709524619609837	5.236250864160109	3.152382365850814	7.572960834456772	10.098258946672315	9.28715417424506	5.902169212698553	6.686509592340598	6.296232207614284
104	-7.255806427756289	-8.179732302041032	-8.072204569463393	-5.233111845155583	-5.936058029446488	-5.285209642417847	-5.408215985948838	-4.983507143789924	-4.635203349808467	-3.3187265312328376	-3.4791290672200716	-2.984968416307063	-3.4614350708353014	-3.252927771938514	-1.5567041596210305	-1.6001732308995262	-1.2865751949252329	-1.1947365969057602	-0.9359036064360513	0.3133974961474528	0.7547837476747375	0.9963568423864794	1.665805693235346	1.2613154617889344	4.064594258536714	4.62862585806482	5.291996942510574	3.2706942475711482	8.372969606240655	10.24858853613652	9.258563018311387	6.4463734464014735	6.9434275451831535	6.407521708523491
108	-7.724190692473391	-7.534494857838801	-7.806626777012574	-5.105596529468007	-5.948508247615738	-5.484976754645417	-5.245566354859245	-4.989766585149853	-4.50071381386262	-3.276317826582219	-3.3791069899121786	-2.6353397302848833	-3.13998531502457	-2.847118370497264	-1.1487717599475304	-1.3233102526632963	-0.8663099386277496	-2.000653500274153	-0.4751596736832259	0.8055492023157016	0.8640722610592415	1.2536263434230326	0.67913675136762	2.005571598711443	4.641113269532315	4.30719326839174	5.315534101417213	3.24424265996093	8.770325638562623	9.784324621293049	8.86313913014958	6.679838640514179	6.734590990229458	6.152598365508663
112	-7.656925182084138	-6.785885793719336	-7.142064553348636	-4.778851497028798	-5.785562977488805	-5.49697683853846	-5.040198313385562	-4.900131690051452	-4.161268223746737	-3.1169295232279217	-3.217154494746118	-2.2697265090857757	-2.800828926644407	-2.2648408355751615	-0.7012636643824336	-1.026978966981102	-0.4097548116829063	-2.7400278975925927	-0.028748065160648702	1.238048192713157	1.0118406985485582	1.5365910491295138	-0.49053007240426133	2.552902215234229	5.019730555258527	3.9538984198879716	5.349259839857455	3.1250245492237188	8.752550103024005	8.984582878317086	8.316774347288296	6.640977365893056	6.2439470133493185	5.704259381197494
116	-6.9985556425781486	-6.124354347025284	-6.262694343013901	-4.344868649003406	-5.526557908410064	-5.2535037861746545	-4.798269736573277	-4.690628993589429	-3.7501699829786306	-2.857538692889168	-2.943400852401391	-1.8955862474266292	-2.5056390699067794	-1.699582810879254	-0.3311871579868461	-0.693179784455181	0.04533524799821803	-3.062889091388042	0.2812741391709851	1.5193624458099746	1.2550551859639807	1.8420158578142618	-1.367622491244656	2.7608339716825183	5.128054605888356	3.735186805831401	5.366680131714107	2.9675164147794697	8.410017945990868	8.138697603658306	7.7846970361621795	6.433290942162043	5.690768227514516	5.233935819762877
120	-5.890251621633671	-5.619123921512538	-5.413138375920542	-3.908427467015104	-5.227550016556344	-4.758532988931904	-4.503235805585989	-4.366144646111554	-3.3920111570548914	-2.534486764230919	-2.5471696789327845	-1.5360516270956583	-2.3006846846667934	-1.3336994614307063	-0.11941529780279155	-0.32094040432008974	0.4378347385796321	-2.8159365582896134	0.36501687672963556	1.6016493995283065	1.6003715951568378	2.114443773653242	-1.6223686892556584	2.623481505446048	4.966339098789324	3.7184774781758336	5.271807657283227	2.7801442076109377	7.886440257188262	7.450028400685115	7.321325283639454	6.171802982006807	5.239747987869541	4.842331397228635
124	-4.638631332130134	-5.250486360645163	-4.808383452673231	-3.5539052396692195	-4.9088621015589515	-4.0978579417718235	-4.142924298316977	-3.9701728720563554	-3.148215762772955	-2.1942517702016238	-2.067159885909463	-1.2348290650662552	-2.205178493654261	-1.2674251762815654	-0.08550172277559542	0.06666485203362606	0.6878923160351504	-2.1004309601205056	0.19131210398056064	1.4891331158234302	2.000698084548332	2.2562601509349602	-1.2125310867213681	2.242790931761203	4.588747012950661	3.868993987805582	4.9440088147270504	2.508972638471361	7.31421802581438	6.995037061196651	6.875453931615757	5.932351097387976	4.9500436657860325	4.534372318263724
128	-3.5985505490047434	-4.982166277704443	-4.551863182019613	-3.3134381687431373	-4.56284712593109	-3.4043750676987243	-3.7310383225655075	-3.5673777967030755	-2.9960484429056757	-1.8737693977731544	-1.569030161710882	-1.0356110308249697	-2.204640621341166	-1.4787291251041532	-0.1860135341954687	0.4346233595365316	0.7299688440012746	-1.2109709947529559	-0.1973201478506228	1.2342079846692637	2.3820707737862645	2.176035875548518	-0.3947547366189254	1.7620408490516408	4.076866616446403	4.095359315069147	4.3097095380692245	2.0662343449877274	6.770562631679166	6.7449669667657615	6.352468474562145	5.729183659393844	4.7824616311444395	4.245526303062815
132	-3.0208785457635177	-4.816503035782614	-4.605545985991743	-3.15456794895992	-4.1709208383158725	-2.793948881724644	-3.3057136452183284	-3.2116000571228125	-2.8544404434615656	-1.5780869682523466	-1.10439133365272	-0.9466522312105493	-2.257681125662818	-1.8349808408184738	-0.3300753525506578	0.760452447401789	0.5591360316464837	-0.4965834605077219	-0.6884216052794196	0.9277355647505884	2.687009089361584	1.8509626341817491	0.3965677310944811	1.3028352227696172	3.52274560038937	4.315048683716145	3.4043893728134345	1.3892416918965547	6.274450286282559	6.627449018911831	5.696348175925721	5.529201970445625	4.652865874940876	3.901440848990751
136	-2.9491629526065695	-4.790522086446354	-4.828367221085911	-2.997795812667499	-3.718842258600938	-2.307631725207115	-2.9022931979336444	-2.917687170291629	-2.641259663589029	-1.2708348003726884	-0.6773263794964277	-0.9132474041769685	-2.3141906203016394	-2.1514668410341327	-0.4077771891788966	1.0548875305245313	0.261709719235563	-0.21648655777156212	-1.129878994950064	0.6813248378718001	2.9094374106383856	1.3661338056405044	0.740625260390538	0.9321703887292597	3.0222289485921396	4.501338470538289	2.388045066526308	0.49273851389458095	5.817273602103567	6.587069494782822	4.943442332184535	5.289547430035069	4.495786655519347	3.4740419300106256
140	-3.211711398598972	-4.910552012443357	-5.047609316479645	-2.760016434376843	-3.2048499503283314	-1.8939748954638396	-2.516848796212096	-2.6573548249863808	-2.3276314676645553	-0.8874771572594576	-0.23986878930565966	-0.8198793509764208	-2.3337972105231337	-2.270975107181378	-0.32203075208421306	1.3640004362000897	0.004918432316432183	-0.45467549447659694	-1.3798037732573583	0.6010355934227165	3.1002945821688463	0.9024267769917635	0.4009507884392957	0.6640183312817363	2.6684081487042013	4.687785613622243	1.5000936947142145	-0.5171024786291342	5.400910363866454	6.610855085848258	4.218374241668965	4.991676317963635	4.299905289284164	3.001379959158084
144	-3.510075560290743	-5.0848445763954	-5.1207499374802845	-2.3989226757517743	-2.6374266081024906	-1.4412701093524758	-2.0877726025322256	-2.380908721634657	-1.956225271054353	-0.36470064428757815	0.2817509167233397	-0.5278342352892034	-2.2942745627652528	-2.126243347521766	-0.01115040012614053	1.7509860948223492	-0.017359342382233505	-1.1183136673349157	-1.3578625883151958	0.7605093102327611	3.3413505469838225	0.6735508424919525	-0.5930650815295406	0.4829133438792565	2.538428538589253	4.934900271354051	0.9736509298537794	-1.477276798333223	5.056443201650212	6.713106615283701	3.6789626982310435	4.653227794343038	4.100575436729562	2.5652522976005088
148	-3.562027922220123	-5.113050447906218	-4.958420740960195	-1.9359837721583144	-2.0296938368097197	-0.8431419112852727	-1.516215916620226	-2.050530190059115	-1.6147226054431758	0.325776307952442	0.9451347565630439	0.06602402759810257	-2.185997480595389	-1.7586830810013414	0.5395245538441302	2.266909593580803	0.33850493941673476	-1.9919906804336587	-1.07638275351561	1.1808547943819094	3.7023425008758726	0.841045437119881	-1.9707788179231265	0.368208407426076	2.6738064221585893	5.2850355968555425	0.9508362984492836	-2.2309324685037897	4.833326804355861	6.899515134557938	3.4439716252159402	4.315804470609989	3.9422852893478337	2.2444715443210472
152	-3.2261223711578024	-4.758512484934153	-4.507520187441627	-1.442961927585509	-1.393853541669762	-0.060490336116416826	-0.7193226796108868	-1.6638690191221936	-1.3786839211941455	1.1579661340087897	1.7590447619849254	0.9774241422771143	-1.9993396946973307	-1.2850989070871632	1.2976181474348887	2.9266354963798764	1.1029754849243	-2.8138339448458254	-0.6343578084188473	1.8251193715745726	4.205958355775019	1.4488776885645307	-3.3292944347248326	0.30734714788086814	3.0639138144384335	5.734776005571131	1.4394983016863558	-2.6836550167992517	4.769190776227994	7.140257817360766	3.5437612444097963	4.0199928182196345	3.8393993280750034	2.0723078198564266
156	-2.5474624569471818	-3.8794584176345084	-3.7350711728208283	-0.999327776293163	-0.7390758972581583	0.8540259578123586	0.3088100842785418	-1.2531338898491415	-1.258769508998426	2.0601384587726495	2.6781821183297927	2.1176726764618623	-1.717904682590503	-0.8312802889816939	2.196641678032504	3.70322798747642	2.1775870268202366	-3.344517460962033	-0.17099061565143533	2.6144721442017045	4.8208994743701465	2.41035651552088	-4.277011860539473	0.29911425634205335	3.6482074168603287	6.240695937612898	2.329260820230022	-2.8265311646624007	4.863906371234221	7.374382954098758	3.918618192315913	3.7874684238176886	3.7635414505352025	2.024217600480162
160	-1.7037086443801899	-2.538146489410888	-2.6424629621547164	-0.6447836144380569	-0.0742926074178865	1.7809052422382656	1.465680237884291	-0.8622514583752399	-1.183628556124174	2.9468724653229237	3.6260926631930186	3.3224277412454652	-1.3277966942642128	-0.4671822774535958	3.1585915008906795	4.5423273925539425	3.3751270685812846	-3.416514864878768	0.201766311612934	3.4619171532010276	5.485130296209971	3.5523862749055986	-4.556960094390778	0.35285356551728775	4.342467773917915	6.752049905895828	3.453325262887637	-2.718097203067884	5.077795492703481	7.543419818906356	4.460010994141166	3.6206338314196915	3.665008535668618	2.040780062291373
164	-0.8934125281665609	-1.0102721427206094	-1.2995378938289677	-0.3560637524674958	0.586730597922029	2.5905785495202087	2.5637156898620788	-0.5164439069106735	-1.0281066868574051	3.755281200464505	4.528805244455758	4.413285721126812	-0.838935671118738	-0.17359892980138225	4.1148948565542485	5.384564862961677	4.495845783326815	-2.967811815398231	0.45383381728984873	4.304335583309843	6.140991672270145	4.6909003139317615	-4.111165989986515	0.4862339782359545	5.074137674872139	7.243400078605483	4.6585335613889685	-2.4419271884300633	5.352728830174624	7.628766040614706	5.064577089874305	3.514737835593303	3.510647049623407	2.067096943404739
168	-0.23305748344230998	0.32541212357378385	0.12312486736682819	-0.0651607362770972	1.2221950261729821	3.1998927512441675	3.4030697259814393	-0.20730309136026936	-0.6800028068540198	4.466508854079595	5.338181005351735	5.262995706621881	-0.302962034175814	0.13690593804126286	5.019855009756505	6.181667789110807	5.401398645115221	-2.0612933583669015	0.6483294351421477	5.117987619829789	6.758913499933675	5.69735096446689	-3.0791265886767585	0.7208276968876656	5.807733044266327	7.72364566760294	5.847242340583812	-2.0672321267387486	5.641707406105179	7.665861587243461	5.669215664855307	3.4707615287890494	3.3117957031558536	2.083614582523192
172	0.28329029607774475	1.1610716552030362	1.3629509176175345	0.29641920253301607	1.806531901566875	3.6015217213300055	3.861068715837676	0.09714631711751447	-0.10630222383124877	5.102921949854398	6.034512981437904	5.833614334636774	0.18977835726507264	0.5592398033327757	5.8544025273333125	6.899111730323116	6.05039595030039	-0.882347641147683	0.899778065793922	5.911633476590674	7.336493950440756	6.524538023688258	-1.7434422925800428	1.0727725001906798	6.546390993756376	8.215796449899198	6.974602681670606	-1.6354579884245763	5.928139194780202	7.723576526215176	6.251224978876598	3.4966566474370495	3.1218485753395258	2.109442228713477
176	0.7429414968806617	1.399960395139451	2.145122045823101	0.7542498092681876	2.31943916688873	3.8538231752370726	3.9512996573823256	0.42406314504369286	0.6223753675006137	5.703441128636084	6.611019594667423	6.172535403879958	0.5427552447920893	1.132441994668935	6.618446333387686	7.508129100916843	6.484726412613235	0.30288264078917365	1.3021917310262467	6.701244814166189	7.876908282419847	7.187628251048539	-0.4355722356766377	1.5380487403184604	7.308253269817477	8.723084427744395	8.015975931910043	-1.1712131470673852	6.223414882206089	7.861008147419708	6.803068620671803	3.595967045288121	3.005635730784302	2.180299514987827
180	1.223099705469099	1.1853110760326457	2.29857181922413	1.271521803506635	2.754611962039414	4.040887345602184	3.818096866504641	0.766271529647229	1.359113451387294	6.293609126413632	7.055254918405455	6.371840937739552	0.6980715972441914	1.8055179073525163	7.3173265272408585	7.977771738891266	6.7805170841686815	1.2274984090331276	1.8693513823042673	7.4831151773349776	8.364829042296364	7.720001678049153	0.5661953673372788	2.0797128624860464	8.09413049561653	9.207780814765284	8.933212257719244	-0.7016710025238001	6.546867830913374	8.089433649620089	7.305926781328478	3.7550551796520875	3.0016875191243484	2.318224185812696
184	1.7114713148775587	0.8026941994428134	1.8478270722466115	1.7654889777431915	3.119394056073872	4.227148522194907	3.6663086321771763	1.074287292629177	1.9465607355562928	6.8646483248009975	7.34332464271477	6.515766604185257	0.6690769774710519	2.453295939927239	7.946628073656175	8.276840189063925	6.995926362494455	1.714283104383094	2.5191452439602044	8.22078893493298	8.759480454263832	8.134625414337533	1.1120669813689366	2.626991265340141	8.867591835521639	9.599916433892425	9.664989447033793	-0.2692085795758221	6.902970296597554	8.363125779971563	7.722245196872834	3.9403662582094907	3.10133170298532	2.5131282742946093
188	2.0921213574040585	0.5158275948852521	1.0216320727303805	2.149378294286476	3.4271142396231253	4.4310994036379885	3.6622438338323366	1.2752345768203202	2.2862050475573548	7.373423080901719	7.452183704634752	6.64285181275722	0.5366113172334435	2.932760946498689	8.483929612674375	8.387020089908795	7.143394929016663	1.737974996947179	3.1099927346864753	8.852015472951102	9.0108537446448	8.412522294739427	1.2055228918156613	3.092318765462299	9.558926558202456	9.831501935932238	10.146445248735716	0.07358081620235649	7.270734768630464	8.604702927799138	8.010745028297762	4.110018719786774	3.256283990268053	2.7266788413823995
192	2.2042179052014865	0.43665704020881096	0.15847451944871385	2.3701782166721252	3.682336559535391	4.626136768105284	3.855944623748562	1.3093364205681446	2.374238961901131	7.760837058500252	7.38008258863637	6.738168699418424	0.40452071922213734	3.1491186539297327	8.891021706067953	8.317451456051234	7.196400147388697	1.421976324305973	3.5128831774711546	9.310598349906085	9.087327934210023	8.519816377110137	0.9706114506057771	3.399554959297198	10.089816067970487	9.87357804666585	10.341858837719883	0.2820072464975491	7.60954425797891	8.747853257027563	8.150302866385355	4.234015930930011	3.4086480054625947	2.9142846987578612
196	1.9469762991386177	0.5054746853464187	-0.44148257263299856	2.424288505155505	3.869206895596182	4.764671313653955	4.167839993444501	1.1645213336153473	2.2883770408074864	7.976309279330749	7.160774689714971	6.756183607209854	0.3409020892119368	3.09735273532874	9.124071098179755	8.109217623263987	7.121689301630059	0.9665400361453839	3.6761486437490123	9.548560118409293	8.995447136102156	8.43794820562494	0.5799914583821589	3.5086951167212304	10.402109119855362	9.750952696023301	10.266200993367443	0.3377262345370327	7.874744395401385	8.769951798231535	8.152726152817223	4.307555187793902	3.5214137942098707	3.0481021327309175
200	1.3677629197873922	0.5714306816932625	-0.647343872343275	2.346441739833861	3.9531829257338944	4.8084225533201055	4.441630829087474	0.8883404113275601	2.135070080134979	7.997278670146947	6.858597738115834	6.655535681133399	0.3399104765416346	2.855240814629589	9.149860358978902	7.823146323479655	6.911658746435237	0.5481870160567567	3.6420805362300457	9.549103712768272	8.777663208734527	8.184373834927262	0.17899964704620014	3.423974743781442	10.474633190412003	9.52455327490301	9.980173085764399	0.25738683277949725	8.0324325358724	8.695638634661833	8.054555872608537	4.347284782877921	3.5902745633078648	3.1262545506701986
204	0.6720014793595728	0.5169448243441013	-0.5358920083821102	2.181315654969392	3.8959250351771626	4.74597071403076	4.5316638832119684	0.5677953944175896	1.986613626232757	7.835538844352908	6.54410837428582	6.424851401320313	0.3301556996116122	2.5336248810696427	8.962109543107712	7.515870075323568	6.596790297065409	0.2440371656216965	3.5084245116346335	9.327630019479782	8.489599206471096	7.8118114274206265	-0.15667711158772757	3.1817727008596184	10.322232220337794	9.254196143627588	9.564275717429673	0.08792620875093857	8.066736200946925	8.573409058859594	7.8958806792225325	4.374329555911446	3.6331968215765715	3.1659629265007307
208	0.14016903901473665	0.33626416240670615	-0.32293182529933007	1.9633587549230616	3.678845634709	4.59333466323815	4.378383625420254	0.2914491586479354	1.8480972004960514	7.529650669160846	6.26447246877235	6.088704570656551	0.22821943404275122	2.2184688988941437	8.588724114668095	7.218074303522941	6.233991607185489	0.0229118056016858	3.359572878938548	8.923898674368736	8.172773340571785	7.389199238241038	-0.4147274185677058	2.82773899318108	9.98292825085754	8.967896438845054	9.090119338927096	-0.10710278126378642	7.979463080287142	8.4435796524491	7.702373962029205	4.395765293467189	3.667412748614208	3.18747233539723
212	-0.005788399357635538	0.1139707636935938	-0.23630677103939196	1.7158186392379207	3.322586051181589	4.380471695330753	4.0310878651886926	0.11360856116936942	1.6674066739899709	7.130446892855506	6.02526996998663	5.693168148925693	0.004779041267041413	1.9334220837416254	8.087172487821599	6.9279069725599856	5.880500778610194	-0.19516523133117636	3.2079126753877376	8.393115022449559	7.841890315284138	6.97800110008854	-0.6063203200290943	2.398615831041245	9.505529379687369	8.658562638356516	8.60731218072224	-0.2630416446243511	7.786732177148252	8.319102266288766	7.483920078455992	4.3974933513241545	3.6917841341270172	3.2010345378166023
216	0.2779963009491278	-0.06319996698635522	-0.3973094214898711	1.4641610347020915	2.8914523051692673	4.136620511101447	3.6125624088631656	0.03895504390298883	1.3806103433084225	6.688705904285737	5.7971935125851735	5.285606847769627	-0.2797320180029273	1.6457817512921882	7.531727294979578	6.626636965233462	5.5738692142903705	-0.4549336421924674	2.986284248441802	7.802497367232961	7.497359256888859	6.620509607766021	-0.7240091543991645	1.9226740550135735	8.947269417107583	8.312890985481694	8.153623560346697	-0.32588723219608895	7.5190000344221115	8.19318387823998	7.2529263313280135	4.356338013140708	3.6891679670651407	3.2075493254741043
220	0.8233913758470094	-0.1929938490286523	-0.7808832506491563	1.249780294123966	2.4754276213136226	3.8848752877380193	3.254513493904115	0.03652761122302704	0.965881345217634	6.2467784723875805	5.544397340127719	4.904114710823867	-0.4934563028274763	1.3094521727880062	6.994681817514687	6.306992991736285	5.331252561460535	-0.7119718176032314	2.5978529387688107	7.228287678588707	7.153333645879998	6.345235331727624	-0.7270420175316133	1.4352036678318423	8.378176667995087	7.950790862036778	7.776312331593505	-0.26078483396491836	7.2225937660969795	8.064935663842096	7.045915109011312	4.262493599620318	3.645274629926205	3.209292642120093
224	1.325701948633515	-0.37732431197268645	-1.2701346842169243	1.1270917625581145	2.1566286032586497	3.6462197211713776	3.0424022597747276	0.07160402071279098	0.4728717195969767	5.834660038522073	5.257150636751384	4.580796707032012	-0.4990281748093346	0.9135774350942566	6.52889488479176	5.9955868569634285	5.1654472220659216	-0.8445458390847678	1.9915109822537174	6.746629697932217	6.858982068864376	6.180925830494516	-0.563506661422894	0.9907884572763317	7.880420188081146	7.645112495193796	7.543721179989579	-0.05766427129849397	6.956625444014579	7.961279848979291	6.928358537347664	4.134870995572417	3.5688536077039883	3.220162383532469
228	1.4846550188727612	-0.750287948144615	-1.7482384399144304	1.1399929494685963	1.9795026729197167	3.4487724217126083	2.9962944908786873	0.13393041457694305	0.012846010704688045	5.471595273508548	4.97035216030263	4.353710163568485	-0.22993063868644872	0.5078067766720127	6.161226257027407	5.755202278865507	5.1041283478616055	-0.7238394599759174	1.2210994928047765	6.418663485533934	6.695128900790516	6.165675624539366	-0.2119670355928788	0.6583975536889632	7.53471277241955	7.504421692021174	7.53287265783069	0.26507738165687006	6.781181318328382	7.93777797602227	6.974468213592332	4.017858971942063	3.4977562339210895	3.2663438237692657
232	1.1513471574324834	-1.3608688081714975	-2.16206144740692	1.2916868892482645	1.938530440204558	3.331820002726879	3.090115062541227	0.2429726713721792	-0.28667905854324904	5.169320093455069	4.7549157022589075	4.272527207077896	0.2664472752042842	0.18484811438144028	5.896490558995849	5.661992058763926	5.193629728556046	-0.2966273121497239	0.44841739422117216	6.272759898560997	6.742219907904289	6.3397459823762485	0.2909834079548364	0.49404922002988255	7.394219379829925	7.622999172037957	7.795252780306671	0.6619785411333828	6.737907869493545	8.053901652029134	7.229042988645394	3.958980311888691	3.482920637873951	3.3731267367076727
236	0.40798380867948886	-2.098312372631958	-2.5211214955573875	1.5295777282243692	1.9854510972439927	3.3361115371398724	3.2859809315688078	0.42792639028273366	-0.3395594349871162	4.933270441951428	4.684400069807548	4.386615265261531	0.8454616048447847	0.030993759553858875	5.727626309239085	5.768448338249788	5.4800519804879295	0.3732404997462112	-0.11699403792883872	6.294370158516202	7.036205750820494	6.723928434561799	0.8605150558680272	0.5039797412545816	7.460012893915522	8.02692983508063	8.32162664219792	1.071850177919754	6.832625848685558	8.337576845099544	7.6752667233281135	3.981194724521814	3.560469379972471	3.5473139196480195
240	-0.4670204806457615	-2.720173352049459	-2.8390433716620604	1.7607113078486376	2.0526945539147343	3.482477656155099	3.5540921598347635	0.695877192647681	-0.13992778921561735	4.762704360381333	4.794358241374413	4.717344272147468	1.3353055681847688	0.07582715134549638	5.645706639340932	6.0722393836253685	5.97627972047653	1.1301388712006286	-0.311707913088593	6.431388361905616	7.539531211891028	7.296474438365283	1.4041415417505987	0.6256486757694795	7.675006847077548	8.649579979992964	9.029534317107402	1.4348525964750016	7.030695897471367	8.761568047337175	8.230363825045524	4.068486680249299	3.729434242369362	3.767519702936047
244	-1.1286431522484115	-2.9770767613587257	-3.075053445681671	1.893388147342152	2.0810916371255095	3.750970830983811	3.8677627942662096	1.0076365445445854	0.23384152293770596	4.651364314733485	5.056945311176532	5.229556070475839	1.6179296929518634	0.269972770724558	5.64565132623072	6.509061796920691	6.634161455570909	1.7996592476230453	-0.09471730118917983	6.617560846787138	8.147309282713714	7.9839992321616755	1.8636828613911496	0.7469297628618032	7.945814589466335	9.354028678165575	9.785003637404616	1.7100871758200793	7.271454792737533	9.249005294336495	8.77555082012902	4.1765766038350405	3.949987401526264	3.9905619520524853
248	-1.327881809696737	-2.761839382828051	-3.1284139077356694	1.8827953291087034	2.039287800408544	4.0733756916200115	4.183523167538206	1.2816166845388872	0.6518209560149854	4.588580596782868	5.38485048841872	5.822475895486429	1.6787471728855943	0.5068980442600615	5.724503502697897	6.974467736755176	7.342743855057545	2.2649474086797508	0.43336433062811974	6.80332182120217	8.728568055049886	8.675621010811007	2.229918712708009	0.7574995737024266	8.18426130135821	9.992407773538686	10.450237247785608	1.8851581764309238	7.495254974515021	9.705740904145262	9.20597932398614	4.261860359875823	4.164170731521391	4.171458710628968
252	-1.0252809498650277	-2.1867098753079457	-2.9019470141576633	1.7534066394405665	1.9293799351617429	4.348579395759174	4.4329814798966645	1.4281386100951634	0.9813951825159593	4.5615558509099365	5.66507099628667	6.354204638650779	1.6026562411853105	0.6739488823087576	5.8742265552983985	7.364865761282211	7.961041907237948	2.508218997344724	1.075106141237034	6.9761504950822255	9.18218038148031	9.258121467104006	2.5240304406336613	0.6055071338624768	8.346055009750991	10.47022244670976	10.934914561320218	1.97365283467765	7.6676077649123915	10.061299298633307	9.474308943670001	4.309409607497472	4.326399315401354	4.2856602560559685
256	-0.4015687395924444	-1.5393108090637482	-2.398278468752668	1.5842887123162785	1.780856247220384	4.479135978834091	4.543304908725791	1.3969709837929336	1.1296628685086543	4.558557498866725	5.8066854330324	6.694610578800858	1.5221974811269137	0.702670691623449	6.075537666240332	7.617461185296568	8.3730611589748	2.5966541701561145	1.6220883090073428	7.159036141440552	9.477416968259323	9.656969999727382	2.761691324890803	0.3264492443902572	8.444248178143214	10.780438395938749	11.224565477642141	2.00240826101191	7.786873320946724	10.295267079109488	9.603636717391332	4.339976776609751	4.423748005188532	4.338669289125259
260	0.23019719065721128	-1.1375044555555065	-1.7717724993795487	1.4667566977662168	1.6388747650730544	4.414076317133117	4.480566967142246	1.212388750830004	1.06933533875374	4.571560371300937	5.779591545771703	6.7835526295101385	1.548485990429438	0.5951161965603727	6.296944125489683	7.73003528550673	8.538726785082412	2.625322573709222	1.9349169682288179	7.386231880613032	9.657326673920817	9.863214467895629	2.924880974060698	0.021909473408576834	8.528677918835811	10.990196200279765	11.371897668737448	1.9963759133480021	7.871398429070721	10.434923145651421	9.664010977187631	4.389153946285395	4.473648059994187	4.356743324724158
264	0.5739940390400011	-1.1647458047070045	-1.2865809169711169	1.4585939608941254	1.5524133404637728	4.177181710187273	4.288940418858966	0.9742384528358471	0.8410373904928566	4.598822582078054	5.625679478746964	6.663477403983221	1.7231564478284032	0.413457809834873	6.502567274842361	7.752965907549666	8.51301000353113	2.6624276570811167	1.9813897559685412	7.672143439949768	9.805384611169076	9.932804082588095	2.969560854090104	-0.20244462736992655	8.645963646994282	11.191825838442576	11.458473176636543	1.9704633901437716	7.9364909925355285	10.52966878139854	9.727794622656477	4.472619522246539	4.502306449966998	4.364960659450725
268	0.4894550728361289	-1.5775611360774657	-1.1921168535652065	1.5606449803050504	1.5636244972805602	3.862166633391667	4.091092099351161	0.8196920135783647	0.5367949591435328	4.6452283741972185	5.435730443582008	6.46430156983033	2.01125764339008	0.24386875269830885	6.664903623919806	7.758497695408014	8.420463540752092	2.722913973609312	1.823356743023725	7.993365267599454	9.995566342866649	9.95815369952849	2.8632292675207967	-0.3022995285508082	8.805434204758162	11.447828263943691	11.548994035172647	1.9319728564122154	7.977349261170164	10.619192096602204	9.829555486657368	4.561358440326939	4.519204128299579	4.366694439353575
272	0.04988829033892226	-2.1382298415558343	-1.5811659057750906	1.7276179746878666	1.6941657023571643	3.591252079479713	4.035212029759578	0.8608528353891166	0.2700110071040849	4.717111098777695	5.30231522175088	6.341461642467132	2.328482145152642	0.15469999572319723	6.773409349506451	7.802175025314829	8.393559434679881	2.773254149110877	1.5639935692400775	8.293659189265602	10.251857731684908	10.022849057641515	2.618909352366161	-0.3237490347794598	8.970167137386685	11.759108513707101	11.660212487345461	1.8868644189879564	7.968752364066625	10.713112804067713	9.951171849875706	4.586029517992921	4.505616176673729	4.33815907336727
276	-0.49947646134155854	-2.547771685843496	-2.3172910154964486	1.9029654216404814	1.93122052658776	3.4556732090487015	4.212583531234366	1.1303491563868653	0.14318709039299632	4.8137569305954555	5.272576795617467	6.396587355676341	2.5847346717426047	0.17405971840781623	6.834583742052196	7.89580629262604	8.505238511546356	2.7626860072003034	1.2937463489293441	8.51057241198455	10.538466426945176	10.161833737466395	2.30311965360901	-0.3744363179289983	9.07931802364675	12.07173630527619	11.7598237694426	1.8446824504054908	7.882417658931816	10.792354556492159	10.038575147079351	4.472503650817389	4.426410663873216	4.243414391294465
280	-0.8640098549963192	-2.6003525191458006	-3.0801298540550848	2.0544381089793022	2.219442600368736	3.4659576328508606	4.591722476810335	1.560770746105209	0.22210745457362438	4.920735346768232	5.324271665482067	6.620933515998593	2.718945973207343	0.294274239989222	6.8647155588401345	8.00384424096167	8.730219818961732	2.6553530626012978	1.0610851022633394	8.608489014825713	10.783178302242865	10.34589860211398	2.009576792411658	-0.5511236772927811	9.086990333502868	12.313392608071828	11.792854279307937	1.8171479656117273	7.7109727664813725	10.827591868720088	10.037185643603856	4.189655770214372	4.257383335808758	4.060928811310861
284	-0.8470242002082712	-2.2799153270379566	-3.516599884691385	2.1855368559017276	2.4664316115096754	3.5395619779866827	5.0110034816111275	2.011244291949684	0.5167175518341465	5.008019434682627	5.3767180307060976	6.892884713889863	2.714086287321785	0.4910265790939868	6.8767299478478865	8.062936762479955	8.956331230439195	2.4524919924805384	0.8745651223036541	8.598004319417614	10.917695971580976	10.498031589705956	1.8186057760099632	-0.8694228507979298	8.992713905518237	12.435811965062554	11.718282669999141	1.8135144664753933	7.481418113893217	10.801343890575907	9.924940084194866	3.7805266284860934	4.010969151860581	3.8061814212069662
288	-0.4445126045448278	-1.7529733136741434	-3.4192995938756434	2.3201291502549077	2.5689260894766095	3.537069073329891	5.244235025516904	2.328921789011395	0.977427837765081	5.03712223688576	5.331689344296347	7.0338115514552	2.593137496123245	0.7424095850320291	6.870056134998526	8.013905504974353	9.040990806641465	2.2017641011915683	0.7306393366486602	8.529756524484943	10.911708804237692	10.533508274186698	1.771106953917667	-1.2395151822266652	8.844581581673484	12.43795296389748	11.535112351858086	1.836721296441521	7.248407345591132	10.719536754246807	9.724211668258784	3.355017415159156	3.741996278851928	3.5346639067099868
292	0.14975519440511523	-1.278688904394912	-2.833868257997148	2.470425361118122	2.4501142439971617	3.329684487519258	5.108474718547654	2.4134042202098405	1.5044559202357326	4.974168288070095	5.122509466589612	6.894793969866488	2.4036886631359815	1.030510780593706	6.829001886292363	7.82974479605821	8.884386993865466	1.9900106141392193	0.6358222349326366	8.46492860564227	10.78324124474759	10.404303524451874	1.872889275590623	-1.5073516330808996	8.7119664925918	12.35975739219549	11.285544366953516	1.88533520222546	7.070254308016023	10.608168575206696	9.489424681546877	3.044371597233134	3.5272679239863503	3.32148789520902
296	0.6328527315374238	-1.0876961919025738	-2.033293480507907	2.611644738279278	2.093741173226385	2.8654546665325125	4.558172691281027	2.2537014427505024	1.9730408141866416	4.8029389260146145	4.745789992748256	6.430099471070247	2.20160650651118	1.3302445378096683	6.729432089027884	7.52600000388686	8.48101613764511	1.9180160712454266	0.6109336003137726	8.439265229852571	10.581944438920365	10.124719594188518	2.117470735925873	-1.5396217068901115	8.644844987023962	12.253538100776657	11.03414532736607	1.9594198415876694	6.98064373161263	10.498265239912886	9.279205298837883	2.9404563829569206	3.4292168530669134	3.2272131361544383
300	0.7363301496988675	-1.28633093509156	-1.3762811387600264	2.684425108807805	1.5580476483108756	2.2006483022441903	3.7164449597941247	1.9238647173946006	2.2704722823993224	4.532488811493577	4.260647762985574	5.720571026664124	2.0370461889334908	1.5989125926657095	6.550864679963342	7.150035840102191	7.92297122862313	2.062951082743209	0.6740893704561385	8.441171624806254	10.358059856966088	9.764938329838088	2.5020708974609542	-1.3040345874287596	8.644354798426567	12.152446716144194	10.835070582690463	2.0659580178552464	6.9725651564987485	10.410233471336316	9.129235244590056	3.0518758219914095	3.463842383222412	3.2676556027881705
304	0.35891091732961583	-1.8279544068915117	-1.1324918241518414	2.624521725704042	0.9581659412034527	1.4778367243648292	2.8215613293935764	1.5402854642126544	2.3267102182772326	4.193617810151879	3.7553791905002685	4.933581339777791	1.9408051918620228	1.7755894616120382	6.2868227799952185	6.754310114020004	7.352188568626229	2.4330556331240927	0.8164460042367372	8.416118600577516	10.133701298877755	9.413706755712656	3.0101797504719263	-0.8961942769312051	8.661130883284114	12.053103416529288	10.701831790607425	2.2150649968489047	7.002510053121143	10.34521672497947	9.038394905158762	3.3009278690921056	3.5914480595512397	3.4040744218712367
308	-0.37694951796728504	-2.5477492744971166	-1.3719390596083914	2.4040579735140772	0.42344689262291596	0.8602848031258412	2.115120167160445	1.204914328394041	2.1314315742084964	3.8263561629010248	3.3002858078602064	4.240746964238212	1.9130219172815952	1.7987022354489477	5.9491433947088606	6.368120654240644	6.886733514564574	2.9371020719760095	0.9928877328600207	8.294812181511226	9.891467069447833	9.128849960167202	3.573449125804568	-0.49368157858183614	8.621359803367437	11.920020073359431	10.595005008650574	2.4053702293701393	7.0118632139556825	10.28614899899335	8.972962356801014	3.5631129651708746	3.736680498225701	3.5596139341128143
312	-1.177560922510648	-3.236083260948938	-1.9672545144957452	2.0568134732768937	0.048045940575888804	0.456252931396595	1.7324953035482331	0.9653539037173483	1.7316847995906237	3.4659652622453727	2.914548389705682	3.7401616478903734	1.9231613825880267	1.6349166590420932	5.566483483565609	5.985447391656997	6.563930494902278	3.3993945035938675	1.1339971990564879	8.031292895067173	9.58769414388422	8.905934311315947	4.052722920676062	-0.26259270244103633	8.466835000595953	11.709336251259522	10.438030216566428	2.612598889430433	6.954673272693824	10.207921002364683	8.8868350758295	3.728072872286129	3.8274464510605037	3.655039778064392
316	-1.7140715078946756	-3.7173120881641277	-2.68934082305931	1.6701896148475077	-0.14020121062167296	0.2716810100371854	1.6509251552861604	0.8088008144939239	1.2119208543696984	3.1347522656450817	2.564662450037301	3.4230410966280376	1.9199469041034056	1.3028892245776473	5.178382383623839	5.574856267205359	6.330579741707252	3.6220173744307247	1.1782497137839334	7.630208473014628	9.181138969129423	8.682271935476832	4.269312370965407	-0.26961490443823005	8.186103800132855	11.39566323264229	10.152049992679084	2.790863983737437	6.815929872470386	10.087886784833268	8.742764450888068	3.7488238716844218	3.8301799200630016	3.644360771514816
320	-1.7824279024898535	-3.910689582487908	-3.3400964652609146	1.346810575899557	-0.178072616008349	0.21622224097497297	1.7196662382577474	0.6884441358350878	0.6670225841847653	2.8427267002813013	2.1949276868716705	3.1991240897470847	1.8509231759070073	0.8758790470897655	4.82642887804271	5.106512533646602	6.084690555468932	3.476883402629184	1.1049350472209882	7.149129372666736	8.662320115153669	8.37635515005535	4.087422837428052	-0.4506659496373243	7.820918063444998	10.989800425439457	9.695724462825336	2.8875808642915906	6.613479120723224	9.914278005364363	8.526451089312625	3.654775848697993	3.7621493244553434	3.532075157784638
324	-1.412212249051389	-3.8572449586756994	-3.8306970499597672	1.155391332570283	-0.13781923020852793	0.1582366224108547	1.7509996846813236	0.5619085416912111	0.17992299749724566	2.594185822612908	1.7718186333744883	2.9632289334823114	1.6884313779163809	0.4601809668843431	4.544972408263817	4.581757057066208	5.744982228079543	2.9852559491127337	0.9480759477520597	6.675924761129529	8.069172838819192	7.942774752590465	3.5134973437293695	-0.6521317942367042	7.447073440823191	10.53963372430551	9.092560745170932	2.8678326534344674	6.3860092001854705	9.691040014594975	8.249550798568858	3.5252361208603764	3.6754238512703736	3.364762297718171
328	-0.8628178813131103	-3.698641052444666	-4.1684150590558415	1.0995113821879898	-0.08838902391528979	-0.0021473383476759305	1.6199667412865641	0.41837519301642756	-0.18614138615818912	2.393548244155236	1.3141368594369451	2.6623678140179137	1.4477006160424781	0.16208115179148327	4.352008808592312	4.046595563208621	5.3073720798008575	2.3314366281774093	0.7861754874407568	6.292504771558021	7.480267028996221	7.411132316951531	2.742445938815736	-0.7171924096119927	7.141221028417904	10.114485715125	8.43136308448678	2.7348453929517467	6.175428851748629	9.43854615689506	7.941897372221586	3.4418556603317563	3.6234021095346503	3.203004352112166
332	-0.5037800656950882	-3.6141509918517083	-4.385706413640291	1.1187276811964801	-0.06822195631922645	-0.28075554896042615	1.3200595345547432	0.28042727638015447	-0.3895636489092533	2.2453298512036457	0.8898623563234124	2.324919456334122	1.1847468584666265	0.052346061782998124	4.242530812042546	3.5791802315945422	4.854987132212551	1.7891929104454907	0.7074741703291254	6.043389781952601	6.988659364221786	6.88489721467297	2.1008479542143013	-0.5690402374205807	6.951412660214262	9.782084440329466	7.83820341038622	2.532189601227075	6.013500675277576	9.192195869125921	7.6408080861775645	3.447678795693031	3.6305351165662016	3.090522281473304
336	-0.6323841794260274	-3.7333025838055183	-4.465440738847916	1.1225582332879442	-0.08111535737300415	-0.6053862556431775	0.9512020325487021	0.18294697953764552	-0.41206750169667483	2.1479716246733287	0.580156861270993	2.0369234033655634	0.9736846064779925	0.14328631722513563	4.186852444568374	3.254801265128364	4.514729011581141	1.5873527486778665	0.7660360316963161	5.920940861058141	6.665997488357963	6.4958753421810345	1.8998093557075928	-0.24665993389796498	6.881468278676988	9.584342932344828	7.428104858717762	2.3231875837799008	5.914737686482739	8.993665672483607	7.378922443833391	3.5313312918197193	3.680287828690344	3.034626953092698
340	-1.313088413737993	-4.0585865871956806	-4.3322987447077494	1.0407198641250595	-0.11175932706988179	-0.8601322748402461	0.6567711813557282	0.14710178934150958	-0.26205873423216414	2.08697103927131	0.43054005394953565	1.8829326582099193	0.875615654165168	0.38842463395279375	4.13724135307986	3.1054599206720406	4.38442896689669	1.7884632303859926	0.9535986757044248	5.87206362195425	6.531044466695512	6.335591777064471	2.267567390438883	0.12432391165100563	6.892295343163813	9.519613241956497	7.25525329665417	2.157620901382365	5.8736457676411735	8.87359521532826	7.172849160204506	3.64126466785442	3.727074613697951	3.0069601459878674
344	-2.324473375173749	-4.447448719240022	-3.92015360796145	0.8604779817790705	-0.15028408131803317	-0.954328653787146	0.5443809614742335	0.16694401162436717	0.02155231306475869	2.0314822145670455	0.41714289679113	1.8864752006585557	0.9121602154590103	0.7016769629882627	4.0402293103255245	3.0951096933422155	4.470362175145305	2.2492837849094833	1.1984466284057926	5.819348797410828	6.536265833564654	6.399338706072227	3.056813232333558	0.4015319933290331	6.914560300535578	9.537716841459131	7.28406761237732	2.0445105977891567	5.8638896794089685	8.831888176554164	7.016274911332239	3.7162907029738355	3.722935190338041	2.961645357283917
348	-3.244772664460935	-4.676945197695022	-3.2654654897260733	0.6305773838335128	-0.20929823762979877	-0.8782439805745478	0.6304038151083651	0.21510477309754528	0.3689113846047821	1.9391615341818464	0.4494779098606608	1.9857114503317144	1.0559210750623271	0.9851400827330973	3.852687110710522	3.1264960686902183	4.671646583206447	2.690181963804257	1.392942186653447	5.687477097456907	6.579712374287482	6.5754828287048985	3.8899497887628054	0.4933393883170446	6.8674282854263025	9.550988173212733	7.396532993715686	1.9474028299755535	5.84024141744475	8.825263001094818	6.880001050744902	3.7124378587452815	3.6414346603008902	2.859114878111629
352	-3.6396291164059127	-4.5701718214997555	-2.556648247939615	0.43312588224729787	-0.32070138969514383	-0.7127702218179819	0.8369764068452727	0.2639082961571972	0.6877049786370945	1.7708443358534498	0.4121302057828203	2.060891384643551	1.2427526681041114	1.1555423707397625	3.557337036688143	3.0804169100235983	4.823346602659867	2.842074387050526	1.4377258979737897	5.42644690097239	6.5393342806699435	6.689418775835451	4.3285117040068615	0.38867354294874734	6.679627878490785	9.459374403912786	7.434356193846022	1.8055456831169114	5.7457194183242635	8.771146752146976	6.71835373135932	3.6129927543973572	3.48487376286902	2.6824397973046388
356	-3.2738640225723006	-4.114928235155238	-2.0820035881882704	0.3374560168806257	-0.5165650235485514	-0.5905674681058233	1.033675191176842	0.3033002309294157	0.8832533337227585	1.507284995088209	0.222554668222245	1.995219106405122	1.3945736849861199	1.163107749863423	3.1697924057085913	2.868440382391063	4.773529994356687	2.583641045723027	1.282025095563857	5.024462210367431	6.316237910536186	6.579902632313124	4.077473153310106	0.13934943044766077	6.30909298257571	9.181938148204553	7.257357579028008	1.5676099022387597	5.525919423456842	8.571573235805147	6.48032568249129	3.4216427716651374	3.2730126298284783	2.439141505758874
360	-2.2381377163646263	-3.498065939654561	-2.086881870722951	0.3631003787886887	-0.8041645268164205	-0.6267073138626624	1.099483725632884	0.34303364071069026	0.8866745807195833	1.162032124446522	-0.12370230971337368	1.7366793111823229	1.4457639419293258	0.9998052094966086	2.7365090777925167	2.475688212819923	4.455851543620661	1.9955348918123446	0.9442700719834705	4.511634815269374	5.8722972721611795	6.172712310465204	3.1235124985988745	-0.1832194174670648	5.760360703229924	8.687133767129595	6.796750051504406	1.2204438417139025	5.150463091244378	8.153756121076343	6.126717075138216	3.1498637119875443	3.024990789405479	2.152586931515924
364	-0.9248273349300501	-3.021183483125419	-2.618651383464224	0.47237726926749085	-1.1485061616510819	-0.853679654827088	0.9766238903183804	0.40038621324540863	0.6803023201932599	0.7847655991767994	-0.54362195592958	1.3291079964459607	1.365845438369809	0.6980654579657951	2.3237905443649263	1.973209376121641	3.9223782917174304	1.3056018319545268	0.5050901161792989	3.9540901084250852	5.247768865687425	5.516258225818881	1.736987705613612	-0.5259686099124439	5.092753397481389	8.01017187003505	6.082547649285377	0.7982025722378145	4.633081424459821	7.51030347835276	5.648796544118286	2.8103189397430057	2.7486996581297807	1.8513606739985542
368	0.14080597424719837	-2.9235188887217296	-3.452754011973552	0.5936767443926814	-1.4737825356467327	-1.1970679729756186	0.6940956694244873	0.48125916597930385	0.3078982822273923	0.4511359024578694	-0.9009481049679089	0.8949493743235694	1.1696513861689235	0.32030925073815664	1.9998601624541954	1.4910113773848501	3.319349995815614	0.7591763119603698	0.07579521815713858	3.4377469929684725	4.549409378009695	4.760667312046633	0.3411982944934003	-0.8653964378442283	4.41058300812094	7.246341210189855	5.232275472782206	0.367076694038583	4.036924351990363	6.715511781903605	5.078713404230704	2.420934194174594	2.44412373879378	1.561805244317319
372	0.5396454916680742	-3.2140524306212597	-4.1625523462105365	0.6643066985524316	-1.6823692279301603	-1.5035754404253334	0.3563559642377694	0.5696728811186296	-0.1335070278850112	0.24356615481870936	-1.0654956075470037	0.5811924919713507	0.9153475142256823	-0.05796225354342531	1.8187074615336933	1.1653243273877338	2.8207337785076043	0.49851932995817183	-0.24097584127143915	3.045899621902738	3.9139943024044914	4.092887391247263	-0.674753187383326	-1.1898461550235762	3.8345329664692476	6.520882590042702	4.406920898755186	-0.004144374270704445	3.458158245892403	5.906216129650005	4.485576618313679	2.013994927089834	2.1177048629699597	1.3062216010493364
376	0.15999297757285558	-3.6219556240188933	-4.316039551328389	0.6662732345925411	-1.6887358384411248	-1.6106923777922184	0.10365384790953332	0.6355925782368967	-0.5208858834466998	0.22570232990024153	-0.9695333217938018	0.4966416346408758	0.6906097513882444	-0.3670442095072624	1.8081079675800469	1.0842897864622605	2.5551209385257465	0.5200401531441171	-0.3821963658220037	2.8355996537142123	3.4620478065820457	3.6607754138073574	-1.0963276596999953	-1.4749078713372508	3.4611699493760097	5.9480047075779465	3.7543723488432645	-0.27016341618039075	2.99282359321289	5.23386381735217	3.958017816087288	1.639786120089369	1.796530599826684	1.1046440573459295
380	-0.7379532437766482	-3.719813814308324	-3.7059612180603394	0.6334826334218198	-1.4570249282290195	-1.426506396506755	0.05813839271887247	0.6549363119755952	-0.7418425660477124	0.4179674078402263	-0.6361837371022866	0.6690887791906875	0.585853753994952	-0.5590659365844048	1.964017982292613	1.2555205790292119	2.5596027309643823	0.7204045039108288	-0.3347678772103649	2.820198290380294	3.259706965799572	3.521554699589764	-0.9237772203010486	-1.67419683510564	3.32687472457164	5.595623955904146	3.363531819434534	-0.4204340864533833	2.701421015594729	4.808620917577417	3.5788831620457318	1.3581802810710466	1.5302574595916716	0.9753769611528273
384	-1.6371329981478255	-3.1693987766354885	-2.4843385156850455	0.6277763231640101	-1.0281826231746574	-0.9810457204845234	0.2741445594064996	0.6286342128140963	-0.7265851479305635	0.7808272222832089	-0.16907593565214957	1.0394853327255884	0.6602462513466493	-0.6156249626829096	2.248175615356617	1.607821341269926	2.7784204412883855	0.9831678246471038	-0.12815529075691384	2.9621906205729456	3.3018553173624694	3.6342248824870618	-0.32068228640654156	-1.7371061996471264	3.391844025631363	5.469072804948022	3.243995896732183	-0.47606107472388837	2.5867664748685786	4.660121429121776	3.399129382134576	1.2167450158870596	1.3739013637187325	0.9290718412784341
388	-1.999440545756036	-1.9494979332341187	-1.1187626095182304	0.6979321223757692	-0.5213294612119984	-0.42158451569928856	0.7123495322362193	0.5871292337852804	-0.4716642487061654	1.2161961763193534	0.2915338866502697	1.492701049850677	0.9135431028189527	-0.5482038841711856	2.5925993853915714	2.025354857099605	3.1022565286513197	1.2433468072017324	0.18272082461477748	3.1846482673349024	3.523166647599	3.8943159481908687	0.48426744219584505	-1.643483396195452	3.555305948817905	5.5213622907474	3.33730363003237	-0.47622901081011904	2.596918337941092	4.734481322732863	3.422068110409181	1.227082010985778	1.36038851394511	0.9606595015113355
392	-1.5170155725325136	-0.4258917857384626	-0.17678183272551326	0.8418163635934596	-0.10549666705914319	0.04536454740634146	1.2459924189580533	0.572958944781445	-0.049708172553446374	1.590389962949373	0.6231652482511829	1.9051482629359346	1.2755922046880697	-0.39440029759966344	2.9118807242308495	2.395633691461372	3.422410002650749	1.488856311853792	0.5325123654272336	3.3976554784822914	3.8290052317267342	4.187498558916108	1.2791267601143264	-1.4296116792824232	3.696473589147526	5.682429299312913	3.5500466733947817	-0.4609362769410299	2.6518435411257837	4.927339064555515	3.6042914299564353	1.3543478216309544	1.4796302281215925	1.0464534733101074
396	-0.2630819075617952	0.8001235107247859	-0.04261307407587638	0.99601906286539	0.05403820411628653	0.2399860167404757	1.7014036135632555	0.613329826236983	0.404326676301561	1.7745445921917637	0.7624074797454858	2.187589639862609	1.6254558522193607	-0.2114705140019922	3.1219181935644476	2.6490247182721824	3.6727654841201027	1.7140835480328898	0.8516716935589642	3.5285441786370586	4.130905140937655	4.434535969028483	1.9045363616542155	-1.1879999607609644	3.7221622373065455	5.890353664785269	3.7922000789265917	-0.4580729890225388	2.6790409020495485	5.1342177261425705	3.8719015023703847	1.5279467067288532	1.6773288207621	1.1498297423896224
400	1.330178615072713	1.19900798494887	-0.7133221608272085	1.061577794255809	-0.14108774030350144	0.08443895706077224	1.9204416226537924	0.6991252881518705	0.7295819502530144	1.6918355183801983	0.7183856945973833	2.306909078495683	1.8387669278450476	-0.06629374606561084	3.1641580978614883	2.7744703222798037	3.841670265035212	1.8736487579724335	1.0700408193275204	3.545872202503832	4.372275341439093	4.608523834037204	2.2505130711002272	-1.0351523134799365	3.6002585797011144	6.109094127489838	4.004603375814641	-0.4783270048939487	2.6403143339252777	5.292163835515524	4.145212162996259	1.6690629678548077	1.8760360431989502	1.2347953288373976
404	2.6566975049654573	0.6058494433365577	-1.7946006014337297	0.9547107195591916	-0.6759561283211458	-0.3663191190054005	1.8231847240193375	0.7856085280610848	0.7887586335295109	1.3534355129403257	0.5572649822470633	2.2841205539255327	1.8441562606027422	-0.02316102193408824	3.0286767406290833	2.808825008930127	3.9554393191608144	1.882588024154698	1.1236505480053403	3.46704148370872	4.535299766534088	4.722746360299112	2.2498841228901454	-1.0610160800848638	3.3641362105310306	6.325941069843964	4.165963162394552	-0.5175597654626963	2.5387651856220943	5.392784105036872	4.361568439915833	1.7228674845112617	2.0087964484042287	1.280885931595786
408	3.2012202658892535	-0.6729385239777208	-2.702391856046379	0.6568703038797394	-1.413989778763393	-0.9493854021898243	1.446115847751191	0.8161632398026366	0.5202929960466159	0.8643851258388776	0.3699030866820513	2.1762206499468553	1.6579488473994697	-0.12732678619662768	2.76455210941422	2.8097143102279305	4.048770894318852	1.6742548900295045	0.9727396344421093	3.34679817308396	4.631208408107128	4.803775775225148	1.8917553377072973	-1.2871018615651384	3.0888349931932626	6.535031302165183	4.282258499777936	-0.5627862200833128	2.406288856153098	5.464801297695623	4.488749015919195	1.6795490937743778	2.0474333711429833	1.2902513709871184
412	2.7620589663388495	-2.0091488310632513	-2.9638459607634684	0.2344918990175306	-2.137619966832032	-1.463654037594912	0.9314708686199418	0.7541068177257325	-0.02868241250723952	0.3914673318516058	0.2368027114849935	2.050842279978371	1.3741883004779567	-0.3865245272891188	2.4691131052620605	2.826491110341213	4.13920544532954	1.2684737411898066	0.6274843200099927	3.253522387873292	4.683069217302363	4.867650019753822	1.2417342631460502	-1.6537016588420776	2.8548588680668323	6.721359235959887	4.3684658893918265	-0.6017457231587776	2.2826263846940757	5.541210160570336	4.526828754439997	1.5740467270210923	2.0103115984705937	1.282787677387188
416	1.5331979951295964	-2.7813837458005573	-2.4593527254954433	-0.18355616880803433	-2.6267514162501704	-1.7512057975424364	0.46937355280626347	0.6048777088152378	-0.7066811901370357	0.10350275758598977	0.20440198429476375	1.9645712326040214	1.1159337730843324	-0.7580975871019483	2.257732624075774	2.883171789519397	4.219773758724758	0.7927812317859564	0.16526383119819693	3.243973008548647	4.712403285526642	4.9124407644222305	0.4475446034099297	-2.043457502927924	2.7183377674135905	6.858625871508097	4.434682358035681	-0.6325635298017038	2.199753517319081	5.633701787076319	4.501199710925603	1.4662198983367247	1.947352046818333	1.282678481678235
420	0.012189961939075752	-2.7017149857020186	-1.480560537414898	-0.46053394558981176	-2.7416527202050673	-1.7522647336588426	0.21964204255916564	0.4140882183587483	-1.305009242577666	0.108714222633543	0.27984106470026854	1.9518928478551474	0.9696403121309035	-1.1517579526432382	2.2252244893159303	2.9798543377982463	4.272466648758957	0.42834076177216596	-0.2751840346064356	3.348761311659326	4.737743365723895	4.930086123416987	-0.29590779468213435	-2.326535219040614	2.7022581032238406	6.92637918630896	4.485158908964149	-0.6669037921280279	2.1808974687827036	5.731690869165346	4.453459728441153	1.413557883508441	1.913106794295541	1.3058522906712406
424	-1.216494676379635	-1.9494246195212301	-0.5694802389072018	-0.5141426907909953	-2.4754052099672434	-1.5125498733479268	0.24897870358548527	0.24283036528313723	-1.6350383717264172	0.4154122759344459	0.4417850364021476	2.024824614181022	0.9427219009439832	-1.4529042207275213	2.4137079654788494	3.1079375665398086	4.291880119931867	0.30853313129729215	-0.533047317112742	3.5709938912831793	4.78316544278817	4.927449690775938	-0.8117123821745612	-2.40726422655774	2.8071157861408635	6.936074716222225	4.529375064858373	-0.723193882069985	2.2484435978388504	5.824213966923692	4.43414067102533	1.4494878017069113	1.9430797051009092	1.356204029473863
428	-1.7237716869702215	-1.03903853630948	-0.22340044322831124	-0.35311737567439755	-1.9509912680005512	-1.1463208169605545	0.5112808333839752	0.13793738151533563	-1.5998307426115115	0.933276948956721	0.6576431973065905	2.1782603208859195	0.9723643635995509	-1.5594066342083235	2.799849741542509	3.2661728776484815	4.302591789826697	0.43780937680334425	-0.48958834882151014	3.8922629258114085	4.885533797327078	4.940233694955087	-1.002168056818829	-2.2552041950507857	3.0262622756846174	6.945126039136385	4.593129146423483	-0.8120974281788381	2.4281527934758267	5.924997791589891	4.494524944401927	1.5751054247189198	2.043807262982583	1.4306473695874256
432	-1.3959885800402259	-0.5041314350751519	-0.625657020419727	-0.06889912468680998	-1.3636409009837125	-0.77813124460218	0.8802777506537941	0.11360883684085081	-1.2293872802212908	1.51410185908467	0.8968861080413664	2.3963134228286744	0.9799654459053417	-1.419901963463737	3.3071284210631453	3.465826979469843	4.357753742659839	0.6918483359035499	-0.127347513711796	4.280354965847195	5.090347277187171	5.0276169649981375	-0.8720161296762701	-1.910612935964435	3.352651826023283	7.0439786733167375	4.717849719533887	-0.9213153696641061	2.7406573226398314	6.0794033850721245	4.67480038416284	1.763986106233619	2.1978793088734956	1.5273117980543087
436	-0.4517081964532354	-0.5846340641519926	-1.5477412899994945	0.21084313041383163	-0.8995441175637693	-0.49634325378988353	1.2154891460248127	0.15368320009054098	-0.6626570804077928	2.0104172179008692	1.134549376484293	2.655541174859734	0.9375457143954673	-1.0557752821015745	3.8347401522139637	3.7204077149873664	4.5163302307543445	0.9050325132408304	0.4464370597058321	4.692806232048287	5.432166562670596	5.246931539639734	-0.4971035706367188	-1.4678772650851648	3.7705809974839823	7.316715698842742	4.943811404144053	-1.0093895171430038	3.180715076045394	6.343607409673628	4.988620745461584	1.9749640176501086	2.377275937754059	1.649540658600813
440	0.6768705231743365	-1.1031142445369868	-2.4668698248569574	0.3799411942902982	-0.6729655248817359	-0.34209614905770747	1.4208103382478208	0.22702614905736065	-0.08589909949072908	2.3194060267063183	1.3425605263192228	2.9208044932055115	0.8966748095761711	-0.556981085324715	4.283721913012767	4.022355069495409	4.805018889693445	0.9850882862969182	1.0293463442563138	5.072937475747972	5.904311165207793	5.616192326671308	0.031204566280736003	-1.0464482281013805	4.236491192611993	7.788780192737564	5.279687391302639	-1.0209252808544182	3.6960215475226907	6.7424692937374	5.406782613454899	2.1643879358959195	2.55334376644161	1.7987626745585974
444	1.535789009031441	-1.5994914729743066	-2.8418316769376135	0.3961356868279175	-0.7025241238023163	-0.3253993681798341	1.471571918586884	0.3045574716984888	0.3407453289965733	2.4016141830844564	1.481255765989803	3.142059795076095	0.9573526954321905	-0.053974810851437655	4.576810348399499	4.324567783881321	5.187244879023827	0.9717471575044601	1.3995884621569916	5.351394162972182	6.438266737895329	6.085740550888644	0.6393570287774718	-0.7583680133746115	4.669355857504223	8.392677285939433	5.677666172951648	-0.9193168259298331	4.184787739678567	7.23381708226127	5.851428493985108	2.2947082461595434	2.6996691158799138	1.9622825334597143
448	1.8233935786941033	-1.6356761414239036	-2.3986699520585644	0.2861517660545748	-0.9319431758239496	-0.4494676578617853	1.3999559843957488	0.36678773072144144	0.5343743549206709	2.2716262283192603	1.5001121721540482	3.2573134816900144	1.1906726330259452	0.32413473643482754	4.666622150083146	4.541150081613312	5.55728910950435	0.9933701728536147	1.407409187578225	5.458580003308254	6.908504945478844	6.5362100436172845	1.261066314374402	-0.6806673390369428	4.963365542278277	8.97488591789235	6.032347187070813	-0.7208759170451671	4.521543968228975	7.704937438585233	6.210300906714297	2.339948171429845	2.7908139158359524	2.106120819496399
452	1.4791847430076661	-1.0845608683860146	-1.2787760463853535	0.11664608091467969	-1.2759242025586304	-0.7203421574525511	1.2554798094522885	0.3983662714437153	0.4967476713036635	1.9729362676399695	1.3523590530584	3.206364385138961	1.5643652638039585	0.4869089114293646	4.533782947537674	4.573350894825469	5.769085392691539	1.1491634816720053	1.0368794176625877	5.346096025320764	7.169457894343927	6.810820085495982	1.7976673796089702	-0.8362323024617755	5.022760855391257	9.348928427934311	6.212401374390878	-0.506948648603348	4.605105388458676	8.01114080313807	6.372918589714371	2.290176385819423	2.8037712503216707	2.1822655145861343
456	0.6659651977891196	-0.22750618996400845	0.022419802787919822	-0.047477580487068044	-1.6608662563352803	-1.1328302593240216	1.0706397267967114	0.3787409653638088	0.2834813289637676	1.5582572182413768	1.02007007341334	2.954547874620562	1.9250303458248852	0.4021535803655039	4.187446106828838	4.353451240992235	5.693698391844276	1.4006231987876798	0.4082435657207642	5.011635767681309	7.113862496535074	6.774013979021526	2.092580790004827	-1.1870778769086172	4.805547702100557	9.374452567274165	6.115906223114729	-0.3997854282299119	4.40727948029725	8.041920641622372	6.276698096640653	2.156694406786315	2.7272186210441225	2.1513946002048474
460	-0.32596397317604353	0.39785838026686643	0.8921970106487253	-0.1728272731709071	-2.0385615774184345	-1.643095369958944	0.8539907314673854	0.28407603430551254	-0.038373477660093365	1.0862659188501547	0.5373824821256005	2.51803039868714	2.0606372304388705	0.09628789847620718	3.6722011473447944	3.886910905561249	5.281986223236532	1.5601638516136382	-0.2774930291322374	4.514564502761977	6.726766092483101	6.3734569388646225	1.9666835020002387	-1.6424778658406298	4.35338209960447	9.025816894631436	5.7242326591927215	-0.5065863715733178	3.995745410367645	7.780899028206681	5.941688522596335	1.9749410102572835	2.5749311382132793	2.009848828009726
464	-1.1966726749724663	0.3104100219518857	0.8904997683930311	-0.25966504150635034	-2.3713316857549063	-2.152639860440351	0.6106069668612282	0.10193312142385699	-0.4160236705766859	0.6298153384519833	-0.003917800718340173	1.9757031152434577	1.8172388030901356	-0.3591188481323898	3.074621669636008	3.268704644533569	4.6015624883821715	1.4041175806834596	-0.8219243863335013	3.968576182836143	6.106936439354417	5.676467404338951	1.314410206337195	-2.082253450858538	3.787771215412383	8.41490552685011	5.126211153439397	-0.8574960210131313	3.5143520743332908	7.325305443388927	5.474028096683558	1.7990677311297878	2.392703050294455	1.8032908394107514
468	-1.7339800552458395	-0.6272408946413446	-0.05149886371604148	-0.3220296195959652	-2.611234896742837	-2.528639548593216	0.36798062827664196	-0.14907769821198627	-0.8079480508432755	0.277033149496634	-0.4787812518906351	1.4533895217440573	1.202413794342737	-0.8660639502593827	2.5165789063812345	2.657213681187909	3.8234507941034286	0.8432471730876804	-1.1033453913488422	3.5075509459630108	5.437137590032313	4.85711668695571	0.21089698321025024	-2.3934292732845646	3.2682521260715767	7.750814895134443	4.492025364024937	-1.3741823400134943	3.12475108311418	6.848771077984394	5.028959261595091	1.6857769446726554	2.248366588637995	1.6141539771334543
472	-1.8600311232335605	-2.1135976261181466	-1.6140180785437095	-0.36248907355341575	-2.693537228459482	-2.6577279500617323	0.182803570762678	-0.40984183446405864	-1.1625385255072551	0.11598166794104589	-0.7755622844188466	1.081754562507785	0.4101938594952133	-1.3175835576170247	2.1292810386304297	2.2136294785877584	3.1593980709417435	0.0353799349666454	-1.1098490925424438	3.2378919042854357	4.91315268229763	4.135102738430719	-1.049924013348037	-2.5074140962237093	2.9301195070674915	7.253080826566881	4.0057291883423165	-1.8921296548755417	2.9365870878464504	6.523368342142139	4.74668406241763	1.6716022449251178	2.2041468564650932	1.5245900115621571
476	-1.6227225024261518	-3.5515258222557935	-3.2436134733322697	-0.3624914577392007	-2.558245890834141	-2.5086555417619567	0.11511271417880116	-0.5962144717422312	-1.4044077360934935	0.20120958933097624	-0.8453153946515198	0.9418806409897473	-0.2588055425308592	-1.6157561499809716	2.0091738650139934	2.0326261469066864	2.774708502439725	-0.6559289677271783	-0.9200080609935481	3.1972405829769377	4.661863792093451	3.6894838716816527	-2.039498800850516	-2.4248127876096257	2.829924576290186	7.058044415773901	3.7866294288399485	-2.231621259777075	2.959837906040311	6.439359171822015	4.690711963254747	1.752910132750841	2.283020729022914	1.5727878769266144
480	-1.1610316008818484	-4.347838390817197	-4.394393909803659	-0.2977610818974565	-2.192414993472863	-2.1672954504607223	0.18422768963553965	-0.6362729056506454	-1.4520914517934163	0.5168853985134102	-0.7295523863492804	1.0243611309891762	-0.5435404763803777	-1.693430300251782	2.1715617125043942	2.0974991268606957	2.717675679021097	-0.8539154508012241	-0.6526037438128441	3.33746575466575	4.686737048714002	3.585885038859108	-2.377390617090317	-2.2181613389278794	2.9235193655588865	7.162259560621867	3.8375143907933853	-2.2840995730906246	3.102525226389289	6.563366396545548	4.819453704110125	1.8800255012729843	2.4482293067155436	1.727669234682244
484	-0.6554700119635666	-4.208980072838923	-4.742949473804012	-0.1664932962028748	-1.665014024345438	-1.8161354019088396	0.3370704940391918	-0.5108323680378174	-1.2636892763657657	0.9619318818601433	-0.5492435679873777	1.2253187863884842	-0.3565654745636259	-1.5384542903204883	2.5276482041438144	2.2844560088654817	2.900317423173618	-0.404639719895131	-0.41808912052455033	3.541544905304064	4.868621813879787	3.751711597507209	-1.926319594288122	-2.0068764635915715	3.0873756330742665	7.430030803994882	4.0464362995981835	-2.06787704899359	3.2158768095839387	6.756938917266541	5.006041037318237	1.9722351978098915	2.610318177308506	1.8973486375588984
488	-0.27455007960620514	-3.2744557774841367	-4.288017738960173	-0.007178340089078963	-1.1277719707625737	-1.6600818592120166	0.4565857339298582	-0.2705970697723592	-0.879907844229252	1.372699018827359	-0.4558304238731714	1.387485739065905	0.17109225647168194	-1.2067475288441245	2.9034278319487243	2.4176058708187393	3.142936698607816	0.49199324722051346	-0.2910669140619559	3.668703069961048	5.0233163706791615	4.0133800405263695	-0.8855366088444047	-1.9119780015356347	3.1731269279474867	7.661116580694161	4.242125977296253	-1.7214986042428062	3.1657872120083765	6.8468880480514045	5.098772989751347	1.9507813404421823	2.6638753346897666	1.9709685991116122
492	-0.13149243560017293	-2.0262100645406833	-3.310665837512344	0.11008822890143627	-0.7730851749928802	-1.8325986815913948	0.4146459092161812	-0.01592772263737483	-0.4305153776266609	1.5798721273588625	-0.565477071764904	1.3712190355013225	0.7615231256331861	-0.8122745135780187	3.1010460775282773	2.3498589933194958	3.262063733448041	1.353793140808075	-0.3057784132389853	3.6098971275741185	4.988304602426494	4.179081429420758	0.28334847021089865	-2.0084595629528086	3.0710539740273397	7.68511770215456	4.2752537619416175	-1.4369138442954201	2.895168773970919	6.711273653252196	4.9920306079712855	1.7741098359138696	2.537360423357575	1.8728157234591558
496	-0.25771707231304153	-1.0416446897910594	-2.2317314091603415	0.11583811760504739	-0.7640234212659115	-2.3319601953757942	0.14176797831028315	0.14996099434184387	-0.09375077462368413	1.4753490649167642	-0.9090924836094557	1.1202753753988104	1.1366852493197819	-0.49409976476852446	2.9786443635123607	2.029494518878094	3.1558723370028914	1.6633615451778572	-0.46651410938735066	3.3296465789652765	4.696159350936306	4.126102913929516	1.0659677955417222	-2.2950847090949944	2.754242174824161	7.436849575339971	4.084024895847276	-1.368167039277949	2.448154681700473	6.337627394887701	4.672028529769204	1.4602473937360203	2.231596464244911	1.6003997285491007
500	-0.5974096044716052	-0.7237770539129951	-1.439772721470209	-0.018370315386167936	-1.1613004178291066	-3.018792860038803	-0.3236600152427125	0.17156158344345845	-0.019243443336181554	1.0614529821299643	-1.4195700848024657	0.6903774720881412	1.159956333092815	-0.3659156849682568	2.516616338098059	1.521738167735434	2.8453314232514093	1.1600147456445475	-0.7541859130891497	2.8801674770117236	4.201313008191533	3.851107826046541	1.1346981496772768	-2.6925682953564594	2.2877681197579984	6.979787808915816	3.7133178617185236	-1.5637367924310335	1.9482723425313415	5.826697334837343	4.217709530672108	1.0850976678155064	1.8266291572229214	1.2269653050916025
504	-1.0310852501586008	-1.1439413995471284	-1.164878127018072	-0.25649833614439616	-1.8810658407402672	-3.6762142088580996	-0.8377668836422882	0.06690358353650995	-0.25181755359968017	0.4589179742670637	-1.9607735822763903	0.2253211134943818	0.8935228563637616	-0.46959668279341676	1.8382319165548944	0.9768416260851951	2.4524614749024902	0.00519740021406689	-1.1229172916671646	2.382874244395808	3.6504058745726735	3.460654011572137	0.49500870579673195	-3.073043815483498	1.80117761634022	6.470643027181263	3.282830945309671	-1.9546440790417436	1.5439293345571534	5.343277440885742	3.7595376873464588	0.7550721745500775	1.4509293996418091	0.8674073793445833
508	-1.4241354429528656	-2.0598850198237044	-1.4321411811910147	-0.5103161918153658	-2.7082555225659988	-4.103862275252758	-1.2113937108926358	-0.08994127787293384	-0.7013788801604934	-0.13360413875226632	-2.3845598637458005	-0.11028368743232247	0.5426902161248035	-0.7565728406877986	1.1695319384610952	0.5611318335671039	2.129217619288549	-1.2874038186948082	-1.4944066963612632	1.9843487689462997	3.213465682499572	3.1089744489377034	-0.5449266419957746	-3.309312335242202	1.4375226461356188	6.086079582107271	2.9245304987503036	-2.401199334757867	1.3488285507479776	5.04074381509317	3.419549933383068	0.5662470445641685	1.2271671264183024	0.626217482893135
512	-1.6861782031402701	-3.075582258088783	-2.0914616531973502	-0.6811304671256783	-3.363701096625269	-4.196838368310251	-1.2970013585723101	-0.21483766978381993	-1.1799566715967014	-0.511557518144324	-2.586838715697864	-0.2062082881489603	0.3274665168600704	-1.1076692314792218	0.7528827767437155	0.3875367929687835	1.979322428474371	-2.1190695709132914	-1.7670732691973212	1.80516135236837	3.0125698967213848	2.919145576736311	-1.5529419144523064	-3.324282160949035	1.3016941514529181	5.949030861139809	2.7251179149489624	-2.76616977946934	1.4037170374715802	4.9977092616739895	3.2649536050380346	0.5678275809256871	1.2212603061359746	0.5550029263789037
516	-1.8117874815020314	-3.8454794786639	-2.8923787997653165	-0.7099031192022348	-3.602978458844638	-3.9737400908278664	-1.0571979257594817	-0.2625390582608739	-1.4899589977793528	-0.5400081263259721	-2.5387351448812034	-0.052825357631588125	0.35868635683099154	-1.3855308259314973	0.7485522012884931	0.4777265477039974	2.014656300226592	-2.1239747947473426	-1.8492286158603213	1.8981717777011682	3.0808055323065524	2.9284427092049037	-2.1962060872895854	-3.121716968284194	1.425668951249775	6.087165340313758	2.700704329347759	-2.973212473038404	1.6719367461907528	5.194463239906481	3.2946481621530044	0.7456557731875906	1.417798396345635	0.6390996559219815
520	-1.8749805641519324	-4.212529648635625	-3.574508896385999	-0.6080154761222266	-3.312484494429139	-3.5512704759582205	-0.583057998138821	-0.24906766351758794	-1.5172816476661193	-0.20439726062667724	-2.2857251109588352	0.26204085283877665	0.5882059320857846	-1.4928282461623064	1.1663144797442428	0.7681546191848636	2.16490744997847	-1.3578395809223704	-1.7018765168137096	2.2305483761738265	3.3650021468081412	3.082318059768554	-2.3823018013888304	-2.7828729082418655	1.7616574719774134	6.4371929006177675	2.8084368634843297	-3.023244611736548	2.064863914998512	5.535028920504155	3.458341589779269	1.0325566504158112	1.7329965786095285	0.8166396001224788
