time	FP1	FPZ	FP2	F7	F3	FZ	F4	F8	FT7	FC3	FCZ	FC4	FT8	T7	C3	CZ	C4	T8	TP7	CP3	CPZ	CP4	TP8	P7	P3	PZ	P4	P8	PO3	POZ	PO4	O1	OZ	O2
-200	-1.0364755365906093	-1.211820003310993	0.1103730720475181	-0.33253666674579857	0.6319524629850093	1.050564882487044	0.8531498887456618	-0.21560987775725787	-0.1789365406287035	0.6243929847211667	0.36855867412021426	0.49205657715542744	0.5616178498393755	0.17967069103654845	0.11581423104371397	0.08946545399489324	0.19501899133558917	0.6946937424286536	-0.023967167302059483	0.12342034994197557	0.3373248270578063	-0.032152365811948615	0.4204010952825834	-0.14096687698536328	0.29908668919391435	0.25767132574829194	-0.12234748869046905	0.22294239643553002	0.8076537231081177	1.2536978689965823	0.7066338044445588	1.4793740473589947	0.9468427872594152	0.6030905827554494
-196	-0.17489109889220555	-0.1898115570521287	0.6088917240028573	-0.14580969475649208	0.7816042284305391	1.2064408033428848	0.6550641043336709	-0.18660743487451123	-0.30880209725616203	0.8450187423352217	0.5145221339586774	0.3272274724328022	0.38934498927044686	0.14169976079450994	0.23316958487768827	0.11002796115513991	0.006636149698877533	0.6992440206039633	0.13176788356414576	0.2658526592695062	0.13407349552636513	-0.2880479686140269	0.26987823775818287	0.41649490489709035	0.48328375694327796	-0.018391901580747872	-0.709667263623454	-0.08212985077626175	1.0159275506119094	0.8781855680228153	0.2830851964955905	1.7019977526608765	0.9169518924450508	0.4787780928444699
-192	0.24388056931910573	0.5721418247082822	0.6843602043993233	-0.03218420214275889	0.6365088804387155	1.124595400831934	0.42329954994140323	-0.1995679731098783	-0.39361020823283804	0.8096755126537944	0.47664052127660933	0.06465299411185996	-0.004992839402020652	0.0808393357143268	0.192243545762114	-0.03162418297889532	-0.23545673430123507	0.32902643001454873	0.26685362986901445	0.24545642671602122	-0.14583070539372234	-0.5746768102441794	-0.05948846027136827	0.7820131758973107	0.5603351578870476	-0.3961036195291093	-1.2232346503845297	-0.354568659364047	1.099651691521437	0.431210337980665	-0.17774288311428404	1.7569246247756176	0.8143686035576254	0.3170814208131396
-188	0.023788614138505006	0.7700870613682476	0.27306428482731787	-0.010902672047208564	0.3156063250679625	0.8680987336175876	0.24759685930682382	-0.2570835047430011	-0.332648783082338	0.5568900094277281	0.26546221904489076	-0.230933799756647	-0.4732943463296896	0.04994403185751741	0.030941918414196367	-0.31118890564552165	-0.48230460164370237	-0.20696005172929188	0.3773046126376379	0.0710800586336352	-0.4449776399821913	-0.8407027104132878	-0.478488801701783	0.8892617799241719	0.5064641820518367	-0.8001826385322538	-1.5533006152036593	-0.589128790798512	1.0453171703649782	0.026487609304668147	-0.5646173343708345	1.64791237891895	0.6696063263199656	0.16591836470198415
-184	-0.6657748801588322	0.4346363533490598	-0.40456232326408553	-0.04871458547929097	0.02362481684978548	0.5771756753654339	0.19380488942806334	-0.32044783153690953	-0.10770564499126442	0.22543224635428494	-0.027789369155340603	-0.4626869547606302	-0.8086466172782794	0.07859167436784402	-0.15215317866534203	-0.6251975282143136	-0.657871781118727	-0.5904574379318457	0.4594043779695252	-0.17278511778599615	-0.6709861738430322	-1.0078123782462287	-0.7835713009124502	0.7589125614079045	0.3376182607232947	-1.1120771141585228	-1.6219993788775626	-0.7450613956713911	0.8574525692271997	-0.24011115669186567	-0.7804014663066532	1.4044252598590132	0.5142937289604748	0.07313819211137196
-180	-1.4111816847458245	-0.1298836019336187	-0.9806749795949565	-0.08482208081525996	-0.06851662678109081	0.3901280452892065	0.2737646095993381	-0.3360900274374345	0.1949177081432103	-0.02529450127056631	-0.28106051612464944	-0.547463475275655	-0.8622769691631393	0.15427501460702164	-0.2517472201190228	-0.8432347157169537	-0.6992665511596315	-0.5996422752499648	0.4972751724085939	-0.3686521640053084	-0.7426033597317047	-1.015150902092447	-0.8071011880524448	0.47167053699617334	0.10582363578781367	-1.2256331412842358	-1.4236910307225423	-0.7777717093858025	0.555108545809179	-0.32774430430634477	-0.7875438312674108	1.064522621328147	0.3646440496775068	0.057982515397307484
-176	-1.7887881949084876	-0.5436823950392297	-1.14813303657573	-0.07142559420910634	0.0770609600386513	0.3706752946554892	0.4425833810122536	-0.2751152508465385	0.4212491799686288	-0.10052873913894675	-0.40008717674332545	-0.4561200130390815	-0.6294133647286331	0.22801105620514256	-0.21163988059969388	-0.8707134701679928	-0.5917698726018414	-0.25154247816473624	0.4646190989207911	-0.42198932064325856	-0.6276215299019192	-0.8567526914900141	-0.5461674914875757	0.12454704163815897	-0.11617278278345507	-1.0930277081549822	-1.0365161869582435	-0.6784229857482367	0.17653833285105938	-0.2576324337176742	-0.6241118892171156	0.6679444892231787	0.21959282402386662	0.09997116004022251
-172	-1.5715415438075075	-0.5627388939954806	-0.8193146565732445	-0.005727426600151979	0.3427903345513314	0.4796092796137642	0.623207031107065	-0.1585398610403839	0.43192651758815553	-0.013909133116056406	-0.35681882410560406	-0.22651621642143344	-0.2513971024364961	0.2431942069350888	-0.05200330527408262	-0.6897828561533632	-0.3773469915399662	0.2100030774536494	0.34379586490615355	-0.30268594546191147	-0.35348984509865855	-0.5871703609900715	-0.1745211924676634	-0.20599883742774838	-0.2588452392241794	-0.7396160345477492	-0.5923342689817946	-0.4897037732158263	-0.21491444056609682	-0.08924404509185345	-0.38003769420994593	0.25907993251239	0.07424779962628973	0.15365959665126952
-168	-0.8118761757379904	-0.19037517857170178	-0.15164402088979495	0.06745354069130279	0.5230104910043546	0.6032299384145824	0.7451009135507773	-0.04885449993196735	0.184966742525405	0.13150526549992844	-0.1918419296666314	0.05717592299450156	0.06798189116241908	0.17165525214248648	0.1446431275530546	-0.3602167060817359	-0.13109344210905383	0.4786250877217178	0.14637877010104833	-0.053918201340205155	0.011188680277828301	-0.2909657053753828	0.07738149146570229	-0.4771274316185502	-0.28069308329285925	-0.24613951084458377	-0.21636359338970093	-0.2823988490127347	-0.5346474634023421	0.11761010408510114	-0.14666092358754146	-0.10760930898438942	-0.062136117212057924	0.18021389796533752
-164	0.21370328908847994	0.3565230956612976	0.5592213258929419	0.08790642745950368	0.44512471444280327	0.6235188230030978	0.776396153397149	-0.009589294878769685	-0.2278836959807403	0.21286000257632678	0.01639454435143193	0.30734479349740546	0.18173165573490488	0.035811249076312356	0.2822221212414219	0.017016576560092273	0.08039262125460489	0.39041644236222417	-0.08205155262496636	0.23478145838111839	0.39133807917973673	-0.03485558918258983	0.09043295658644467	-0.6701399070986478	-0.18268254353176713	0.28759276794302646	0.032225038774907525	-0.10791311385804256	-0.6969339829968806	0.33185431277413263	0.03170339755160182	-0.3705276539507533	-0.1582072820245381	0.175447508249779
-160	1.1402126521886837	0.7891709188563814	1.039834854361669	0.026384115152502725	0.07628834228328156	0.48956823225394924	0.7313787918698768	-0.058869514465712404	-0.6192960127453573	0.16464425581848222	0.19473551164575312	0.4732749748201865	0.08158570507431985	-0.09941766385965509	0.3056657306583219	0.34976991922761835	0.23298141301460745	0.03813897808697784	-0.28074082661320376	0.47267156720032627	0.7340397220198663	0.16617700415617276	-0.046482052536672036	-0.7752522210575078	-0.006779592467118938	0.7748962025151633	0.18351998878874703	0.03721506884238895	-0.6481553299751984	0.5537679777469203	0.17414765015979913	-0.47786381720056853	-0.1712804879394074	0.1742254789245181
-156	1.6513278442652461	0.9025878883461846	1.1607190341254354	-0.08637190588363554	-0.44789191967415903	0.24668832060996757	0.6514228565935356	-0.14911125562691008	-0.7996591905431579	0.015801928897539116	0.30520382446480127	0.5558186159405955	-0.10646471354307682	-0.16164377290922574	0.2281544500789489	0.5888425692950232	0.34952101023166476	-0.2837990515219406	-0.407685755654042	0.6051956399896671	1.0147185300003378	0.34527692111579317	-0.08630894847775049	-0.7865685800720581	0.18019288732810723	1.154760834639441	0.3263570956096671	0.20569866843741738	-0.39828967947537225	0.791020629793026	0.3366346350753722	-0.41194093123381387	-0.0740279031911073	0.22502262833526146
-152	1.5710213144692213	0.667571960194273	0.9635195707790168	-0.16782128768511767	-0.887928066396045	0.01002044321301878	0.5760476574659076	-0.18828657221940054	-0.6741805655624146	-0.13130427863825328	0.3504420808050534	0.5925244077981481	-0.2076009059671377	-0.1118611765063846	0.11857755452258853	0.7325300555808067	0.4735542523825765	-0.27254220774504834	-0.4642851638992801	0.6276571138747603	1.2233611314404238	0.5451393113677961	0.20520539529966283	-0.7094613295762751	0.3130350701058111	1.3872177565836714	0.5406014309585684	0.4528225648891426	-0.030220789758556826	1.0272606585315993	0.5585070238317571	-0.20618978090680426	0.11885047673974539	0.3496957412473827
-148	0.9004113055384171	0.21711176579019387	0.5961391314714254	-0.12773536113437026	-1.0207365725495359	-0.09835083757841682	0.5251678811165529	-0.09259659773574808	-0.2932683818088544	-0.16350401896680783	0.3600074937791025	0.6274148209943601	-0.1084767130258739	0.031432643453393194	0.059316068737951894	0.8073378184916057	0.6316968186642131	0.17964263215009127	-0.4929143177939021	0.5732613787482719	1.346069451748291	0.7718428353849633	0.8622180201696054	-0.5720425829749818	0.3536117663992388	1.4441765510336753	0.8323814847911389	0.7778500894934842	0.3234838239132013	1.2063579528868562	0.8160361030956517	0.058711126298492594	0.34274628671895363	0.5151679502831883
-144	-0.18471944285485625	-0.24811774429620084	0.21595805828883424	0.07738592456114626	-0.7514105420214804	-0.012808046271352272	0.5010757433638116	0.16090714890862887	0.17635403528987917	-0.022263737339195237	0.3703004112431209	0.6851140839445391	0.17831221177857998	0.20268946834888452	0.1007103991946023	0.8420368411739271	0.8096035102430875	0.9018847919581893	-0.5430283532737606	0.4883866595812275	1.358994242098044	0.973860917016793	1.643945332191295	-0.42518883836207877	0.3057124010950632	1.3097411361051479	1.1128375502146473	1.0951628657347354	0.5325650559330819	1.248207327552315	1.0156408522712637	0.2828801863204031	0.5043411838195869	0.639290092761558
-140	-1.3631221021568973	-0.5652887210878894	-0.0697460247305435	0.4089685072110146	-0.16102048714038314	0.24272124407999018	0.503287314097974	0.5119246827552134	0.5399301038461581	0.26315003567060147	0.4073040177075418	0.7609864454129834	0.5303010331116496	0.32607710279154156	0.23544220566910776	0.8495403506764669	0.9548522209855311	1.5333983859448255	-0.6291946752875043	0.4087226976565815	1.2390658824154825	1.0613667938138367	2.1387333815936254	-0.32577070511584727	0.21120622700772537	0.9910033916248491	1.2352591721818684	1.2618032662005445	0.5258106576041879	1.089139816395389	1.033730027449897	0.3868743171461	0.5234830962315854	0.6308321936892842
-136	-2.2343425694320693	-0.6709075553167719	-0.21474657898567193	0.7551639657027998	0.5317819105073553	0.5674903378463995	0.5406777845083329	0.8417140820232832	0.6722632033541207	0.5916992410979609	0.47799900053457783	0.8300226905847531	0.7959470132759189	0.3559774151397566	0.4059391607525985	0.825149891677378	1.0057234738707044	1.734689469726165	-0.7123312336103195	0.34869593293844453	0.9849365924763479	0.9585090851425583	1.996201271739251	-0.31048402111818757	0.12841869858267246	0.5321846590910858	1.074670073656958	1.1522706717963016	0.32260513224214094	0.7239393573603087	0.7843120674358486	0.3417532435371804	0.37307101393922026	0.44218188412606024
-132	-2.434963697007825	-0.5975308403187722	-0.2125121051668124	0.9845507716116909	1.0722765895474005	0.8327416756586072	0.6285660847052901	1.0335289213789327	0.5736467823804164	0.8434353449507612	0.5692471251420739	0.8645292498695806	0.886420068887035	0.29996272845828886	0.5389394746524923	0.7564353923772936	0.9274008250663749	1.395066138560011	-0.7184315305690998	0.30587544960043467	0.6315125807076775	0.6564884765262723	1.1541283101506814	-0.3739280691242818	0.10291971240284954	0.016834011258896484	0.6062222703886864	0.7400941830069301	0.02185581618989841	0.22334657553073148	0.2764662199192842	0.17462384656686863	0.09487203484662607	0.10350601348970241
-128	-1.7891592934259222	-0.4292294968258456	-0.07400297354849295	1.0120962832647098	1.2765465942578036	0.9344431734334518	0.7670823912327062	1.0314393017476728	0.3530207565454606	0.9325056052506301	0.6468004567982297	0.8436484911599398	0.8165839293843992	0.20860305375837734	0.5808067903159829	0.6306675060561856	0.7293415051165976	0.6967002135806617	-0.5893369302175422	0.26878863505211736	0.24117836295271342	0.22933435382162118	-0.08838669188356885	-0.46853607774696127	0.14069040084127069	-0.45389503125987846	-0.06792385859029616	0.13293427195364935	-0.24994030531721884	-0.28986793683300366	-0.376286416295833	-0.05252495022267861	-0.2195206726015482	-0.28504434155976643
-124	-0.43314131985025567	-0.2475077801654319	0.17217418507975205	0.8399586060297906	1.0919134589283641	0.8228731730666405	0.9142767167849959	0.8621571042227987	0.1520917858813784	0.8315679409966537	0.6545690281554165	0.7489710431262723	0.670862732624014	0.13824436033631504	0.5135460482983	0.4338675726426878	0.45282679681891097	-0.005828005712666214	-0.3349187067635882	0.2206284994277078	-0.1263847347883311	-0.20132516273690393	-1.2115529745030735	-0.5303001986466248	0.1977155054584198	-0.7993656972730249	-0.7602297048448257	-0.46765914441291734	-0.4054025699393628	-0.6954972726428419	-1.0020031903717965	-0.27858182717560054	-0.4739965486480156	-0.6014970525814025
-120	1.176642295727689	-0.09392835921176344	0.4594014275396163	0.5530847297055851	0.5932630285543399	0.5030089008029311	0.9784059499833757	0.6099700316287664	0.06296364202099806	0.5632173404778847	0.5219866620236325	0.5533723221159002	0.5268579112102474	0.11489155859550104	0.3483555010106694	0.14629457854051567	0.13751609588712682	-0.4073922921862313	-0.04707704100047898	0.139389037734014	-0.44714331513999256	-0.5342420922142482	-1.7527310803983878	-0.5148181306238847	0.19535410354883154	-0.9943327282596622	-1.2864441839163474	-0.8619673826389577	-0.43922471889228487	-0.9311947203013946	-1.4467997514436173	-0.47091367721872635	-0.6138827189205236	-0.7630842904852015
-116	2.4114577709349696	0.030015412642276	0.6739717704922935	0.2728089683320671	-0.0683042554322923	0.017654154405128852	0.8448734858162709	0.36234238652299383	0.08557476081700266	0.1741373087539567	0.18666152608950834	0.219815194051801	0.3929812004181114	0.12213490872541433	0.10845028581656334	-0.2540856593392693	-0.20698440022662118	-0.43638414034339584	0.14086580240924063	0.0016246709233109081	-0.7438097577389127	-0.7458235602622096	-1.5597965677934595	-0.420603840481275	0.05869507029734676	-1.0769879790771313	-1.5498597582787528	-0.9497491097313254	-0.42137533319897746	-1.0156159375298104	-1.6387046534172949	-0.6277405007725905	-0.6455471499357018	-0.7634870986735767
-112	2.7312230994886018	0.1390204426116536	0.689240692305855	0.09485957002531889	-0.7285011988366756	-0.5686962590164505	0.4325175870465784	0.1601461913118639	0.14860895238549487	-0.284160106656756	-0.36915361788053774	-0.2790393822300636	0.20574799128084448	0.12149767546972949	-0.1813414092253845	-0.7721928934628455	-0.6008350833981984	-0.2776861481808221	0.12985794213410767	-0.20431730099591294	-1.0615535947700911	-0.8970949031114874	-0.8649657346821688	-0.2851591997099586	-0.2360503667593768	-1.1199650736188933	-1.571077462044458	-0.7732282857446247	-0.4428907323622619	-1.0235737536336813	-1.6022560556012988	-0.7577809076250561	-0.6199257358158194	-0.6650040132898983
-108	1.947306628079129	0.236379071473322	0.42753440033735796	0.04652540373976579	-1.2545880047594107	-1.1743339270506559	-0.24736703869831136	-0.01616218682023261	0.17570926204664927	-0.7560634593948342	-1.0843703719417934	-0.926386830852016	-0.10986407073416316	0.09104946977754177	-0.4911199199674694	-1.367721315745444	-1.0623286935687934	-0.22604627850204956	-0.07846420983531366	-0.45933866384882627	-1.4201675617601857	-1.082761523374078	-0.13498434390320058	-0.1578130122015055	-0.6305544360453322	-1.1788275212089272	-1.4503047429661402	-0.47996336100515846	-0.546181736997641	-1.0290478441960325	-1.4205388986961989	-0.8537330605886718	-0.5917816147168325	-0.5518189654723306
-104	0.3429759732170157	0.2941882006847059	-0.08509869106980299	0.0839928982521412	-1.5605571230588733	-1.69840275812497	-1.0661306354308375	-0.21764028017408288	0.14366340600935507	-1.170993563556587	-1.8109673215919926	-1.6331911045802021	-0.5611040578027088	0.05045007156509255	-0.774206755590787	-1.938529486530244	-1.5637167652704396	-0.4727372813210252	-0.3687877645718301	-0.7022829038055194	-1.7731422141130289	-1.3515289987773536	0.21165937131848622	-0.06639131886886179	-0.9906236504339437	-1.2482248513178344	-1.2886818614848554	-0.2295840078756326	-0.684257922829147	-1.0517673465877069	-1.172750231642972	-0.8814823605216634	-0.5810541495911763	-0.4753542530456039
-100	-1.4345462286016297	0.25414064462393576	-0.7105385047139363	0.1283695992566627	-1.6021943051894674	-2.02653002227303	-1.8069915725862224	-0.4753743100085202	0.09605395024605444	-1.439539786519015	-2.346914285456447	-2.2402796688738666	-1.048553464149532	0.05312689752874551	-0.9626980995667964	-2.3342347086146806	-2.0068492838736223	-0.9596425866693901	-0.5679659829105062	-0.8399224260105033	-2.0033066222156966	-1.648217316280851	0.050615951291083656	0.0002712895213761842	-1.1538912028743635	-1.2532895771809018	-1.118130561866628	-0.10227081153797937	-0.73756444267976	-1.0408086750455505	-0.8865793921021173	-0.7961607555315439	-0.561261652483097	-0.4263532746994709
-96	-2.6697459153481624	0.049722812944282366	-1.2548493115214463	0.1155934628906039	-1.372224685065434	-2.0581037946237335	-2.2444570007877584	-0.7622547130413122	0.10344605121720975	-1.4734734259597078	-2.506986850131038	-2.563352578367024	-1.4017946684731377	0.1478346731506562	-0.9840008591603815	-2.4057426391897554	-2.2438714447589634	-1.4000211918769685	-0.5423428998605742	-0.7826085070878241	-1.9676707933338056	-1.8202718450365185	-0.38760486147294515	0.08062403628736108	-1.0029553149650348	-1.0867603989819627	-0.8851203300063444	-0.06345783158016371	-0.5835310205985642	-0.9084766484211912	-0.5359047637760599	-0.5768046960572885	-0.4819099890939632	-0.350510626146372
-92	-2.913290254866939	-0.35242932945917	-1.562300678123441	0.03129781774725166	-0.9075065828299209	-1.751703734743633	-2.241642231049992	-0.9946386192958773	0.1984642292018755	-1.227506753683375	-2.204089874424832	-2.4685938295980883	-1.4722177945160395	0.33330371891747645	-0.7956081608712263	-2.073487038145686	-2.141423219996258	-1.4604867659888339	-0.277754335894273	-0.49241557593000324	-1.5740025003747806	-1.694233890070615	-0.6812629682506794	0.20898723549530718	-0.5297815786337435	-0.6754546744459166	-0.5004237281562598	-0.00625773797094418	-0.180744841238495	-0.596064506456355	-0.08398736992135224	-0.2563683384144692	-0.31004476468962433	-0.19636329958929807
-88	-2.1782016699156084	-0.9056050754570972	-1.586057420540878	-0.08595217742676756	-0.29986858292210383	-1.16425871555113	-1.8166782810120832	-1.074757811693846	0.33814835463026627	-0.7392013650350937	-1.5006344280502515	-1.9440532873662124	-1.2224637239109513	0.5404037223523476	-0.41927617682457763	-1.3799064124554024	-1.6583691793533646	-0.9849280690121666	0.1062826735078118	-0.01857116254945727	-0.8478482940248552	-1.18384372889127	-0.5011681305629803	0.3850576569848999	0.14230057561232898	-0.03918474157692177	0.07609883676627727	0.15715737601179272	0.38313630126541615	-0.13077846136453353	0.45858493331522204	0.07515738885500749	-0.06394629909344537	0.03706654151856426
-84	-0.8963202811499422	-1.460132714399762	-1.3933700287925648	-0.17138317184093496	0.30806669515077995	-0.45482930426205154	-1.142049071289577	-0.9480360126401611	0.42462256443581986	-0.13734641636504089	-0.599208115018517	-1.1262749405081747	-0.7536719422385492	0.6610076410770878	0.049326423431075316	-0.49355462068878514	-0.8915610886952221	-0.11444397241785148	0.42149844659245017	0.5049932586317833	0.05169139044347021	-0.36564746406744475	0.16931289391685586	0.5655398950603387	0.796954450979369	0.6945038420308787	0.7729424814736482	0.4188599575911619	0.9142885185046317	0.3660877039726443	1.0039913628979047	0.30317270679224073	0.18501761508959236	0.2859936051300626
-80	0.3332737973858747	-1.793927426577336	-1.106299278327163	-0.17238265232432765	0.7545132021927851	0.16155634779672218	-0.4728952336292812	-0.6403539760634679	0.3743728687847951	0.39601114292297374	0.2304144346857079	-0.26059043341647425	-0.2527177625474501	0.6107680186110046	0.46941563368536865	0.34587836178238074	-0.05666443691252382	0.7728334049739847	0.5200157152398209	0.9078541375127287	0.8836795665364712	0.5283867107402316	1.0090287898337338	0.6850144845833709	1.2118889062801794	1.3336080279058515	1.4110236132282794	0.6643156392491253	1.2009204595763048	0.7294363361061957	1.4106003010421533	0.34257301601702905	0.3462217441400648	0.45244461183757606
-76	1.0591183874092962	-1.6931657748389368	-0.8136597255191015	-0.07672414909303713	0.9130740142657546	0.4973667847473824	-0.037718225175280354	-0.2527596050079768	0.1877195383339227	0.6984934789188465	0.758366821281719	0.3934325565895335	0.10928676994864865	0.3879463066796789	0.7140210252854355	0.9209398007983246	0.594667254377058	1.264661904956755	0.38428142569794976	1.0581586334215458	1.4234590494456623	1.2060891359395978	1.540981884880452	0.6945476514446779	1.2560877768274625	1.703708286752322	1.778656358996568	0.7359294276730542	1.12161183074059	0.8330696800179781	1.5495972594238248	0.18369899643771676	0.35972976593747275	0.46175619843249005
-72	1.175681230437757	-1.0621036264306898	-0.5147615062114911	0.08033999780398168	0.7476176004607746	0.47598922132479304	0.05873050898386655	0.08410806932671767	-0.03404815113888829	0.6996008140066879	0.8866091348197852	0.6704462153673751	0.26305621795996187	0.08571876563841643	0.7285640221321102	1.1242008180845173	0.8846110679226692	1.1383712262976418	0.1421469744431306	0.9259632802473114	1.5583901365988904	1.452509757189394	1.4119008743878687	0.5912232384059865	0.9493103003375969	1.726438517980029	1.737896795653431	0.5339995609152695	0.7131220680352027	0.6587461216507298	1.3765771354252336	-0.09674243604553612	0.23267452360059498	0.3109489075439395
-68	0.9007966495659171	-0.01471767012039322	-0.14064019882933534	0.2312333577993706	0.3354328266258003	0.16808342891217798	-0.12993060019590544	0.26886522702046034	-0.14539572559841096	0.45067795997321625	0.6792855841652483	0.5658538923282227	0.2591261857166189	-0.15577907820948647	0.5546597228351535	0.994939622751233	0.7879381755962491	0.4743302452509481	-0.006972442829141527	0.5983400329741999	1.3300154175557302	1.2346191375078863	0.6004872306921675	0.4216436435067565	0.4520576584846712	1.4518094026150512	1.3013231721447727	0.09105863399165286	0.15730541904787984	0.3093286446867784	0.963992295215537	-0.36907917167940124	0.039019122621250894	0.07602402548669243
-64	0.57174730156551	1.1190032930732259	0.35881587772376144	0.302772223185006	-0.15958139260055945	-0.24421891508431898	-0.4365391124194206	0.2685513191595433	-0.057816896441636616	0.09452074742294862	0.3166120044343962	0.22504430952474377	0.20825461990706132	-0.23380823374368295	0.3041283182571895	0.6853569728713856	0.43625432142740284	-0.40402835505521334	0.0869662759492545	0.23407736361532555	0.900311527363315	0.7146088462907263	-0.5665292725564675	0.2567695074751171	-0.012079579725165865	1.0267260048693139	0.6348376258080778	-0.429828344690392	-0.30853015106506093	-0.044220585264378	0.47258099794281877	-0.5117142783596875	-0.11823139309834883	-0.12725517121611088
-60	0.4062720824951509	1.8991831493111637	0.9302839017268815	0.24258026419429116	-0.5531784282069354	-0.5588160739141372	-0.6754460913770906	0.12113317816668705	0.18364235712416194	-0.20850664324569657	-0.0016798825193624417	-0.13795359397867363	0.18939061415062647	-0.15084285996023047	0.09688494330025368	0.37552636766989855	0.04471063230074222	-1.114532944726358	0.42952841411863946	-0.019728446329494394	0.46215328457498117	0.16341754752861823	-1.5923376043171364	0.15293554923068853	-0.26326191358856244	0.6179671867980897	-0.01701118606504401	-0.8144432881773405	-0.5106055723650197	-0.25296068127661886	0.0758631600014304	-0.4677559423557882	-0.16083018441125696	-0.20580229111209777
-56	0.38024452232679434	1.9674532363809247	1.3983149493199358	0.03750885268516452	-0.7173168045053249	-0.6547492129961175	-0.7385532241294425	-0.0952658799865657	0.40595793621565535	-0.3600078514069703	-0.1533141281310236	-0.3508771947108152	0.19107751500047818	-0.02021855297050324	-0.005032489063550938	0.18206435396003995	-0.20129911550720286	-1.4086887800890326	0.8676547982244213	-0.1060518396203407	0.1427359875413139	-0.17989022984386313	-2.0705540127929836	0.12453208832293869	-0.24873603817605613	0.33105245148999385	-0.4428928483271461	-0.9088364816607918	-0.4222330440351298	-0.2669633024151243	-0.12083433537969894	-0.2684586339371516	-0.07531950603780665	-0.13892364466878276
-52	0.28931650446325635	1.235550042847638	1.53627383321082	-0.2800039343917061	-0.6319261773367297	-0.5495040998890333	-0.6432979686707812	-0.305297463361507	0.40184992450346235	-0.36626237538371753	-0.14188443088471905	-0.3652911475018771	0.12383794008221764	-0.0017886275846056103	-0.02924350269206119	0.10919166328756905	-0.23818771480982004	-1.2704348532072554	1.1654924124855761	-0.08728290327208257	-0.047276586174812285	-0.2257529640458504	-1.878475422884869	0.14288288318799197	-0.06149326249332689	0.1686308677707354	-0.5537116513577498	-0.6989642960067386	-0.16747468667662385	-0.15500831564868067	-0.12250461398428086	-0.01229939047867164	0.08277353623472723	0.013932704890360411
-48	-0.056210800863444835	-0.037526097053912556	1.1931424110806226	-0.637719808398915	-0.3863094439289898	-0.37885445260717465	-0.5061627613639686	-0.4639701831547598	0.06336328371262746	-0.32002380409504794	-0.0725184602694651	-0.26370394163310074	-0.10192963455214643	-0.20120410570367075	-0.06911470723583768	0.0688943861175623	-0.1416467126607938	-0.8754428603004004	1.1330841751101237	-0.10389611098761124	-0.19138766776878385	-0.06221303328065607	-1.1998167007671408	0.16013804037671142	0.11703418910757417	0.051731545347495946	-0.401797621427804	-0.31049337904739366	0.055926732577743124	-0.054411474477959694	-0.024091426222296104	0.18802083981250156	0.2236502462939342	0.15241377017164212
-44	-0.6441345198580917	-1.3305394615912722	0.4040164639286107	-0.941697475916815	-0.13179601695640872	-0.31126168291660866	-0.45968010905556006	-0.5578399882537598	-0.5281952606216964	-0.3363263002487276	-0.07372631859046645	-0.19141021322561322	-0.48699310298989723	-0.5941392764349706	-0.21993459705614582	-0.04603280860484385	-0.06304065867243401	-0.4559455204419421	0.7322567682852016	-0.28648379372745786	-0.39042940637243007	0.11786380380436647	-0.38553556702550235	0.14161747658260526	0.11694060981551307	-0.11314807803673915	-0.12716156212172747	0.0673826260653603	0.08835510887249821	-0.08268132784949252	0.05645968005707612	0.2587814026497861	0.2737297706845549	0.19468127141914446
-40	-1.2184509008162243	-2.085205311278942	-0.5903537258501984	-1.102986929016068	-0.006219099725727373	-0.44122269638243394	-0.5606031999739257	-0.5859013185013627	-1.119538781200536	-0.4779515552374564	-0.20913803524620816	-0.25240272219828513	-0.9071006752000254	-1.0251719925746534	-0.5103321062554806	-0.27831864286725927	-0.12123540758279933	-0.16770833688355347	0.10128793839869529	-0.6687173826500298	-0.6779863817263593	0.14667104147596655	0.24929577049256743	0.0847382915860785	-0.12892246213788097	-0.3618099382325596	0.133305847308241	0.2876124970803973	-0.10742909434136604	-0.26284840636647716	0.05076710866985241	0.19190220486350834	0.21309724396309507	0.12190013348081741
-36	-1.412014123212656	-1.9692797611108102	-1.4411973916860334	-1.0671994659182513	-0.06710957718833362	-0.7216765266317688	-0.742864070447294	-0.5393050299379768	-1.4112225735320372	-0.7119280677940766	-0.4285071183353141	-0.43012928854110316	-1.1586842507672304	-1.2871561017917472	-0.8684464075096846	-0.5611204490799806	-0.3137446335977483	-0.034527841868248935	-0.5120849596446098	-1.1499071092183457	-0.9794827078885247	-0.008506559745352015	0.5686312303491647	0.015072300992105095	-0.5480145798198569	-0.6374515278934583	0.31898909726668195	0.317876755388692	-0.43341979274994324	-0.5061773048972571	-0.024358255727185207	0.036160983053939263	0.08040884116852344	-0.01729977871580178
-32	-0.972478268075429	-1.0364832851944106	-1.852435345741141	-0.837044236930856	-0.2655354433508124	-0.9785832738011349	-0.8463462569803075	-0.3985835899780176	-1.225055333859242	-0.9223029590208962	-0.5884026870176914	-0.5841556176695886	-1.0645548078362443	-1.2374299733391074	-1.146649357761727	-0.7420161347728601	-0.5045667277948476	0.013102080639899781	-0.8737651087634987	-1.5335864982032616	-1.1438003749579457	-0.22279404047505863	0.6272814854043341	-0.03524074694557538	-0.9651157831620718	-0.8172077515950434	0.4580479550717963	0.2393479490197661	-0.7193950396494614	-0.664623318424679	-0.08829855896591034	-0.13857282663168174	-0.056088521934996846	-0.14240746164130258
-28	0.0575796699560295	0.2993168525291334	-1.7124777989066948	-0.4771180438870218	-0.47017800689244343	-1.0021678184002505	-0.7084110361333396	-0.15106923840051587	-0.6134394391784482	-0.9704908108050563	-0.5309357033676155	-0.527960775949742	-0.5790100679084099	-0.8809229709318587	-1.1929190128725684	-0.6639161689208493	-0.4985836731720444	0.055852506168733676	-0.8731453992733335	-1.6233246285461527	-1.0302685473179505	-0.2912780933178619	0.575959382987218	-0.05009374382365401	-1.190968391272574	-0.7849457840175005	0.6190681441889563	0.17973168148916088	-0.8213419893508713	-0.6210892184788975	-0.05866493642419858	-0.2800547175489265	-0.1411746587765257	-0.19206440400269387
-24	1.3275393214087223	1.4671387635382624	-1.1287699909321731	-0.09593247598030889	-0.5316249118734133	-0.669092057446142	-0.26936411789597076	0.1834949101345211	0.15519994458114975	-0.7710801343523431	-0.17851315393677167	-0.1463059332253167	0.17163793699322294	-0.372235058798356	-0.9324287748637087	-0.25963637167228576	-0.16282024938483208	0.12482805518582366	-0.5665857181549273	-1.326612826812673	-0.6015207156253186	-0.06140844135873537	0.5362753258516929	-0.03781129782786214	-1.1161618204546673	-0.5083547817746941	0.8376266339134858	0.22306546512551928	-0.697475789216521	-0.3646766534181166	0.08508334287381207	-0.3738704910375741	-0.16406096476618293	-0.1602565493113869
-20	2.344343894761643	2.017843002946818	-0.34899341971976744	0.19178920935846067	-0.3565960815486408	-0.02888349808910735	0.36879703309406925	0.5404590950672041	0.7328894715878949	-0.3423283389508438	0.40753140942678584	0.516003845819408	0.9385316944268525	0.06669632328598801	-0.41494557156703293	0.3935375799733626	0.4762165236370701	0.19658715973334806	-0.13455101813677753	-0.7102600914188933	0.033153269356231724	0.45943432930344924	0.5314183817797881	-0.020532071538585085	-0.7618727664785557	-0.07351434212243856	1.0692442628567531	0.35463485032190295	-0.42137420071072956	-0.005552042727310917	0.278338073981407	-0.4366295028629943	-0.15988317091629534	-0.0959050354920397
-16	2.7197065284727566	1.83291089071994	0.38203346632824386	0.30987659018481517	0.044112168141095594	0.6987456661702545	0.9692864989604101	0.8263334015010501	0.8804774858179321	0.1954960669111669	1.0400328609911127	1.2506377665415398	1.4642832242235724	0.26903989843153364	0.19879800031061381	1.0936652394338902	1.2208223312072708	0.2353409224767289	0.22060249690149017	0.023148763866392103	0.6540166719136775	1.0886779996088352	0.5050333129529713	-0.012876049582933853	-0.2643727951527591	0.34709426673040644	1.2033318250792497	0.47437873362935046	-0.13054868545950454	0.2812299423269957	0.40452268617541	-0.49153575177069503	-0.18204256846242955	-0.06826729310204427
-12	2.362875455612682	1.1549081773209535	0.9350575185056007	0.2515946024264607	0.5537542686786566	1.2179906337504307	1.26569556870384	0.9587931012741959	0.5960192069264401	0.6698929054513222	1.4857243261973319	1.775310631084483	1.599822397961264	0.2107145035907311	0.7039130908360105	1.5998648364682369	1.7876064732241543	0.2371888303728736	0.3730060448765791	0.6236937030304273	1.0298629973159226	1.556367154960321	0.39476960797775934	-0.00897262708812558	0.19221813928234263	0.5773119315830464	1.1293040485480124	0.46594801427502563	0.053196899458567176	0.3500990858775594	0.3637185981627382	-0.5458520041035761	-0.2654078000043482	-0.12253140627203976
-8	1.5080426893306809	0.432593761782409	1.3108146157548424	0.0818441955168969	0.9960087512618699	1.2982370820646736	1.096699235054587	0.9096449590604839	0.10923535349207911	0.9295552945509866	1.5728367527352067	1.8724988651683299	1.3639794553651818	0.011878782853295432	0.9388613081116282	1.741356964483196	1.9477397154269733	0.23747125208026756	0.3188973359162819	0.9033592916569202	1.0291036341434012	1.6486632782319346	0.19764475474525003	0.012110603942693128	0.4586551475865902	0.5276941047696903	0.8156624415784982	0.2775099866536332	0.08407763370505608	0.16473774570357638	0.13770031894250126	-0.5844994172597849	-0.40190184014893066	-0.2517977648576647
-4	0.5716028199069393	0.06940298509956602	1.5596095284186267	-0.09093403048206448	1.2111682861266644	0.8935682751029658	0.49931767456827775	0.726458905293248	-0.2512294047688439	0.907648322674839	1.2740581003447138	1.5044696293039963	0.9199203825613049	-0.1441776599820176	0.8514977672059487	1.4954047165308626	1.647219057692673	0.2795259349441367	0.1556076701527064	0.8117331841955353	0.6853833181243097	1.3269691433782407	-0.018044432579616708	0.06702209247118542	0.47867354629779785	0.2454090112212221	0.3525959244408966	-0.03476111582085936	0.0024711075176494027	-0.17994002952444724	-0.18667294037895402	-0.5817161783790251	-0.5417008982333194	-0.3998319198527193
0	-0.06672207249246596	0.21333607977410707	1.6743733840630188	-0.1648098673235725	1.1255192728236203	0.17426371530404497	-0.2941462986195346	0.5136077987101314	-0.24641674694789537	0.6444676502169002	0.720235882371185	0.8380249121488694	0.48474261042279476	-0.12734498051439944	0.5118332492303588	0.9926498507233228	1.037987110378297	0.37022685911165376	0.011650231637448957	0.44252902157635565	0.18093307270622044	0.7528480272358992	-0.16294610459195757	0.14844979308318523	0.2977443329923169	-0.10587212416621604	-0.07380366306744784	-0.3290394536293993	-0.10427848968404116	-0.5062438236806585	-0.45292252187817855	-0.5214881287759899	-0.6190698727236504	-0.49150508518103553
4	-0.23412597120301717	0.6998406034920139	1.5478258093855726	-0.09247561520832068	0.7837454060793996	-0.5485790954090993	-0.9578982567444422	0.38034465812976415	0.1353169527213687	0.2625033550787436	0.13787966931817758	0.1632929738213522	0.22513350787542494	0.05748359844476502	0.06919608247691184	0.4486560512182503	0.4014766206141766	0.4640684116091016	-0.029143076316448805	-0.02514754601924361	-0.24355247555276793	0.20450007863865519	-0.19135740351047556	0.22076471094183686	0.026092503153965673	-0.32638788140861585	-0.26557835869494234	-0.45299139504504266	-0.16022868414002475	-0.6446246488508423	-0.5101692067617207	-0.4121903170669245	-0.5868514165366837	-0.4712041008496612
8	-0.005266167210157728	1.165632602609734	1.0371546719114655	0.09484972035779463	0.32855349696177244	-0.9711801385201433	-1.224376675375543	0.3821852793581035	0.6731260997943554	-0.09150481946015372	-0.25781133705851583	-0.25029981073127394	0.19123686801788287	0.2751363508907357	-0.3210842899322142	0.05916153624618126	0.006914263573713474	0.4903774845140216	0.032797295517370643	-0.41583955182943955	-0.4047209610257547	-0.06716067326993831	-0.1287911978092558	0.237814574833307	-0.2191534036825307	-0.27836811472229794	-0.10902827205549102	-0.3259687117452912	-0.14042018318486368	-0.5165287839246194	-0.2872393124004008	-0.2854504876082405	-0.4399102021077936	-0.32740744865724714
12	0.39247387548538654	1.2658224073876017	0.10127783541143137	0.2999544136103637	-0.06749765557890579	-0.9462824439952964	-1.0114169095252752	0.4874950337022836	1.0437034342164035	-0.31129291575039214	-0.362292706051699	-0.2850900583221937	0.3135929695795002	0.34837883622904003	-0.5641765580238333	-0.08759743698176818	-0.019650218958714497	0.40062868493974274	0.12727604774289075	-0.6307076199820182	-0.2591265135421643	0.036419473496516315	-0.04562854010267545	0.17341974333847865	-0.36254432705898304	0.04879124822814947	0.3693283190939333	0.018885664594175428	-0.07159113120839085	-0.16674525993686543	0.17336390868762627	-0.18019829644960694	-0.21594259088355408	-0.0925432143259059
16	0.7314946632990276	0.8679556228658432	-1.084949490668969	0.4043083478733388	-0.28401955890473046	-0.5560598359373925	-0.4581496703978487	0.5913782104820112	1.009887335134911	-0.3727898588305246	-0.22342629674291728	-0.02259534591692074	0.45442446951575916	0.1747674788592535	-0.6546086056394474	-0.03772177165163554	0.25451850826853534	0.20133723267744047	0.16728599327290256	-0.6718000156607405	0.08822374023574493	0.423540561321944	0.001307581780902322	0.044070608802630876	-0.389953820912968	0.5388747440084296	1.0180948946997601	0.4545807230916434	-0.0013962708145517828	0.2677513652240325	0.7384474258852333	-0.1227822449683631	0.024336321217963242	0.17780633225848724
20	0.8952400661754051	0.1176165860902041	-2.1342921203133347	0.3251575819389132	-0.30920109074728114	-0.07160542887252025	0.1468952145444008	0.5718548283444134	0.5599867687392149	-0.33678460036124847	-0.006750660931411553	0.31531253377460633	0.48253610608342545	-0.19890545258371137	-0.6598284227878287	0.0711449382893094	0.6228923781880901	-0.05139536770123092	0.10410021964254865	-0.6163599475557792	0.44859105235328683	0.8773787595531727	0.01334666364250521	-0.09419048553766261	-0.3392523518580087	1.0109264825093014	1.637854810394233	0.8274198153586282	0.03673993041776153	0.6305960400872803	1.249527808849335	-0.1165040281453774	0.22443199101051214	0.4315955031942311
24	0.895811972740581	-0.651365755343985	-2.6013178759701456	0.05791375398915208	-0.24113155840552172	0.18363846792110017	0.509988485479218	0.35937815813883045	-0.08405405261752635	-0.3142320505791684	0.0953735557770806	0.49507066482481954	0.3341577938703067	-0.5939692243838558	-0.6736465079465754	0.09383514499815068	0.8613731243320474	-0.28860688136667456	-0.04916430252298587	-0.5645791873982745	0.6490654928986207	1.1805101603266883	0.04880842554167231	-0.17566491619104835	-0.274604439042103	1.3073296513929133	2.0744223542291396	1.033143517746788	0.038302995167824413	0.8187018016172113	1.5937390287215571	-0.14574515782752445	0.35197138697451685	0.6376501305693484
28	0.8048403242771777	-1.1071556778611338	-2.221233839149004	-0.31611749450026566	-0.22928002418804558	0.0005063427948647517	0.47621187447478935	-0.01728097158777748	-0.5876088723605769	-0.4092867960133115	-0.03580255052348741	0.3980789770566232	0.035510901272047465	-0.7980602959510948	-0.7649617175815968	-0.04335955891986838	0.848171053175499	-0.46668547274064726	-0.2335304760997309	-0.5907523617134497	0.6142383202303557	1.2270047633663441	0.17351801649630397	-0.1648597415099624	-0.2584068768652856	1.362324115174659	2.2785484733274184	1.0606336566849504	0.01654051798876346	0.8188893178292013	1.7436368421400985	-0.18956239473643544	0.4035992314162363	0.7874316553262267
32	0.6705254895447262	-1.1004432412020555	-1.0952229472165174	-0.6617348177415117	-0.3859235932620105	-0.6050854906064003	0.09906949822923987	-0.4361180950121126	-0.6863994581058751	-0.6669251901954483	-0.38837793371373014	0.07407431285752837	-0.31617194334313053	-0.6899123770461331	-0.9480170583631704	-0.31189083974294685	0.6130558832902869	-0.5766442403539582	-0.38801127574232	-0.7209482770837418	0.3876175572622502	1.0572588417062885	0.3998307873644714	-0.08150909075423511	-0.3314182451940569	1.2155276506252406	2.3002734126188815	0.9808922385246143	-0.02129373135256956	0.6933145505566779	1.746718879104363	-0.23574453532780643	0.3949073543114875	0.8835579134567918
36	0.47649812578060047	-0.7424246054024746	0.29720002337760226	-0.8492327907102024	-0.7134248596298972	-1.3941291535465075	-0.40034708279621234	-0.7405374031443609	-0.33444285308322524	-1.0482081148385753	-0.8335987308436688	-0.30517220420082775	-0.6009921416367849	-0.3194004289192384	-1.1840634316113572	-0.6106943472702483	0.29314267561334045	-0.6270643456839656	-0.4916267084583926	-0.9384294724613208	0.0875486505801427	0.8017744401716065	0.6536841376013152	0.007972222732741202	-0.5019827472410687	0.9689921712252524	2.226041788203027	0.8901792146142384	-0.08687288292170786	0.5284140096674698	1.6744483667059569	-0.2852546565483254	0.34497204335853676	0.9256268716330486
40	0.16662441151988844	-0.33332407390361585	1.3011274304918246	-0.8139157274677654	-1.0876015397269094	-2.017827267320637	-0.7570929508167955	-0.8223309496144877	0.26999309590837506	-1.443521257570669	-1.1990884512191138	-0.5576971755252386	-0.7312479596749251	0.10948811443819158	-1.4063260519761014	-0.8332406261387624	0.030537571680931887	-0.6253085120626052	-0.5725938663331175	-1.2014135091966418	-0.17094631449931788	0.5771533236236995	0.7913491705941985	0.03148367620506298	-0.7404642682454061	0.7182598095879354	2.1035270637809016	0.8414084294056468	-0.19878633270142848	0.38005360865006077	1.5641757210340512	-0.34393376025149325	0.2656562619654671	0.9030123330205586
44	-0.2826797359005296	-0.18526121927217432	1.413536425836376	-0.58567768187473	-1.3119909730211594	-2.1864578668704717	-0.8004824498947171	-0.6825021488124312	0.7929600457198311	-1.7186056332112918	-1.3610751594511887	-0.6006559714411005	-0.6896542293302627	0.34544303926036274	-1.5528602560891704	-0.9311158037519113	-0.1221571114555371	-0.5813597426041682	-0.6797999722483612	-1.4583114348786035	-0.3414480379543786	0.4029423882324699	0.6596573574577552	-0.03707801913794485	-0.9793582533905478	0.49797394745985396	1.904498453100234	0.806274531236142	-0.3533803215641603	0.24414485631337254	1.3901731932827526	-0.4087757159879753	0.15970003564568533	0.7982249239795488
48	-0.80452292954455	-0.43973293789467915	0.557324646496333	-0.2753823094567803	-1.2198573320107935	-1.8101572944715403	-0.5375138507623538	-0.4379889655975991	0.942472932343385	-1.773067827516537	-1.306001421492092	-0.4938899862217671	-0.5393365011903387	0.22800697328698574	-1.5890582759791634	-0.9371738410176526	-0.2295639807150386	-0.5362001643948209	-0.8337128141334809	-1.6530758100735161	-0.46177768590687734	0.19376680206014804	0.16774548547831594	-0.14574886821665237	-1.1215175361927934	0.2741029553645514	1.552536960496725	0.6904910189361516	-0.5004557358504234	0.06775821728288355	1.083593723422331	-0.4587585318426921	0.027275679564156885	0.5996004923940828
52	-1.2453671662359382	-0.9830233429885331	-0.8563827850654719	-0.023612329676736564	-0.7715112547469151	-1.0405485603764075	-0.13928678596615998	-0.2672813527988428	0.6205578430720665	-1.5850640495335595	-1.1298972339713194	-0.3944959630542864	-0.3996001173897731	-0.21740479712433106	-1.512062307354895	-0.9370543933098242	-0.4191141415981648	-0.5837841615242861	-0.9884976719694627	-1.7258528427419446	-0.6135320051915507	-0.16841924147999468	-0.6620974523994095	-0.17440247491673175	-1.0606557104034615	-0.0146320899579053	1.000566599227047	0.39630648393709017	-0.545315562301952	-0.20735946245292336	0.5924150332752613	-0.45659926418418806	-0.12394408105313344	0.3170511714559925
56	-1.435902591894714	-1.5083993635241162	-2.129815573083426	0.06559453888067725	-0.09460486447767552	-0.19578337619942007	0.15713664849662443	-0.3200223139789323	-0.028553109543951512	-1.2227606742504726	-0.9806998347317651	-0.45469432954429845	-0.39610847730764626	-0.7812863568607545	-1.342336770483301	-1.0107197736017424	-0.7822269777575802	-0.8520020224994754	-1.0355943415244748	-1.621661658961118	-0.8537703134915624	-0.7295683603940399	-1.686762686285462	0.011069865869349134	-0.7145134192546818	-0.394037901360344	0.30897566598130977	-0.1015116569817143	-0.38351455234020576	-0.5938838109281083	-0.05309168981022364	-0.36208531169072666	-0.2720779173657426	-0.007368502188496712
60	-1.2908916440796792	-1.6920244651036593	-2.6485879354363715	-0.030635580343146673	0.5570589885952397	0.38745453855920114	0.17173038379703617	-0.6417671425828798	-0.7010907513083767	-0.8193987587268102	-0.9806582902944616	-0.7289757114125345	-0.6068645104345197	-1.1725503176649001	-1.1128939362084624	-1.1830574244193781	-1.2975378003739344	-1.4297900163791408	-0.8557701685280171	-1.312258001829079	-1.163413164062481	-1.3973385060316907	-2.6756560734905896	0.48566016432215053	-0.06140115469092997	-0.8094346502848652	-0.33132588779721056	-0.7104932647886659	0.04856289910930117	-1.026186821254037	-0.7091264706827723	-0.149866103747601	-0.3804972162176816	-0.29993912501901737
64	-0.8826215840943792	-1.3965270483997674	-2.2241623345487147	-0.2557822757461949	0.9070788599000926	0.4965131866317091	-0.13897430861671392	-1.15675997442016	-1.1015781136357137	-0.5246167169677064	-1.1735742062502668	-1.1482969493484485	-1.0291929219010494	-1.1714217633235722	-0.863118109908086	-1.4145010674049854	-1.8282526685332146	-2.280627483331935	-0.3986298431822466	-0.8229112008299112	-1.4454563819630613	-1.9621661851934065	-3.373741618221623	1.2106732099484099	0.8363368490084475	-1.128413912785184	-0.6576368196096156	-1.236537811018362	0.7374123316266772	-1.362879988090431	-1.1464920014999171	0.17826677813821462	-0.40275844829915747	-0.46846446276644443
68	-0.43802246340787826	-0.7897396663753923	-1.223648068199648	-0.5206390010086636	0.7749459723934251	0.11208745808912246	-0.6819841248459961	-1.7170726017515394	-1.101906535227597	-0.4529996800906455	-1.522671099633103	-1.5745515783610653	-1.5870916803344093	-0.7522749285778307	-0.6383504851436911	-1.6360675055205107	-2.1996526662603757	-3.20754360342822	0.2578545206235466	-0.2458363765231827	-1.5761650760910613	-2.202220672769395	-3.583489885819501	2.028827423695452	1.8377658082339277	-1.1939171522514571	-0.45584249381370795	-1.4621888362207427	1.594015713481906	-1.4250205719255453	-1.1324795455950487	0.5940929636260971	-0.29094254897094607	-0.42613062154947456
72	-0.2546808415181713	-0.29973596258781343	-0.3986908783383425	-0.7689911107675295	0.14993546865278326	-0.6238562448963194	-1.3013122048901618	-2.1926643793059735	-0.8077325800529565	-0.6515258534194475	-1.955780978033319	-1.9002767753307412	-2.1753072683726233	-0.10989220412642611	-0.4895912396467745	-1.8060810520349324	-2.3122126997744066	-3.9145340820662144	0.9094174481319507	0.2759576432890222	-1.4809229336542176	-2.015728468574105	-3.241551152628248	2.7182891300235763	2.7618417670138364	-0.9009326077603065	0.31849226275141107	-1.2515017954700225	2.495415919679295	-1.055824157910167	-0.5306336866333012	1.0573627922065143	-0.004146885582020555	-0.11801033437259621
76	-0.5785742983515572	-0.4214482296793537	-0.4965484427790048	-1.0234950755027763	-0.8172301033367778	-1.513190384859066	-1.8785062980907847	-2.5516512329528416	-0.5003845083000966	-1.0976825924816085	-2.4256248412879953	-2.1295854991551737	-2.7176437309315777	0.4246901561028245	-0.46744611741302794	-1.9511011789652395	-2.2199056092481824	-4.155037869453386	1.2977520194667163	0.5936626776965499	-1.1903650730596806	-1.5022245607595548	-2.4651079115618453	3.0819549482734994	3.4459865006228405	-0.2574029856381906	1.486972685874356	-0.6284992082940208	3.342070332672313	-0.18098889245591165	0.6287754162172127	1.5347768029564208	0.48251792666681487	0.4583131659380548
80	-1.499468799619967	-1.4625358544617488	-1.8651527119275997	-1.377453442910509	-1.8912560892039192	-2.408215278267375	-2.3951585232344224	-2.8783929275319506	-0.48297479626786477	-1.7195578770138193	-2.940499536719629	-2.3827936589162753	-3.202951900024896	0.5417739735276295	-0.6060877427057679	-2.1590480749932635	-2.118012422936224	-3.8839833638358523	1.229296681161461	0.6121014341159083	-0.8392676689892987	-0.9358645653938219	-1.5370151957806646	3.0341055316615195	3.802847614223806	0.6057126506771434	2.7027919224211017	0.2158624822411782	4.099627961298604	1.1540358037422234	2.1447725241870206	2.014645809809138	1.1697448462516953	1.2476270167322467
84	-2.908505670833609	-3.3599212084817363	-4.256621350031873	-1.9331603001424327	-2.855637304725634	-3.259825221414508	-2.9223360941537933	-3.317080966204033	-0.9155837870369754	-2.423538917144702	-3.5442116171045823	-2.8176815438656524	-3.6748230364525547	0.10533791008818476	-0.903255698784562	-2.5242533620045586	-2.239153379509035	-3.3142342483767475	0.681551931567821	0.334803371776239	-0.6049582346901261	-0.6356489046260673	-0.8179234841676993	2.6432962350865723	3.849744071777523	1.4814544878749825	3.5957503228002654	1.001753446910818	4.800862300195883	2.783118717796299	3.714242448965945	2.5086822446427486	2.0274784513783013	2.151462787918298
88	-4.532825458526419	-5.671440587029866	-6.9353465858834875	-2.7224390438009407	-3.592800608147068	-4.0902233020511085	-3.5502636343012166	-3.972220887645667	-1.7297064022262338	-3.118421546692172	-4.260711182327455	-3.514138451286955	-4.179652680334843	-0.7789786438348122	-1.3105559315971702	-3.077525846340712	-2.713984005751609	-2.82543324710841	-0.16312009054961765	-0.13305658068441964	-0.6184371694209571	-0.799974916345736	-0.6089441164854826	2.108144754809282	3.695247640816881	2.1656913702645766	3.936501969889169	1.4865750036854186	5.505658612655945	4.454817760664287	5.040504442840356	3.0376536769467504	2.9904246254760265	3.05486630622153
92	-6.028999790228678	-7.752540568805623	-9.031886077965723	-3.6537239459296527	-4.1024379626648	-4.917781340580622	-4.302078713045766	-4.820731627690884	-2.6602821282931988	-3.727331152088417	-5.039588915498918	-4.390822399497735	-4.701044547609763	-1.8092102958777398	-1.7413619712733446	-3.7425732518118973	-3.473932257464516	-2.7552850176865182	-0.9810819601084554	-0.6261222346710243	-0.8938654638610656	-1.3929711545107348	-1.0111575101118677	1.6766194062817745	3.4900662810901633	2.532158129974713	3.7384555245426303	1.578962202854019	6.244994147746089	5.8963680118465005	5.934031948366398	3.6091780571413636	3.9608871836795307	3.856395234861927
96	-7.0961370288979415	-9.035933471754332	-9.951007817893698	-4.521342742948721	-4.45566748447806	-5.690213189063768	-5.084896074808356	-5.688991055430379	-3.377855053956477	-4.188730706129794	-5.741314873505062	-5.207744108403224	-5.124437319215359	-2.6231009893947625	-2.0951921886951337	-4.347727764596773	-4.254781235443013	-3.1893646636547817	-1.4460558854786985	-0.9851722096365502	-1.3140505519115282	-2.146222585981455	-1.8536720229078187	1.5441691836471239	3.365430584993705	2.5710864002163945	3.244774810228141	1.3818290198724232	6.98344038153843	6.887220842139027	6.361237986716517	4.198851097949945	4.822100150331471	4.489149559131075
100	-7.566005687684782	-9.278306937634097	-9.623385405085612	-5.08170937208813	-4.71825598479165	-6.274183734311797	-5.7107863282025	-6.314285739215432	-3.6470715907523563	-4.45503662891935	-6.179751857413984	-5.6618652200801645	-5.2657346592516845	-2.9562628194557097	-2.2896201552757836	-4.69289015538792	-4.707330691850484	-3.884497155872519	-1.3761651481215864	-1.1174226971070627	-1.6817027287939648	-2.6809983185790305	-2.7449672152833693	1.7762908890699842	3.3859205160485404	2.3764545857511274	2.8038358617564443	1.1354119749013047	7.622770290202597	7.3177108579893995	6.4227866964305065	4.746073710856671	5.461118207494961	4.92487667747677
104	-7.438572864825366	-8.647467591387459	-8.478790261796238	-5.164327608421287	-4.893630969090082	-6.512652857550052	-5.979255184336205	-6.464489920507345	-3.4315299901155165	-4.497730243771276	-6.204799159596839	-5.529748902664703	-4.9588546627730645	-2.748110525822308	-2.287713521903522	-4.639506328313228	-4.561936366961222	-4.385914791477899	-0.816074190463567	-1.024013635911013	-1.810958380895299	-2.690265171888153	-3.2392177500004724	2.287739509528578	3.5344455152920813	2.093589539010459	2.6956853798517635	1.086446520923368	8.043491343217527	7.212874394325864	6.278999312760332	5.167263494796932	5.796181664138021	5.162967668849525
108	-6.856410962913836	-7.605433921685576	-7.177654725072744	-4.757616031078994	-4.91948507974258	-6.315547927170009	-5.7769918295917435	-6.052477821327849	-2.895314686140961	-4.319050301137683	-5.780701145836041	-4.781400191632959	-4.158613671293723	-2.1503646319457292	-2.109445566573576	-4.1764273538048995	-3.7622806930920967	-4.286358822490973	-0.013235474903247743	-0.7861174325168923	-1.6119623143505966	-2.087886805031327	-3.053555004039782	2.8842892573968246	3.7309386635996944	1.855834360205521	2.9965393467588064	1.3480254377663017	8.159969309232043	6.712891561725894	6.063359245250571	5.381657586815453	5.799084648749832	5.213396059225135
112	-6.036422714251685	-6.653144342791048	-6.266952498825903	-4.022089948036117	-4.714249122161386	-5.722217068530085	-5.136037813570837	-5.183249460485331	-2.3075814188870516	-3.960136165157257	-5.012494551401065	-3.6018540768284337	-2.9994108601182554	-1.4418196641759173	-1.8218189431924026	-3.4249474915817206	-2.498005383860379	-3.4759726436593152	0.6991009694568635	-0.5212939964484465	-1.125593182582955	-1.048843619559566	-2.221084112281706	3.3453662311014916	3.8712329766762714	1.7395619110056724	3.548950663189419	1.8274664832706122	7.959242323807433	6.018484100405375	5.827332958767623	5.3411598070715085	5.504424558093631	5.085651384865042
116	-5.187688337579837	-6.0767373885273415	-5.937202438623286	-3.221975556821959	-4.243685711636798	-4.894649016420275	-4.220476139857017	-4.109179009553299	-1.9076440286156686	-3.495836725945589	-4.102410306109695	-2.308235401047876	-1.7656549170738272	-0.8977536536438818	-1.5127407274200158	-2.579943650407655	-1.1197253437382118	-2.226184600931548	1.0525492403158963	-0.3341583601144306	-0.49346774691924433	0.07721119354542837	-1.0885093184645467	3.5090081603148002	3.8665916822086195	1.7530215934362896	4.04824828079478	2.2639512958587793	7.502344589365285	5.322093950186051	5.5385112622617205	5.0493216387104285	4.999876963389708	4.789239394494026
120	-4.446253765324581	-5.832990154798262	-5.997657283899119	-2.6065401965136012	-3.566001167830819	-4.043025006577011	-3.251743785277685	-3.115102998498036	-1.7987357332592269	-3.0135962887018257	-3.257437220932256	-1.205528971489413	-0.7785656432522062	-0.6777778846794614	-1.2600471941606055	-1.818788404641094	0.018409408582461293	-1.0471879217411755	0.9533002352487879	-0.2841216020563283	0.11715514928325983	0.930768785510905	-0.1487833406745062	3.3244392787922665	3.66855978039537	1.8556355191110523	4.1962432755383166	2.3587500989489034	6.890339833982959	4.750988471433862	5.1244187225662365	4.560255992819957	4.399686325409194	4.342720020773967
124	-3.8519177339577038	-5.631813035097445	-6.058058723413368	-2.3008937777601375	-2.8225896287226453	-3.324950209805991	-2.4106712280444995	-2.393013948120818	-1.9199964951677335	-2.5807204181364067	-2.5953524047175067	-0.4552890348860434	-0.25237637694536097	-0.7808479646995384	-1.105251309465368	-1.2247616021705305	0.7092826944563342	-0.3991690267975235	0.5009353148210753	-0.3774028708943021	0.5933290108959397	1.3015022244972259	0.20706090278799724	2.8536786961032594	3.2763450063001676	1.9921686599025086	3.842911948992038	1.9309071253663221	6.218513473069294	4.344271648882843	4.532671916961865	3.960278024211464	3.812382688433741	3.783421030029079
128	-3.368322840769484	-5.1548938621072145	-5.781667217916121	-2.258656019230303	-2.1766037886025043	-2.7766554285517526	-1.766927595445858	-1.9694491575108342	-2.0971901363829604	-2.2148282472004546	-2.0985417313044747	-0.022185049895064642	-0.1916230465104076	-1.074639436869621	-1.0397220823740385	-0.762962816219456	0.9642513370010768	-0.42702272426557547	-0.08454254248254975	-0.5771116599771067	0.9210519767395087	1.2049436538791964	-0.11075406493596049	2.228984827136026	2.7323639323867224	2.122699016933791	3.047139875348093	1.013527033154286	5.545150265998621	4.0682215587900075	3.771993865980171	3.339521638068152	3.31295632479599	3.167148582091609
132	-2.9307589456950276	-4.273319233595672	-5.066666113459118	-2.2985496462963293	-1.7309392646956554	-2.3129789770857045	-1.269580957068359	-1.7194610790709486	-2.137009615271073	-1.8727714968128442	-1.6381393629676724	0.2801922850687208	-0.388515560838169	-1.3723961080233753	-1.0048835252186503	-0.31654429355810226	0.9772773956420479	-0.8827878810528826	-0.5777408466057672	-0.817329225860789	1.1761585444319134	0.847903785949001	-0.8548433759087446	1.593952294140025	2.115028137589144	2.2380108776808645	2.036092753038071	-0.16056406457416794	4.8910870428574915	3.8589935205304156	2.9162938521188773	2.7664499212990767	2.9300436899595286	2.555883877976945
136	-2.4970641073124624	-3.1408345620011855	-4.065465916859709	-2.204768890536399	-1.4705412350720304	-1.7937831833373437	-0.7981744388455515	-1.454818602703584	-1.9158427666931133	-1.4667237960023838	-1.0537518236258483	0.6741529090073086	-0.529413817976408	-1.5151995382200822	-0.9070683694826386	0.2392228835741819	1.0088971827784021	-1.289867993912891	-0.8422574975683285	-1.0143061850688229	1.4711644612362282	0.5113441335165668	-1.5944755037105425	1.0560305091898583	1.5298522672175114	2.3583750665249235	1.094883915997891	-1.2738397089268083	4.264969338139458	3.670182457240638	2.0771164841661856	2.276847595188402	2.6526501111768477	2.0014836737644885
140	-2.0727014489295295	-2.1076700634194894	-3.0527510565930815	-1.8353801919374606	-1.2638421026745839	-1.1142997713565854	-0.24062617062374717	-1.03401398397689	-1.4202578031921478	-0.9030417777150033	-0.24410279033542853	1.2984709706901818	-0.3545985212910041	-1.4224195444434038	-0.6451496465606984	0.9666140055093634	1.2556835381276163	-1.2462105719573806	-0.8621914961027473	-1.0770390006529302	1.890009517666234	0.4180199493344631	-1.969700093064705	0.6678557379073322	1.0950556965837	2.5206165250081254	0.4495069373225931	-2.077213282109056	3.6925578024142482	3.5009601027789676	1.3639316524401928	1.878311748530729	2.4492142138633257	1.5338430365937272
144	-1.6938433604390328	-1.5057123861444255	-2.2517559471499458	-1.185781237469447	-0.9234510636856611	-0.2640730135926181	0.44748392588170155	-0.4341993618969924	-0.7310658078809513	-0.12546826867373972	0.7804012874927194	2.1475789492745396	0.21087777561351986	-1.0977117987574747	-0.1429505791631247	1.8356420947459424	1.7717931225865888	-0.6824933869296713	-0.7058320623697093	-0.9223536229688274	2.44630550720563	0.6515256150008689	-1.8968266200812733	0.4376469541467414	0.9178331471158301	2.76235126751609	0.20054742643267703	-2.4983224805697835	3.2288148321647987	3.3936905775218427	0.8551040866243339	1.5649565418786375	2.2889463843729434	1.1615469426392753
148	-1.3861341441443906	-1.4358775579439715	-1.724519725260264	-0.3810479333316934	-0.2985050670716645	0.6757773143872711	1.2291998832185902	0.24809159275837167	0.027123195982045226	0.8565559365581072	1.9070571612846918	3.0946068685601595	1.0213158104860007	-0.6010739192092104	0.6225022061843755	2.745680086833083	2.4741115507603046	0.08556918033214966	-0.45605775598777076	-0.4975409495189763	3.0836038511624024	1.1574926347118895	-1.6054633815285648	0.35607620983822236	1.064054605658552	3.1079311292381893	0.3296262017510868	-2.6493546895848263	2.943337909896667	3.4057595643840717	0.5901084527375668	1.3326086964340704	2.1557257121018716	0.8834175445187001
152	-1.1286908359641112	-1.693023081319705	-1.375179048880912	0.39136838814152847	0.6463382823838082	1.588438626093643	2.017323250445689	0.8594729282614054	0.7384622674417448	1.9669667432714961	2.9823501034779802	3.976737727615342	1.7882437660844837	-0.012816847269660167	1.6069290597398913	3.5816333203487245	3.214901200760718	0.5509642348684095	-0.1563903089389537	0.19448319028389474	3.711830606625843	1.8093843414400446	-1.4841458759983752	0.41759160055586625	1.5308273992035748	3.558041325169031	0.7565203289958841	-2.736439936404752	2.885991566047312	3.5719516187130123	0.5771656021804923	1.1835150688808083	2.0483829923411476	0.7004430276352379
156	-0.8449352958327468	-1.8680338812394783	-1.0483014557120578	0.9727793907400741	1.8069038345493345	2.3921806751889623	2.729799025319224	1.277958866707546	1.330294486501864	3.0905628126316493	3.889249553397752	4.690435397703688	2.2329251709828895	0.5925247058213712	2.7071535518961736	4.271626461688324	3.8734767339185314	0.3397080591684884	0.19691355476731404	1.0826901170098173	4.256478298884773	2.491120332150467	-1.8242769195274444	0.6228554829130672	2.2371487561010097	4.084167946994375	1.4015128577133513	-2.927669040917672	3.0543255728854932	3.8775381944032725	0.8027125576733578	1.1188995809915785	1.9696412036758157	0.6182842239028495
160	-0.4338322270884253	-1.5670407970918812	-0.6392554028583863	1.3036195006835918	2.984745971773323	3.0832319181799432	3.3357117091837285	1.4779059849618834	1.7824097826778875	4.118853081794499	4.600274074383959	5.244963632692798	2.2335717621677804	1.158591505940194	3.7952148818517193	4.818176734203681	4.41708849745388	-0.5322367535504879	0.624257384154645	2.044291252696937	4.695038783617358	3.1510536591128355	-2.617327921934973	0.9669915413284175	3.046797983106525	4.632719028220501	2.21702980435432	-3.2561933912082233	3.385885468517501	4.257644165733636	1.2338433234534485	1.1278518409863711	1.9143569421119038	0.6384954436394188
164	0.173877134480169	-0.6293726547563542	-0.14175368809673433	1.4426033460434455	3.9794924158713267	3.72861455929648	3.867802610168819	1.5391421279194597	2.118829960241899	4.993959891108505	5.182205663948659	5.748589978009399	1.8918750238337043	1.6515140491750544	4.767496573809176	5.290978418343224	4.9033555860699245	-1.6298679072237852	1.1244857282858243	2.950168840589259	5.064688669769042	3.804586162498225	-3.530007830290468	1.423854585867393	3.8191668890849475	5.141316877735975	3.178587190232285	-3.6100060848644926	3.78201769827603	4.623374927291944	1.8149032546951536	1.1816217869489427	1.8660634708974684	0.7454906683219796
168	0.9703867410955412	0.7843020538555515	0.3861810853267901	1.528847571327714	4.679833877192124	4.416044224080053	4.397689331395681	1.5983045060812462	2.388090127637644	5.7279982422215445	5.75327585675123	6.338852866381189	1.483360286782219	2.0589396901599533	5.585075364317009	5.7878260466359235	5.430229650138865	-2.3265733660131738	1.6552503067187219	3.7181012536589613	5.439471707915824	4.494433391667783	-4.0815400974221525	1.9387828062699	4.464378822499279	5.561686978603354	4.25126026987573	-3.8112141989805144	4.1501426591996315	4.900488364244888	2.466986888379001	1.2397512166193798	1.8039832069627142	0.9001391507310598
172	1.8638114882142502	2.274600738504622	0.8990131593894507	1.7095830397358418	5.108262526012789	5.1953697073419365	4.989757048406713	1.7727988913599895	2.639809124957437	6.389300330243079	6.419093115812391	7.099138718801251	1.3174618449327007	2.3879837929516334	6.285336001739695	6.386901362506216	6.06820295709137	-2.159318918498439	2.147818083108775	4.346950520030864	5.891927704240524	5.241495119212786	-3.9233689209110962	2.439696544209621	4.976996409248257	5.881100639753699	5.363702760505804	-3.7339255715511377	4.442981708753253	5.061335074043867	3.098906032367665	1.2666468588320534	1.7165157751614535	1.0485092375032203
176	2.7186064651515593	3.4047791871892814	1.4123600685700588	2.068689817927695	5.39844940729918	6.046767696372783	5.660277829184514	2.0994026607914367	2.9016852305584706	7.062399369528775	7.2202853974199455	8.007587412644114	1.5807001550819917	2.6593906812281887	6.9558467689371986	7.113467675369078	6.8141879863358685	-1.1041686507004014	2.543301337496628	4.90994452190534	6.458882315541034	6.01781891257136	-3.0589270514505356	2.8606259750621597	5.428472028378166	6.131212695854405	6.4114270048393145	-3.387459269554177	4.673469054820498	5.13423060074581	3.6305115131269305	1.2495263783378638	1.6117285449343777	1.1437457771034694
180	3.4168095502417932	3.905884971293984	1.982717866660073	2.58597492518796	5.716720566621356	6.8879241769456	6.360960944328301	2.5162663396248215	3.159321538578045	7.798974971154208	8.113167742272568	8.942096687628455	2.241085762087774	2.893189184513637	7.679967384021811	7.931817034722622	7.58916471472592	0.3868280639418711	2.8205945420577603	5.505747781204303	7.125022393357483	6.754632455938136	-1.8688425970577491	3.1648795524800284	5.9187917559915455	6.375442488786367	7.289072018340026	-2.9177904055361195	4.897354590449089	5.186636911648653	4.018434037553404	1.2074084251437254	1.5178587398353776	1.169718977835928
184	3.9035017391833016	3.7804195785443473	2.635138028167473	3.1432793061051205	6.1693286739991375	7.610799770213289	6.99300001286195	2.894220106447069	3.3528122817266133	8.582827546384642	8.98783013935625	9.734948133685778	3.0618815344753028	3.0925691049697237	8.481005647227656	8.760955788427587	8.275757768717536	1.6126594502741294	2.998512498914469	6.191996558768567	7.828567008280422	7.375168304896336	-0.920203683437207	3.354997864835719	6.512383921393504	6.6772761176324655	7.930181006436958	-2.5293505127943017	5.174008833219842	5.289951311107047	4.268603790950106	1.1834824055355537	1.4713371954963512	1.1510305375602359
188	4.187579621232798	3.261325112691849	3.2931706822220423	3.5750410466532103	6.7460317441373405	8.126330355154375	7.446303348814637	3.099668733400285	3.40096091365461	9.327737784677264	9.712892507825936	10.247390721198139	3.7170212174983583	3.2376439489637963	9.296507811916758	9.504796957814218	8.772378899360662	1.9897969910928837	3.112686387786364	6.939669114711686	8.484921433960933	7.829819182654703	-0.6676129085851303	3.4633610161124215	7.194393616632045	7.065136891647107	8.329467752407616	-2.373054736821723	5.528754697192359	5.48391483829678	4.427603710440027	1.2232679097762305	1.4987814388581526	1.1417461604855932
192	4.300343979468603	2.669384472783157	3.773265113840731	3.7429711724194132	7.32788227138535	8.394607522750967	7.645047645340444	3.0594568175319616	3.2490773118957454	9.910020803226672	10.185163472209739	10.42618844260951	3.950076331656044	3.295927277826655	9.998361562280978	10.083031628900702	9.035000778275242	1.3595474924094526	3.186509601177249	7.6361350820389715	9.016722656373148	8.114603022115135	-1.2025651901400842	3.5295822531278462	7.872071246299247	7.5117459107526825	8.537316300772009	-2.4642238554727687	5.937444195061885	5.758556351427839	4.557325828490196	1.350916501449188	1.6040497977766406	1.1984422176620906
196	4.245969761618824	2.257354015373117	3.863153924725234	3.6022622494348253	7.755433539837137	8.432173707653678	7.581924419334044	2.7972547937341194	2.9158949778370475	10.222585652291038	10.365328762587385	10.318409893687289	3.699467888074903	3.245872250944975	10.450867626507161	10.452788326575554	9.089265800416067	0.07195334863377639	3.2174544253178707	8.137655237633107	9.379303908509476	8.26677129565673	-2.1921753828014707	3.5778670220641664	8.421160676675624	7.941940764402873	8.63246820177689	-2.6730768613083806	6.340456469740177	6.061724647476378	4.70833872560038	1.556436296348086	1.7682644084155055	1.3538291420134285
200	3.983103503661282	2.1189174598602087	3.4412565144439866	3.2290615953935458	7.916685561219566	8.300496080422656	7.3272962385193985	2.425727122858172	2.5133252080404502	10.22395036023437	10.287721607937133	10.041937802710509	3.125567189908384	3.101528398312582	10.576083156586531	10.615920040030874	9.011649109022676	-1.1963558166816404	3.1876742759332193	8.343086221611513	9.572550749452239	8.344158151540448	-3.045733444153524	3.607045164538106	8.750937439759035	8.26719377337783	8.690010048860614	-2.79004358540882	6.676122648549684	6.326711161852518	4.904968249334896	1.8008457376789486	1.9617246339860253	1.603611465220069
204	3.463400355177874	2.1904728357324053	2.563683264935403	2.79250025044168	7.80417869504854	8.084816912266023	7.006438237620502	2.0989386982376765	2.212376588957743	9.957057927741705	10.042391751683972	9.729575132600711	2.527950042064195	2.9152073786566546	10.390156719678021	10.611439678103709	8.891775108776011	-1.7839376881382023	3.086419097737326	8.246096590203557	9.634854292385757	8.400419214020472	-3.2170689024764365	3.5958409218600953	8.850110031671733	8.428409555136327	8.760554291541395	-2.630715840373462	6.912692052554455	6.505385859277384	5.1472163070423695	2.035091156589794	2.1594502871351926	1.9131855916357352
208	2.704545967903123	2.324146264884048	1.4631059132829414	2.479689353404303	7.510972004046873	7.870544890559692	6.751994592785616	1.9454076241013794	2.1615798418783507	9.528383230948029	9.737837766857194	9.475182509341623	2.1949014608280355	2.752416365350011	9.991315816449157	10.496843311510714	8.795874573434642	-1.366503950483625	2.9257411882919246	7.936095217695219	9.622784590267793	8.46811292417671	-2.481010192329191	3.520238629036446	8.786622025240229	8.42496106881691	8.867404915356095	-2.1231131500046447	7.060649853999744	6.590408785393288	5.42399977268267	2.2218267861537324	2.3510158002623758	2.239059919426263
212	1.8421735717039394	2.376484864910597	0.45642852667966	2.4060509144117557	7.169928055780728	7.7199826045628726	6.649016840360063	2.01095890491122	2.400687450069828	9.05717465975002	9.458535170516466	9.304017997139496	2.2606851997519133	2.6522328786644733	9.506434416611354	10.324699375788109	8.746310211987513	-0.09878488605115596	2.7373883655100233	7.547725658434059	9.584907507538716	8.55352113471547	-1.043056127775777	3.3709568892247477	8.66219136912128	8.31349561499677	9.014966941961076	-1.3359835114127325	7.159629803701016	6.615758402333681	5.725422844736592	2.349463933734922	2.538934701231408	2.549082511188087
216	1.1164455385630818	2.26375102425284	-0.19464087437124994	2.5548083717693335	6.87327812366837	7.651215533966229	6.694960100436939	2.2359735909275855	2.815869562669055	8.62095735280693	9.233898139528446	9.176762557702483	2.6429941587476136	2.5956573420794076	9.027902580356152	10.123752568434123	8.72253415766522	1.4838774166789848	2.550411217926065	7.189786892858275	9.541171049824433	8.640784241794957	0.5715990648143279	3.162627450587521	8.551338174210727	8.17777822337165	9.19721887173775	-0.4407058347065691	7.25097559051873	6.636933786801703	6.0446610298131604	2.431807988702804	2.7278156211646856	2.830598824030183
220	0.7759693245369901	1.9689644525407446	-0.39417460461279125	2.781001083982065	6.620307428811453	7.625806312381211	6.7967300243438125	2.4791116651885985	3.1766493240262403	8.225718477462038	9.031736351098425	9.021545387379037	3.0930664461244737	2.50936531387015	8.577827431956349	9.892975782212579	8.681041695611773	2.7342171599974	2.369173043945171	6.896204931014049	9.478466963679034	8.702665307007374	1.7794698431864087	2.93019603943119	8.462609269710626	8.088060358607931	9.401075339423747	0.36832216289034264	7.353650074512432	6.702555162673622	6.370232089171837	2.4963087972557756	2.91362547138831	3.0844669264165714
224	0.9430804824860466	1.5203996858357371	-0.2389111661839548	2.884249203075637	6.326402648211939	7.557313899986999	6.810902578324144	2.5797357494072033	3.245537272842183	7.817267398171012	8.781292893173605	8.77733991314208	3.332633010079563	2.309018844496826	8.120338419439523	9.612886404562802	8.584271409296036	3.1929399886579617	2.1717882101539687	6.62870929951778	9.36640641708696	8.715000130584631	2.209299558783627	2.7165179184039028	8.347111680890901	8.074032763123327	9.606773352210073	0.9511694884127369	7.458433609251541	6.8332724398704485	6.679154379193885	2.5686559612271695	3.0813696306632825	3.3124232208544644
228	1.5187901220122864	0.9693729852997609	0.04658338415782466	2.715477698145909	5.889208301934157	7.3454932981048024	6.611260874268864	2.432051652490031	2.9025213645132686	7.327639561272438	8.416976907460114	8.428759553609565	3.204845897212497	1.9580951879655255	7.612046699378841	9.269719100436541	8.425379731840755	2.780463688506127	1.933197612649968	6.327058299302813	9.186309791259923	8.67134568886135	1.851401205156899	2.5589854652646467	8.14879224627198	8.125865915763457	9.791476224973723	1.2644437519574276	7.543161373167262	7.01829288618066	6.940996629356771	2.6636605195505383	3.214145175448296	3.5093665034382853
232	2.1931047384204625	0.37919270896542095	0.22651828768283416	2.2629978599633596	5.272517667809999	6.927219373379593	6.155469878868113	2.038502688029545	2.217424863938894	6.731534464053094	7.922366599108055	8.018046358845734	2.7587804724659013	1.5078355035859645	7.058280927003772	8.879940010539292	8.23898980921564	1.7974071457305378	1.6587390857779067	5.973276123224592	8.957879043850815	8.593786217926798	1.0248800490252805	2.479306453167233	7.863038520034211	8.219719866026987	9.939778302846367	1.3555872406112848	7.596856574905474	7.229629975185659	7.133757096399395	2.7851972509636584	3.3075680649218984	3.666864385883659
236	2.5752532417128324	-0.17774765148585403	0.14903536401314144	1.671433921408697	4.556500423371431	6.323323710689195	5.520556912789228	1.5177117547817327	1.4257043564086822	6.080569728758145	7.3534922414134645	7.632483463090671	2.226396316629256	1.089557883372788	6.537913782779243	8.50116536855127	8.093974093029034	0.7602665405152039	1.4026011193149128	5.627352700330874	8.747611977426121	8.534461953550212	0.1992979640697275	2.4806268152549635	7.563987712836361	8.348539331338957	10.056406949402493	1.3232685294120587	7.634991626536488	7.443395118994099	7.261469822669969	2.929931394809055	3.377279034670822	3.7831950092166613
240	2.385158055959256	-0.6256715639530155	-0.21380761211773466	1.1756457060695606	3.9181351562758726	5.650308594743131	4.882550704072891	1.0584547492960423	0.8156416991621688	5.492587075671125	6.824737531597319	7.371294002995717	1.9003862094582726	0.8556273557994959	6.176914676329838	8.218423822634264	8.06777952064644	0.1601929511555721	1.253710505181243	5.40799807136809	8.649179436781084	8.560679414116343	-0.22977128566904403	2.549057954074501	7.378690700975089	8.534075715453042	10.168720219687778	1.26709234394598	7.694386939649468	7.653505782831297	7.358463268775182	3.089689962215762	3.4523119839290137	3.869482745891506
244	1.6072273213815942	-0.9072248912794236	-0.7847816924308482	0.9816468929302102	3.54868196545145	5.08107374815785	4.444548118813995	0.8390353300845508	0.5877776727141547	5.099882112978528	6.460411532303531	7.305501919421592	1.9776366899150895	0.9005011297378668	6.083598121542247	8.10873411038679	8.212098100909511	0.258297234121498	1.290054556450567	5.426690564759617	8.74152467427987	8.72639367761397	-0.09578455215351103	2.65646027847985	7.419429283483318	8.810252167392482	10.313436482139787	1.2509281603701523	7.809945086788132	7.8694453040756525	7.472249489038436	3.2490527547821597	3.5563070684290246	3.9450528522070574
248	0.5181684480936058	-1.0100381348858118	-1.4390888177777827	1.159094449931539	3.5536088853761445	4.7693972467169745	4.34907578323961	0.9500483250473425	0.7622096519299757	4.983930575185339	6.335967524744187	7.449366073874043	2.4561643538451676	1.2052656381694602	6.282685740821093	8.201835611616575	8.52603051894015	1.0024875377140183	1.5255513152706677	5.714519486304647	9.045959449817397	9.042390800534415	0.5137833343885517	2.76384495991039	7.7131881519127905	9.189038253472273	10.51236912934261	1.2936967578650163	7.987769583562068	8.099889734798767	7.632704238694362	3.381337157295464	3.6876137163519016	4.02291249213194
252	-0.4404437232818311	-0.9739761923994975	-2.048836464477454	1.605630036114936	3.8914258381822964	4.774967181547883	4.6161675336639005	1.3559272255042252	1.1848890751487013	5.132452951824517	6.4390911893397815	7.754123191329703	3.139783612907159	1.6405205685204372	6.689624292650117	8.45872972260128	8.949363685901123	2.0884792751988983	1.8831963491577397	6.188897594085229	9.506370520432315	9.461570715857924	1.3528777326759258	2.826221220510351	8.173169115412096	9.633415197845933	10.752748462231803	1.3842196429590388	8.193122843083884	8.33450601380847	7.827195624616893	3.4501173409139247	3.8128924273545732	4.0962419406467525
256	-0.8807567931826444	-0.8701434709514448	-2.498139136682917	2.103959078245143	4.386111248386583	5.029238211331935	5.136767374421046	1.9144031953161327	1.629041310012127	5.441101537318447	6.6716337035536935	8.126388529287528	3.74677895553663	2.0311779924608797	7.14029834851911	8.78124902415516	9.381438231624204	3.1196343820009997	2.2170085851008334	6.68201397162441	10.005516980658909	9.891093229116745	2.1619079058423663	2.801002256950976	8.631924607417911	10.05870530449923	10.986837359345863	1.5057549438606876	8.361977556097509	8.537303903005926	8.00026891595849	3.4192976865270155	3.880472888686024	4.137549389883282
260	-0.6594042165320333	-0.7621077875923118	-2.6936271122635764	2.44155430177329	4.810942160857689	5.366251455109965	5.726404175605696	2.445607179189205	1.928424115080538	5.760374531507478	6.89374492812109	8.463815667717833	4.061221589325259	2.24634932904531	7.462938289873712	9.051466918980738	9.71947858263841	3.782755842195065	2.375871175489539	7.018911343973288	10.413403484756047	10.23003957072925	2.780708067549089	2.6611657075451185	8.920782066710588	10.367249462655778	11.155586214510633	1.6552973943879756	8.431139924697305	8.658664681508114	8.08296296939961	3.269931069701371	3.8481509588359883	4.114365090472822
264	0.05936812221916088	-0.6761304123020291	-2.581206315199389	2.526706450758741	5.000350462686608	5.605553136024341	6.209146960794358	2.815696232362486	2.063579554116134	5.964284404955057	6.988848668573115	8.692202546108497	4.044998635569831	2.2642328681999877	7.55551336288217	9.182785964669698	9.899929975310256	3.969484557620227	2.276577466938962	7.103226166911049	10.644844981974448	10.415690395761015	3.18299125821433	2.4077536998994	8.95242307310043	10.499727222636245	11.224840135844573	1.8465906334985125	8.370640733565871	8.66161439616131	8.0367040431248	3.0156567020572194	3.7104341890115706	4.013922204373877
268	0.897527513622175	-0.6032153948812938	-2.1735532228906016	2.4339504180492018	4.929073321295521	5.64388416772688	6.488005621741919	2.99206875999336	2.1534404700269527	6.004340156654464	6.916218740167621	8.788081146940646	3.848533382235902	2.1750240271013657	7.427237968766337	9.156765914686565	9.922793363314055	3.7968025111659482	1.9474846075479788	6.96277473599124	10.69652840774728	10.45377442581623	3.4333183678728423	2.075051302439222	8.760698296362808	10.472664806627911	11.211153002090068	2.0967531151285708	8.198418596549518	8.54743669259216	7.884827117086133	2.705043547476452	3.507345429148344	3.8594858548950173
272	1.460685368664724	-0.5270505534216752	-1.5798850019621016	2.3540778100660464	4.717359530936492	5.503062234336084	6.5672659708154875	3.044525615634845	2.3648550450699646	5.921996578523737	6.722109777645003	8.776460625424575	3.7148320581105745	2.123319858912204	7.184146862965289	9.024970031840606	9.845191930709687	3.523344507858561	1.5189292392528408	6.729165060219964	10.642554256272224	10.413182232315199	3.6108620075613063	1.7244288877818557	8.47518441921501	10.375983212023376	11.177777262123064	2.4042389332151584	7.969143370535365	8.363916375977867	7.708880405036459	2.406102174406133	3.307685605281099	3.7047500516815615
276	1.5289072951816283	-0.4578949201467219	-0.9985683535159972	2.474580758522792	4.558720100337262	5.3028845653163375	6.518348200553251	3.092725269138641	2.7968010831792345	5.812893852816529	6.502232535158148	8.705158211664166	3.834093084191916	2.2228832188750642	6.96607683330346	8.872940994748856	9.746180509756053	3.4067726049241167	1.1632372111515483	6.560221178657981	10.588229152649616	10.384714100368031	3.749102344584109	1.4242161476416877	8.244057634520228	10.32621190325011	11.19761559520286	2.731758110778755	7.742509822370987	8.186665514303801	7.605839233269026	2.176797384488246	3.1735978046400235	3.6059343723808763
280	1.1384561033115876	-0.44554763919873924	-0.655373631253208	2.8606407570140266	4.609642494007524	5.176494585319279	6.416901095401665	3.2303728975752937	3.4077913675100455	5.764914974916424	6.339236720292574	8.6120443126683	4.234173764028977	2.4918746885328398	6.871238691147884	8.767795540607585	9.682632421842765	3.572586765806135	1.0138879988821345	6.549433691655188	10.60790726844466	10.426370594403483	3.8223040007408455	1.2246975867822034	8.150059679435284	10.400125477282247	11.304249734948282	3.0075344963434727	7.550066452037768	8.082494715311435	7.630255203056014	2.0371599145954353	3.1266472260689873	3.587618103506222
284	0.5208283053599922	-0.5515131936454049	-0.7076345068231663	3.405702343925232	4.899881827381185	5.177844988147902	6.289876921985798	3.467616072482904	4.027354230249388	5.804410919793513	6.250547393276502	8.502120950213895	4.766701209431301	2.8436856198040266	6.90765236064213	8.71789071743036	9.658352827482679	3.9569487471812956	1.104113576008768	6.6720127890935075	10.70013234297988	10.524972889076412	3.7738809490289955	1.1387050123075413	8.166329363232098	10.585476848579416	11.460349054012177	3.1457965294569195	7.380358200513116	8.073764780641094	7.7554750246697965	1.9594632337689564	3.1360430638290784	3.624384394078069
288	-0.04979560884182082	-0.8021218160404804	-1.1614104480030842	3.8793210885332923	5.309725748007805	5.234493719236566	6.1017708624326445	3.7225308324289057	4.440690029376714	5.8778858036412105	6.174332603124688	8.344676950367262	5.194184290169637	3.1336326520004474	6.9926457228542995	8.6656808634362	9.621843313719877	4.3501639256318825	1.3514671291562328	6.795379621515191	10.784015628290556	10.59666154093399	3.561681500025563	1.1364394397653488	8.174958208425156	10.777470561473585	11.565167397863748	3.0809776705202294	7.190384846653152	8.123519876951022	7.878801802770291	1.8823300552527615	3.136008493135196	3.651298036893419
292	-0.4078269292548361	-1.1593350142772452	-1.8521379185644629	4.046923627172637	5.623613343345687	5.1777911055491606	5.78472946613837	3.865792979970646	4.49544619378925	5.8777675480262745	6.002275451764657	8.092404345108195	5.323651777177968	3.2326061644000994	6.997662049745932	8.518215157936934	9.494585013259922	4.515165317579796	1.5962064225904495	6.748308641562012	10.73999688297933	10.528656932951389	3.195556632556995	1.1590118378940888	8.036184290623671	10.827177974067812	11.501872987317984	2.8040578294530274	6.936586839328843	8.152449587266165	7.873144606739652	1.7439327195960166	3.0640325468905263	3.6014544872908685
296	-0.5577578530534667	-1.5282748899021579	-2.5091845925876473	3.794342031435832	5.632575497711487	4.837584960167864	5.2930559978362695	3.793441762883418	4.171398629147186	5.698282704271667	5.642486558019716	7.713364104823723	5.109398828957918	3.0876951139694557	6.813456041299874	8.199881532947192	9.21607778129707	4.321358669814716	1.6743420320199462	6.411634429002609	10.473924610396702	10.241581890951574	2.7457394530591293	1.1447845668499923	7.668563823412175	10.617268535510869	11.201404543252375	2.380898946472939	6.606297476301659	8.079610804185904	7.657577018477756	1.5172004661401401	2.89810990555529	3.4484751137452196
300	-0.6204044803214467	-1.807990188802268	-2.8818805144982433	3.1896989265018383	5.234781252042237	4.148797978416893	4.64668368120038	3.48882888866775	3.582579365268211	5.292799936282961	5.077929960781754	7.219159584892271	4.670416820178546	2.741453879110599	6.403832896276945	7.699068526856887	8.782161690473657	3.8240821264992957	1.4922937117093102	5.784033283889151	9.970709775546593	9.739013647286354	2.3215849340952266	1.056925174905678	7.09663770791279	10.125985120003193	10.686641666134058	1.9405705879807793	6.2323036036497115	7.866387347387816	7.247510891735974	1.228085514782683	2.6722526482825075	3.2287607111474794
304	-0.7174723726277958	-1.9538398931764644	-2.8601379322319707	2.449018233791799	4.484016407135978	3.207027665624347	3.934255828461124	3.03760456271958	2.9180104658840746	4.701729285767214	4.3858632930649435	6.6707587073706	4.212757099959514	2.306254381079123	5.8216056676749055	7.080868226293669	8.253382661962505	3.240896932048845	1.0707871886875135	4.988438116830453	9.307044005737813	9.113699890015022	2.0338315912395806	0.9011713243620292	6.441885455079797	9.443495726584711	10.068309758515507	1.6331902701151775	5.882711872507199	7.539664726294987	6.753474218483785	0.9468184089597635	2.46127914760972	3.0275320930337064
308	-0.8748814441526784	-2.0062599131475713	-2.525154584231287	1.8266583634987876	3.5656711965181755	2.2388317528466386	3.2753147996224707	2.5878572398652144	2.3595948159725273	4.038569440182011	3.707432260689682	6.157872184465075	3.9073841473155895	1.9117164563550206	5.18323849323072	6.459525568865827	7.728701095141447	2.8367674279117034	0.5385460243933232	4.218133915741837	8.617921807465471	8.506684281806379	1.9576494644330207	0.7233290654039942	5.86514805266629	8.732887246017986	9.493948912492485	1.5726300438276475	5.63189171322835	7.1819753465523135	6.328767283673498	0.7563913445449157	2.343017810628028	2.934980146627363
312	-1.0043591235552405	-2.0574238248378527	-2.1004896110908167	1.4926030598149136	2.7167966297221686	1.502212282202762	2.767254107164356	2.277966731995879	2.017369265231339	3.4436664494354607	3.1843717017838427	5.7628168914256275	3.798839082663492	1.6537437397211827	4.6194639089302365	5.946663364655308	7.299473744082808	2.779838078156144	0.07911011556679143	3.6525444892218153	8.036498049472977	8.041595438681298	2.109352583327961	0.5884091839239555	5.493461595017061	8.158007601168148	9.07805631252933	1.7888826086655734	5.528660283435274	6.8942322556955435	6.095130428184273	0.7130964976426586	2.358390802151104	2.9967565460838195
316	-0.9751883720572342	-2.174380535357995	-1.8259299947414713	1.4609266482661656	2.1301608031850936	1.169269439606167	2.4473802981575066	2.1698481981807176	1.9074927520276106	3.02838324735895	2.895793907483745	5.525867925043886	3.796281328153348	1.5671063622009684	4.224817742171496	5.602071747941089	7.00739048142303	3.0439112109580515	-0.14587266706353827	3.3829786692084336	7.638026695040788	7.767475585399995	2.436043017912693	0.5509163127341311	5.368351922786546	7.813861350358566	8.848368622374371	2.209298128272156	5.576856122241813	6.749091608173805	6.083604797262445	0.8196350315381034	2.4908609327370597	3.1863691726345125
320	-0.7242655735803407	-2.336392396750102	-1.8305565072572565	1.6035846431299878	1.8855460834581428	1.2520705429890333	2.291444295819884	2.22348927890161	1.9709430883237127	2.8358166146206467	2.827790968431193	5.429973588585557	3.7452530766342327	1.6240385729794697	4.02816437657913	5.413279519719014	6.82831428711197	3.414357891999082	-0.06824564171488427	3.3825886164140084	7.417142849315507	7.640608291408781	2.822162859467131	0.6271391495129699	5.4384493690512175	7.695179443004401	8.737768151157029	2.67816352168067	5.735607609572938	6.759325964074479	6.221847041633875	1.0228673193855868	2.6743161610794215	3.4142551335917486
324	-0.3196332446611433	-2.4285299716670132	-2.076350922110623	1.7371784404764117	1.938979501597162	1.6123372275652872	2.2480285110936826	2.327145093764416	2.1126306003637523	2.8353054451883435	2.89188408121493	5.414071069399633	3.536655893933351	1.753001327857117	3.994560708451081	5.314471708231419	6.6910824606762205	3.603085270367806	0.25154226954848	3.531346550608743	7.3080329710509435	7.554650764465158	3.1184258382265853	0.7834894041307356	5.594278798284251	7.7152504726168125	8.625609376110614	3.0118358059181842	5.937211975366426	6.875978452488456	6.373894198537591	1.2364045350329806	2.824198954127518	3.569325914907996
328	0.06255912764967057	-2.312203878287002	-2.402713531149918	1.7300952629277668	2.1660728399901763	2.044534201228428	2.2801773490557276	2.364954942454356	2.239959949560099	2.948120586581369	2.9789569302687737	5.407054410634388	3.182115069938344	1.8663788986768233	4.05201291014929	5.231208311224842	6.5205564334273145	3.4075713071620903	0.6436613185844146	3.678141107809534	7.231092911583334	7.401346664815593	3.1854844012897003	0.946836290353151	5.72152040944371	7.758693675479541	8.403137185815368	3.0653581541869843	6.110503181288771	7.01371334212484	6.406846983946337	1.3761972154203945	2.8746499942680854	3.5701084046826317
332	0.2283811265424574	-1.937197561141456	-2.633195155171279	1.5701532324249043	2.431279653132849	2.382922881785822	2.3871774613191477	2.2837080897847284	2.2898826541307113	3.088540307830237	3.0187051220019154	5.3653406961400965	2.808208458486127	1.8894284915904305	4.1283478632646675	5.125620352201875	6.282644732825591	2.8266632485548895	0.8975681639898092	3.7085816766566286	7.139214020824094	7.129946690677814	2.9446933195154372	1.0350359652136287	5.746656403337767	7.738579253685843	8.02948186754489	2.7855937410597034	6.200781806549121	7.090652447918136	6.251436217737148	1.3922400439397657	2.80368875749351	3.398830643655716
336	0.07226908188693508	-1.4119766914958316	-2.679706805139298	1.3593741621028832	2.648646824825261	2.5730338031655795	2.59226273835873	2.122372621899825	2.241993421616122	3.1992289939216247	3.012074701333841	5.293298707949182	2.5776224071273828	1.7846254065278844	4.179349888740148	5.0158309809885875	6.005665763950921	2.069756979485059	0.8527993538306228	3.5861441998539374	7.036635381098949	6.772467596121378	2.4176487861628693	0.9932463144020841	5.654770360021173	7.627011756714105	7.547436695116917	2.2295660916304083	6.179936393393742	7.059890252408644	5.925228103936721	1.2825541463895476	2.6353869371634264	3.1026821058139418
340	-0.36143422035516654	-0.9795798038546185	-2.5832328731166356	1.2436344592166921	2.8039824891822214	2.6708228520672455	2.9032952712190783	1.9868080565835233	2.1157920307146574	3.2641472734055488	3.018451206215813	5.23363827337691	2.5862882072001083	1.5632723530401162	4.196380604639533	4.957101332546778	5.76419733499514	1.4471172057808896	0.47041919708691815	3.349007359632338	6.9600195708980985	6.420495017053969	1.7298861698344226	0.8181211331692755	5.475552068237327	7.445710163391331	7.0517034352601256	1.539773698733905	6.044671043393458	6.91716907662152	5.508775220314091	1.0849564048077456	2.42058204993415	2.7630476881838875
344	-0.8984372593130848	-0.8921616650944627	-2.46171926830563	1.3192402091097293	2.9338226244287475	2.7785277296487103	3.276337615324234	1.9836312482343053	1.9565973232461018	3.2974805748655798	3.1080195825308126	5.2340388165887894	2.7996280122645043	1.2798279491536937	4.193517197511752	4.9977240436258565	5.6348585940191995	1.2012367218206845	-0.14684130214333757	3.0707302015977374	6.9383892837823	6.169127448718884	1.0702140304248005	0.5582501278134238	5.252406107039242	7.23111579976687	6.632482511941115	0.8881044961441348	5.808939919110692	6.687832815451271	5.095708357343313	0.8535093643573946	2.2098236028191693	2.4536189971011058
348	-1.3222299780841145	-1.2468298642150333	-2.4086785255653997	1.5715471466441022	3.0811519545011126	2.962495796353425	3.6111545471571254	2.152391666700133	1.8148497297242803	3.319897881709006	3.3091618931191684	5.30974100679683	3.0684807223095936	1.0095878814003154	4.1843671693060935	5.137380587004947	5.648237690970284	1.376893159251035	-0.7981749156827086	2.8102784085846606	6.959607583594451	6.060577377276638	0.6185602530121075	0.28993251846545476	5.013954626775796	7.000405293910148	6.328747256512904	0.4129601706568997	5.495649323893374	6.404785140079472	4.74705599540009	0.6321160777345046	2.0331473299192866	2.2110974732840925
352	-1.4691072665316445	-1.8906450223872246	-2.4177558361046154	1.8809033584790198	3.2567365087300453	3.20591639662996	3.788407554598398	2.4370818076592156	1.7239323810921303	3.3390192901232534	3.5834278969890914	5.425797925601715	3.2169933237870523	0.8163163045300333	4.165135373090001	5.315452085426209	5.765270695435546	1.8037193968056044	-1.2734813658033233	2.580499404114138	6.966614705616555	6.059347614248737	0.47438138603603625	0.08029188195460824	4.762483584777643	6.740349752574538	6.11544845944401	0.1747016455292653	5.130562769334172	6.091873153564811	4.472213733825933	0.43891817220497903	1.8948841047129479	2.030983442900824
356	-1.2799406019320347	-2.462804788093539	-2.380966180512076	2.089525932758512	3.427669754911029	3.4233746442193587	3.7315070534908377	2.7141966751236306	1.686298366103834	3.344458571573144	3.8434052370309537	5.511725888641603	3.149749509488443	0.72245895680176	4.113389958486759	5.438717828370608	5.893074497603107	2.197719091588744	-1.446135398074628	2.3498792588986683	6.8878693406725455	6.072472556995141	0.6175945385598949	-0.044908586776122104	4.481002319466586	6.42427681254613	5.927680000598012	0.14438347481990738	4.738483416991557	5.761153206584858	4.241259564181986	0.2664896839089348	1.7818524792506445	1.8850588750929789
360	-0.7964022735515639	-2.5721239978700248	-2.166002983346676	2.0902926869069667	3.5372335821490557	3.522818318055812	3.4563679607864493	2.86223720781566	1.677716250952162	3.317184439867102	4.001640309721048	5.501296029506559	2.9163737223426747	0.6997990590547104	4.001660813718799	5.433121190658908	5.932694420141015	2.3266920984652666	-1.3249636855051912	2.07296513987735	6.6832799742762425	6.003195270640508	0.9244552827383015	-0.11035369308743442	4.150935162554564	6.043352588654355	5.705842003721576	0.2291613215382751	4.341282356745615	5.4230003220016	4.017005433431034	0.09442645287515203	1.677713866766377	1.747015233397438
364	-0.11908929764959622	-2.0213696905599843	-1.7267037586486098	1.8870660018960779	3.5432648569293606	3.473867884448321	3.0794212740397837	2.833275072573841	1.6675999122478449	3.2462115205821798	4.0229101079461556	5.377171979679561	2.691262238383439	0.6881402117521455	3.8187403582480117	5.290860639565445	5.835374817420415	2.144918674775641	-1.0404508087592226	1.7311316684885045	6.377707465282114	5.8089995237553165	1.23300087140632	-0.1717290128902098	3.7702600860773217	5.630417809576065	5.434885964976963	0.3213986746302883	3.9588560958092924	5.099516378879109	3.7860078716057997	-0.09162767208330623	1.5753089149756692	1.6106173951492802
368	0.6313180311476219	-0.9486839151272338	-1.1639857262787479	1.593104239256302	3.4491059693039294	3.3357396041574128	2.7719795633902184	2.6830227307290704	1.6451954800076576	3.139870158851154	3.9476880927552136	5.192149149183564	2.6770431927803005	0.6346514208982695	3.583986750137094	5.083006369155168	5.634562001307546	1.8143968536344204	-0.7732618431595485	1.3572511638706335	6.0583534087763935	5.529903874740727	1.420849677313273	-0.2780071489944495	3.3623096858011454	5.257441030579997	5.154369341234515	0.34715124877066783	3.6110548881913123	4.827248084278435	3.5690717607033156	-0.2860272519519534	1.4804420433813839	1.4912686310310512
372	1.332632419082631	0.21037761813931113	-0.686720309907891	1.3684278692028276	3.306682101484194	3.2254452623948637	2.680953495886272	2.53979563071837	1.6310194689579385	3.0236937923384413	3.8708469769976808	5.050490366582234	2.987174026576763	0.5288375006675298	3.3434412394986857	4.925969588240613	5.43283794938765	1.6037688214818788	-0.663360355609722	1.0275025341794872	5.832948193128446	5.269281850862602	1.4571884833738702	-0.438241242255974	2.970676176200325	5.004205691100947	4.933846461237083	0.2938470833035176	3.3186607277051716	4.644894588187319	3.4068941983991516	-0.46133521082750434	1.4070577585935167	1.4135972225738933
376	1.8631669235872765	0.9319136119202156	-0.4947900759602478	1.330882426716444	3.1893060126844706	3.244779578599711	2.856168501318531	2.5280067856858777	1.6604181486169902	2.9259538576639463	3.8864717385396528	5.05480049764435	3.571681728882151	0.4091462184589637	3.1483585755014762	4.91795633981724	5.347526536791762	1.7246707634297436	-0.74874019433764	0.8243982771086579	5.771208748551657	5.136610018159236	1.4022364580990976	-0.6131491049544803	2.6443767480843325	4.916150557503684	4.8301257965209246	0.20568212814853395	3.101810447490947	4.573215949910039	3.3323752795962047	-0.5793222770369552	1.3686937059178548	1.395207401567772
380	2.1036724991137863	0.8785404540769121	-0.6544172747302015	1.4916697702893769	3.1486565987246005	3.412069788901221	3.222211829633252	2.689659588698764	1.7490615800567002	2.8602065967825787	4.030567159013249	5.245292173493971	4.227667321021722	0.33713105235813073	3.028467170698582	5.08049534468641	5.442753778067449	2.2002766076803093	-0.9626302098765687	0.7915185669942225	5.863051399686964	5.1834158766531235	1.3593170608533327	-0.7364509683135221	2.4196970401707594	4.976220118356662	4.8520226356074865	0.15073777697175678	2.9741251393569006	4.5992555502166095	3.3475854312301663	-0.6095830186712169	1.3711345161152444	1.4368388616524819
384	1.9676282356175434	0.08803313203281507	-1.0466614935198484	1.752669568405135	3.1843426147172655	3.6460957435105574	3.6143395809473016	2.9538447782325665	1.8680033636614304	2.818370096720359	4.257638443687752	5.568271622904356	4.692317473962364	0.3548232606035623	2.977688305012577	5.340321527349504	5.686665520615694	2.843875877829669	-1.1823209494303928	0.9066714025494368	6.019807323516047	5.368631349360548	1.4065982067834588	-0.7562757115343435	2.3062107504792575	5.107828127362763	4.951346861736112	0.17716900959583548	2.9339516088797155	4.6756391407220015	3.4180817517766675	-0.5465131984264002	1.4093800747573921	1.5233609637899916
388	1.45317458739554	-1.0322518322631995	-1.4282174074353575	1.9659466693833856	3.24539946690381	3.8143134020824307	3.8624720475907246	3.1736407199841534	1.9468158434352874	2.778052799840339	4.465730655839372	5.89417360724999	4.769687640545587	0.45037490015762094	2.961015932236678	5.564173684377105	5.959151729797117	3.358717194660313	-1.3017334905183706	1.089726326098498	6.1193575704570895	5.573789105647994	1.5483573636063375	-0.6723178012085971	2.2821567000944314	5.208302961551227	5.045100199359514	0.2821212999850389	2.956119291471453	4.736611831150335	3.486554613847442	-0.4174822558353019	1.468137379754308	1.6309150416205556
392	0.6781893355413071	-1.9088226508584816	-1.572874065242742	2.019840235378909	3.2618832505841167	3.815862407586943	3.8768143555989476	3.209282866958375	1.9085928153488079	2.719339363861867	4.555459487857701	6.077996715458977	4.423766601837655	0.5561658129955356	2.9387354776573105	5.628658280466738	6.108390792683265	3.4959297091912043	-1.287273403732369	1.2408219544554215	6.070687278679336	5.6607279634607215	1.7084554390688278	-0.5453819618760641	2.29956340209211	5.194491850135901	5.05509756719316	0.40804621474241115	2.9909624977891216	4.723290431495248	3.4974024207505963	-0.2776255302572386	1.524648543323179	1.7346372560574737
396	-0.13188835945209385	-2.101696247516603	-1.4097233975104317	1.9014676761303468	3.188607446249467	3.647265663475255	3.6904611494349226	3.0110993309291993	1.7219088034071148	2.64046811390841	4.488284576528279	6.03245733645408	3.7931215667324927	0.5857254847997192	2.8933498786355454	5.486864552949977	6.028773769416261	3.1814429679655536	-1.1855924099552753	1.288980361545137	5.861726746064821	5.541567311600929	1.7680854752723414	-0.4705319094699038	2.298197740474464	5.036994444527685	4.942585932650565	0.46860459328595755	2.9756553097937113	4.606210220151443	3.4189350518691173	-0.1914466465646402	1.5537565907350397	1.8131246520995463
400	-0.7164310198815542	-1.5333298406035067	-1.0669807168724779	1.6992028908744148	3.035092346157929	3.408331385590347	3.4369561585435893	2.6529598169103186	1.4328600132051912	2.5608248645977714	4.308578480332822	5.773348316875112	3.1217570226053817	0.48611846443467144	2.8410170006548805	5.193532453776019	5.7176160668022	2.5442483360904284	-1.0852894755619094	1.2238531081771578	5.562977299950194	5.2234306203570275	1.6275073248780605	-0.5267994390538704	2.224479431258119	4.766660678272956	4.720557200911329	0.3937079598500229	2.8558225559611277	4.394032467238654	3.253025523555699	-0.20955605752012377	1.5338302811997775	1.8493746472396524
404	-0.8897381402440141	-0.5254096971597961	-0.7865211347749367	1.5436502656110196	2.861575357841745	3.2428915418765727	3.273689023335682	2.293392414024804	1.148203250847098	2.509221070630158	4.115935792067978	5.410835729289392	2.64129280377144	0.27227824857632693	2.819595568213847	4.874660002798867	5.27876089670659	1.8342049075547466	-1.059795973009392	1.0940465899502003	5.286000238424152	4.803827750475261	1.258692142169703	-0.7309126239442654	2.050363773891322	4.452737796985457	4.440451133961058	0.16954037504306682	2.609737389651281	4.126059044911072	3.0293612403679555	-0.3493511667968061	1.4536877833857604	1.8317319108492596
408	-0.626108465998116	0.376726894619611	-0.7649188618421114	1.5240550002720041	2.7439062526090456	3.2491993822079372	3.2949392712373524	2.0879979080889077	0.9765101050517914	2.5049273904499585	4.005416383167325	5.092454897421107	2.4692306456212605	0.022462442460568364	2.8601889538077696	4.660193431532482	4.872064101316164	1.2887924877052792	-1.1248795957775057	0.9756267046138057	5.122776495397532	4.4211029894786575	0.7262209635519054	-1.0208251450514485	1.787027473706268	4.168582428897949	4.163939942337404	-0.14771772883790216	2.264341587071783	3.8556129835058695	2.7909161974061285	-0.5864087924456991	1.3195595707956296	1.7575128034087761
412	-0.06980378163118503	0.6983928662787197	-1.0175142262518244	1.6323633152756514	2.7287340095290658	3.4155030164316154	3.4822091968357083	2.1042923874178854	0.9603900289129863	2.545236104261152	4.012894620300544	4.929763781498855	2.574511998352277	-0.16444848436321172	2.962128870161114	4.619269836207338	4.636255729413964	1.0258591149178893	-1.2334352700563465	0.9307724809988718	5.1025204529682044	4.18816565409875	0.168645709327247	-1.2799131837955073	1.4878209791766575	3.965182294371201	3.9369561572812106	-0.4504482734751542	1.8928642225158991	3.633347263699605	2.5790920192452544	-0.8602451660371657	1.158755180294334	1.6388511616337829
416	0.5392161594128411	0.28572222518308543	-1.3533222641155385	1.7696011021758635	2.8078141141572885	3.625094881441998	3.721851101061603	2.289530748308846	1.0479201051957479	2.609300368396891	4.100573052543777	4.950207220930883	2.8184723782905357	-0.22212724331563982	3.090279094523235	4.735359656776056	4.627344119786806	1.0164906952943256	-1.3051273789833124	0.9808413957627493	5.189943777332442	4.145562638306654	-0.2512185567235222	-1.3907238209897974	1.2364028661029312	3.863817920466355	3.779501667017124	-0.6241523607708159	1.5908625085719592	3.496069899315362	2.424399131375929	-1.0939292880095783	1.015236375152839	1.504640337006202
420	0.9858870481395365	-0.6154469236094149	-1.4872248135211192	1.8115791036644227	2.925777189497278	3.727679720050183	3.8773839375829833	2.5101101335093827	1.128081795705334	2.674688570899038	4.190858830361481	5.0987725129141905	3.0425388736202077	-0.1464416828034499	3.197118512664746	4.932623850766537	4.803879248888217	1.144757267922754	-1.27031492866227	1.1059372397157115	5.322638498219344	4.256840218286936	-0.4062592078919119	-1.2906341520148996	1.1208903761220501	3.865974893346041	3.692271938538627	-0.5988311752459091	1.4401097261309181	3.4627058418587042	2.3444898069316844	-1.2202085225769235	0.9364628768165667	1.394434329326987
424	1.177978035813733	-1.4946455917769197	-1.2237910001374586	1.6935586886563043	3.016626827253134	3.635501375556349	3.874780645124346	2.636141770382956	1.1105227442359946	2.7354457309324087	4.226455677805788	5.285575853354422	3.1524655739347103	0.014282078446151855	3.2567868150501087	5.134218202979728	5.063902365297151	1.3034428325169234	-1.1035937042983495	1.2675994602624485	5.461295114080207	4.444592464669596	-0.25008773740569856	-1.000972626066232	1.2022128074810619	3.969065656177803	3.6720266249453326	-0.38223808907324114	1.475694891064878	3.5342671781953636	2.3466062486530253	-1.2047834365944448	0.9552936529836232	1.3448691334148346
428	1.164863821903362	-1.8515893174153353	-0.5949497207879354	1.4598518573142893	3.047202579434239	3.386115065608596	3.7502679730143935	2.6188967161815007	0.9995844934975625	2.80899619346949	4.217002858005435	5.447516904428715	3.152008287101148	0.19999101707510356	3.2889258778504353	5.314353452616483	5.3090619906852625	1.4538028203498865	-0.8306377509126375	1.437224026866048	5.618635640263771	4.642490375241729	0.16329112607736881	-0.6142429097879919	1.4876762590995083	4.174263943623594	3.723287811415642	-0.058929681629170956	1.6721951919298463	3.6945347692671673	2.430362933698518	-1.0577577325817988	1.0747762891336796	1.3743448222747419
432	1.076778289937341	-1.4585633241067884	0.14143417739922254	1.2439515559260967	3.039885751678664	3.1309225480186424	3.632272711166307	2.513622039170682	0.9063673592572051	2.924416534669781	4.240280140661509	5.585766778194658	3.1157269399179697	0.37854933643133976	3.3537597571575706	5.510988698396882	5.4976925711111155	1.617687578885397	-0.5122326003493457	1.6101231534360505	5.84834383441648	4.831733214577169	0.6901445967415917	-0.2503827207919472	1.9218836974258473	4.481077659737392	3.8579244516244233	0.24434001682103562	1.9556543777681359	3.9110398193797242	2.5874612266063264	-0.8298948982266773	1.2630466190874199	1.4740794859862538
436	1.026174900325112	-0.4778946029995173	0.6417841299065978	1.18866169152559	3.0590076369300685	3.0532286090058163	3.6676888373281105	2.435068601182365	0.9804258321804245	3.0977373044958596	4.394044388167579	5.756765351066151	3.1254572789436956	0.55525934556008	3.517061701477939	5.7915544363665	5.657099709533115	1.8202476455508008	-0.219107552809653	1.7974653198636918	6.2007798992004926	5.041269289640183	1.1419299812096164	-0.005444037714266734	2.401439422266416	4.874494063468232	4.0840163127784495	0.41147059098307875	2.235316747743819	4.139334668199087	2.7997753549460174	-0.5947647079710197	1.4628931247016306	1.611121650442807
440	1.033485171569778	0.6228712185392483	0.6769018752174092	1.3541693653249476	3.167586557020313	3.261158696524056	3.9323196311851287	2.4758455690817325	1.300006743963587	3.309998265492545	4.726203429687357	6.023071750692864	3.21304010533695	0.747291622659321	3.8044044875414085	6.194318278885996	5.850343212615778	2.0331015535522146	-0.0117615991906403	2.0036802241282055	6.6747164557736935	5.314012514049228	1.3556578125105205	0.0821347011042181	2.809748880921813	5.315466390540919	4.391849029896755	0.3853529383943717	2.4399509368328802	4.333278168228225	3.039096824602409	-0.4230095137406584	1.6131509501737065	1.742534275423827
444	1.0291737292054801	1.311396118667803	0.27573943068505047	1.6711629586942323	3.3791832838572984	3.715986957704827	4.3748583683185585	2.6402583055593305	1.7919754936751597	3.5035931975599173	5.187137113826346	6.396728022637656	3.3443989669285186	0.9451648569085794	4.173992623281261	6.684293730072023	6.121096595568666	2.1671938841462812	0.07033238542204098	2.207700962214787	7.198060017532212	5.662464127549356	1.2600835529938268	0.03389689690257202	3.059702865504973	5.744217381279716	4.746759402688436	0.18927852761640934	2.5422832901664347	4.460072506134419	3.270100823729263	-0.35757723360381133	1.6726132589072455	1.8334594918690676
448	0.9240237451112171	1.2621425358377494	-0.28321778702755857	1.9704962919076046	3.6341321376600253	4.236535061630438	4.827417838306326	2.8357205319335113	2.237246507718195	3.6013519673021137	5.63484095104439	6.81063459584191	3.448920718068435	1.0905919047477408	4.5250968818857755	7.151920300546653	6.450381739543209	2.1228287166404947	0.009149151831117664	2.3619615972012933	7.650490264650434	6.040775283820774	0.9043366886194794	-0.0951440480929524	3.124403230408149	6.095351203787963	5.0931248536266915	-0.0896593628050192	2.559235327934914	4.511614788108779	3.4563693912979203	-0.40060931343023964	1.6341711241471248	1.8679305267856987
452	0.694542406235951	0.5156153427457428	-0.631587980583128	2.0750524945321143	3.8159978293395307	4.578672397497581	5.079405771782667	2.927392475366613	2.3741118847987903	3.5392770677853758	5.893481716535184	7.136832219224883	3.4697914035931343	1.0935277911233852	4.740039336634846	7.457264404542578	6.75125501835511	1.8633497906369858	-0.19385839949777536	2.4116952358391552	7.9165944853225785	6.351731284317424	0.4340948749549649	-0.253678351000225	3.0422048491917297	6.317001803661699	5.368654714381241	-0.34571257146335654	2.5304236348161284	4.505588520118623	3.5684919267204043	-0.5168120848005215	1.5225561818782662	1.8483395529810962
456	0.42312326920492505	-0.5455816970402022	-0.5268269763996871	1.9018191051150553	3.8026361369446766	4.548876750905327	4.9771499508128105	2.82236003163155	2.0489690252070996	3.296300402902007	5.83541058020719	7.244097691366173	3.399430504799221	0.8857814051198791	4.739535796597055	7.495689373165047	6.906208974567893	1.4592076503151834	-0.5153679834705495	2.32436203369759	7.939733008365966	6.487249834848075	0.02456193969902966	-0.4172953356697582	2.894610397660073	6.385389311881371	5.523800359131137	-0.5046153651848615	2.4907727178630146	4.475142467644223	3.592112055292361	-0.649916051177418	1.3792155946241997	1.787196393269135
460	0.25544834072468386	-1.390109893150161	0.0023154327587438807	1.5123964509926622	3.526538124717563	4.092140664259403	4.4957227593403095	2.5294816430124767	1.3196250166954278	2.9043092654334375	5.440911756129962	7.061226350122556	3.2747788346580036	0.47528660177395465	4.520462978394057	7.246891957106189	6.825267297678745	1.0627120706430209	-0.9063253975873892	2.110687250530402	7.7453989787052455	6.3799328642938296	-0.20272420295553967	-0.5880826696807003	2.7670099665399723	6.3084506829252325	5.536775098173086	-0.5551332817366983	2.452533715731776	4.45105933019282	3.5328218847724986	-0.7452629785795125	1.2438267438002522	1.6986238913565286
464	0.3037430338343341	-1.6049792726049215	0.6655631644611245	1.0807435485256573	3.0152864380048094	3.3148045456165187	3.751839628283863	2.1586036627629404	0.4474676836160413	2.435371154358481	4.806314933086169	6.613985521783958	3.1408960739944383	-0.0353277809025986	4.157144059175851	6.78276584820109	6.494457228476119	0.8263746479151305	-1.2943100896582065	1.8243070794776246	7.423851471277329	6.0403323021019215	-0.23454523027330873	-0.7754415254088365	2.7113113334866283	6.12014244441751	5.421579824110899	-0.5450508580751728	2.406591647747793	4.44716929266602	3.4164769563247863	-0.7688626627583628	1.1417632074139559	1.596328850530509
468	0.5603079781690986	-1.1002714606162467	1.0704210969602272	0.7964054922023737	2.3899874626853443	2.4354572234653196	2.9520502015921997	1.8594058705114451	-0.22346617225017135	1.9734191844707205	4.09830807604803	6.016295894691905	3.0134766025754187	-0.48260453221545485	3.7666509056359945	6.232422336101805	5.988323196550859	0.8210527280105067	-1.5956745107418169	1.5401055773951766	7.084820729488036	5.560235009460291	-0.15681210120664182	-0.9716308092381521	2.727869265344848	5.871077522713575	5.226868139421835	-0.5441875444024257	2.3411416948338144	4.458118904302193	3.2850730336218814	-0.7146304827767251	1.0836000415146612	1.4982584677062136
472	0.8796072580064085	-0.15406458040917342	0.9373594498810145	0.7593275289437832	1.8219586564794032	1.6929675297909144	2.303885692501729	1.7368392900484961	-0.4388994563465668	1.5865100582121596	3.4819850833719186	5.422465310711447	2.8680903839178256	-0.7150115352698121	3.4588382156782838	5.726814732397872	5.441596017450256	1.0025979255158637	-1.736402626421974	1.3242957558575243	6.812003118482497	5.080587851094868	-0.08887111373159659	-1.138607022271778	2.7752175261048215	5.620366082306521	5.025354849525334	-0.5958845004295877	2.264143699651629	4.471337783968526	3.188425294455493	-0.5987339004658813	1.074148890644358	1.432249184807075
476	1.0563210222277601	0.7230947595459738	0.24582876202983184	0.9293778515239384	1.4678591452731988	1.2569929329607363	1.936226959108384	1.796324963802728	-0.15513686796597545	1.313166615031741	3.0613207739786716	4.9673132771010735	2.6692504815420404	-0.6618928296544122	3.296915999671693	5.3535332544584815	4.995709406637535	1.2508590189823874	-1.6749478536279137	1.21152651004086	6.640889627856168	4.738727557615941	-0.09919065957060114	-1.2163568704412622	2.799950831019793	5.427676187163134	4.89533947662361	-0.6847230774757997	2.2125713769363773	4.484241474274082	3.1717348018676277	-0.4463417518790769	1.1209297151875026	1.4333029949240434
480	0.9491740441199844	1.0332995627064159	-0.7690148334160902	1.157284852920727	1.4094235861479685	1.1752811640630347	1.8612532568669493	1.947664613574746	0.45503756289037095	1.1638997763811987	2.856736414372517	4.720462787154243	2.416061633685797	-0.362953036107176	3.284532300285844	5.139858232872715	4.743681418840006	1.4534531795045167	-1.4188780748783705	1.1989246576556845	6.56495521795267	4.615858066349008	-0.15624788364062248	-1.149938818889286	2.769060366315069	5.341214166507406	4.895375239410385	-0.7409717421897425	2.2391524258347206	4.5127973442581375	3.260316840523374	-0.27982982922475674	1.2335491149275801	1.529762860250574
484	0.5685881957957455	0.5313513861592296	-1.7495641664201775	1.2768768039890255	1.6249184567434225	1.3743747438063434	1.9890834042874344	2.0630238004096517	1.1102597685439095	1.1310071916635243	2.8232855725532855	4.673677909495264	2.167891258488393	0.057883892062195005	3.379582158139128	5.064823614684474	4.698300826608389	1.572796340786151	-1.0282947991158413	1.2571915356366266	6.558228476178881	4.7063913226511955	-0.15197227856890544	-0.9225092506959429	2.686964981924562	5.381508336785312	5.037463652290172	-0.6842813474544845	2.382059091275918	4.583300578943415	3.445696106794228	-0.11494550079888657	1.4122161829579345	1.7224452452087389
488	0.07327094655611277	-0.652493177197065	-2.391253465337177	1.2028266161114092	2.003611797996176	1.7044368939282168	2.1814558450935495	2.052268499914956	1.5754624565402229	1.1973948448467417	2.890838138911052	4.760373103520764	2.024336809769412	0.4569130230334935	3.521422854115854	5.085597979103459	4.795540797523771	1.6471791225807744	-0.6031193121941586	1.3497899736657772	6.595476133860719	4.9211249227255	0.010825430015710123	-0.5758900031808747	2.589586012977915	5.527284608237331	5.270977960630049	-0.48466443893136923	2.634451621079972	4.710807788399323	3.6795434858882685	0.03431617087402475	1.632448430708176	1.9690203616974027
492	-0.3227969697908662	-2.067560667539921	-2.5660519535127966	0.9771704053049461	2.3955981670931754	2.005022043888001	2.3175890387195732	1.9103907298492735	1.7684417918379092	1.3401126827737673	3.0019423885847645	4.894275652926345	2.0655267186467405	0.7337369304251717	3.6568074134053883	5.161422239623691	4.930322634646859	1.7276483730566252	-0.25802028114024844	1.4506169520946854	6.659242613191911	5.12440870898594	0.32290002622142266	-0.2049668873141963	2.52264022190243	5.715158924932183	5.49072073503863	-0.20364141412818884	2.935620538929213	4.879539954263598	3.882856359215285	0.14880700371842226	1.8403279734877738	2.189417356685387
496	-0.47568055867260295	-3.146070949240772	-2.3357078970112295	0.7381194215258624	2.676905148423349	2.168966526277426	2.344976896087559	1.7120790438341542	1.761548991524196	1.5318573674626932	3.1324605862685435	5.009990679489661	2.2882599772854433	0.8609822966772418	3.7560720348893883	5.266822801643957	5.009057032336257	1.8004027559600964	-0.0895565596942024	1.554141875157895	6.73674390999331	5.192410932782757	0.6320013983982463	0.07465671729073887	2.5186085637400017	5.861564621431441	5.573849663966933	0.013069460135483659	3.1936652579737577	5.042120443965426	3.971924533352592	0.20372256585184564	1.9670039365697423	2.2950575293770457
500	-0.39259064098420676	-3.4591150196479217	-1.86521625047877	0.6339853389945862	2.8008148599482756	2.1820392553551384	2.296950811308911	1.5619080027246521	1.6930797057320985	1.7454849437513382	3.2919609463547355	5.089658724332464	2.586487525131734	0.8715458490301796	3.817096462149257	5.3945522172150255	4.996231066487292	1.7580666497666306	-0.14418120645837276	1.6749812322289037	6.816980821564413	5.070259081437108	0.7014513594083573	0.17367927686233664	2.5853643352084226	5.90200279653076	5.436517701728214	-0.0036170657167158655	3.3310666000188203	5.142302023302336	3.893722047511826	0.17916007294720807	1.9593547533157392	2.230896467298436
504	-0.20922031945811287	-2.8989913390400033	-1.3104983535104626	0.7373819332579185	2.815321199938506	2.1271965449986077	2.2742102088730394	1.534821744858468	1.655200715654394	1.9644430826180779	3.51194953031775	5.168086992567069	2.801036350807702	0.8200992325104421	3.8624598882432215	5.554148183151196	4.934288966118778	1.458384748591492	-0.39776396650978063	1.8399631930626694	6.896014196151249	4.80414723137045	0.34346654924460096	0.07013207656319842	2.7117628982743063	5.830212578358742	5.085987555060727	-0.35669594913070984	3.3291525756706255	5.15118406902576	3.6564004328918895	0.07745017836805192	1.8118544771225897	2.008983606988351
508	-0.08254403600117963	-1.709949727509574	-0.7547448854464421	1.0085722182559071	2.837892048346486	2.1489925330264636	2.3972382484946744	1.6415971476116522	1.6360125500381666	2.1930317823354413	3.829716672764977	5.31502770035648	2.813616983939391	0.7492258529820438	3.932920207584369	5.768524155357752	4.926487433393114	0.8402132370716281	-0.7567141633002042	2.0758233017964036	6.987338525296899	4.530935276036074	-0.4473145592839999	-0.17491486624424973	2.882738582962263	5.712519631268193	4.638501155586273	-1.0118873093806549	3.2446842111683116	5.094088541520987	3.3375937854424045	-0.06489339454479336	1.579822774713113	1.7131729082723104
512	-0.07322823237765845	-0.36344334391386046	-0.2237844759536295	1.3245577778752955	2.9952483101562306	2.3850853382928134	2.7474245955719647	1.8352093650259655	1.5494447907428741	2.4544498858471773	4.269711960502972	5.599738106894735	2.6295700006851925	0.6771154982637448	4.073585023131934	6.064549430794441	5.086844908269012	0.020598379843085147	-1.0867121192198166	2.3931314884800186	7.124012929096116	4.4239058382874985	-1.4438974820875414	-0.43881294020489375	3.089984409160209	5.662038311968155	4.284683693558434	-1.7853997900708511	3.185210219924426	5.046981321943877	3.061374894995991	-0.18202476157484784	1.362309333222792	1.4676016532084193
516	-0.09741324906788652	0.6600266678358512	0.2548395984891297	1.5510392149865904	3.3529741679414142	2.889951460217612	3.3177616512456494	2.0465695806330793	1.3236937489468128	2.770776264824531	4.8239960548677	6.049829944595032	2.3924934803639535	0.6078129991444358	4.311728466591959	6.454841120635466	5.477167592525241	-0.7051708084422406	-1.2609977690330836	2.770685188927544	7.342565517960828	4.613813388619795	-2.2663998546599706	-0.5892301186943744	3.329039803682995	5.780330643365052	4.210323799947346	-2.406062596922102	3.2523257650278024	5.0995550026888266	2.9506084844480127	-0.20349571057440327	1.2599025932927457	1.3826891148943605
520	0.010823514285178975	1.074627515940696	0.6092696770544238	1.6136330325394326	3.8714396855838307	3.586968174461232	3.995950927182312	2.224213594543092	0.9822133158680807	3.13483833475192	5.437313066106088	6.622479422061585	2.3117644728468276	0.5496713505218507	4.633789050800807	6.916570645989486	6.061616882278896	-0.981617686654344	-1.2133520810964316	3.1485721985478117	7.653718452203318	5.120298372692607	-2.5549039776193117	-0.5431620464916542	3.5861027150212785	6.0955409849764495	4.5077371483480615	-2.628405325929222	3.4827730567738597	5.302814470254258	3.0739021223660963	-0.09012552328005	1.3268097605585136	1.5041973552873498
524	0.36395817903180805	0.8845056273063278	0.738757012409415	1.527939911799366	4.4141230471745025	4.281458843865648	4.595254409632228	2.3539166391069806	0.6574102027507518	3.4929749877478584	6.008647903530794	7.2054867562524745	2.53976225211738	0.5230282531884528	4.975054251507799	7.381674271066434	6.705121500252592	-0.5764729962099508	-0.9715861057546835	3.4384398373575924	8.019053438921317	5.829392418448703	-2.1462809985331877	-0.3066032819159493	3.8265683554358896	6.534331305218708	5.123431192814091	-2.341854804802107	3.8207497500276064	5.632663235748375	3.412986508335552	0.1382420953598193	1.5427974423557265	1.791194434411995
528	0.9078134871450946	0.3357245615589169	0.5802835211408209	1.3772393430270164	4.807802665016006	4.740765559624956	4.927723395304056	2.451488727102212	0.5235720859660103	3.756212225013546	6.419022067075998	7.655706863148005	3.0731038969652795	0.5515952096364087	5.235711084498385	7.75259826610162	7.224427681802798	0.4708683180841668	-0.6475371106011489	3.5540892988118213	8.354859331017824	6.534820540141789	-1.159847018174573	0.025935141304220494	3.998376597799967	6.949719888306915	5.873998150300196	-1.6219999749240088	4.140389908827526	5.9938378182715555	3.869222631222363	0.4014295031426006	1.8224674417259215	2.1366250461039535
