time	FP1	FPZ	FP2	F7	F3	FZ	F4	F8	FT7	FC3	FCZ	FC4	FT8	T7	C3	CZ	C4	T8	TP7	CP3	CPZ	CP4	TP8	P7	P3	PZ	P4	P8	PO3	POZ	PO4	O1	OZ	O2
-200	0.4522641587759742	0.48399549600474395	0.8612958767126134	0.18221782101878792	0.6450346095965723	0.5387645350205181	0.5530484900816531	0.22546158674060154	0.38992807170649	0.7077239733947484	1.1525573701369474	0.8450290539387418	0.168044417672271	0.34376901301375	0.9635269617549503	1.5546880921212376	1.0472202274585622	0.9460353231386815	-0.4116724123097787	1.0497723791321112	1.708708401180616	1.4341171943696196	1.3926447594767688	0.7537654619259657	0.935118494057052	0.7865407447030183	1.6782314735002997	1.1974276274012854	1.3465983833646922	0.3963231434352628	1.2091836898792336	0.7467488627653667	0.43294170389540687	0.45550045256052796
-196	1.2319842545875979	0.07577804456890604	0.7626871447380659	0.11645141214533476	0.9503802037086139	0.7119598370696617	0.006031192823918363	0.13048563864665255	0.030718218457628815	1.0036623452595752	1.355593677912904	0.6517686231370047	-0.1045011353834569	0.14468800985045716	1.0955762835498537	1.6979242520379214	0.8085321167559549	0.9600045060715524	-0.3266195646622728	1.2522382704590078	1.8176491214637336	1.1682146758148848	1.3674199546622205	0.7402462940600129	1.258180615109532	0.8820055104875362	1.4691984616379206	1.0403925154167795	1.5163125953538077	0.46536028267670176	1.1356018752990795	0.7183541637403767	0.4338740695489519	0.4813521492249187
-192	1.869628543901773	-0.019859231958317444	0.55413746693895	0.016127521131447792	1.200326439687973	0.7120020967627008	-0.36486008671194975	0.04997520136136594	-0.33256900226550756	1.1902484863747942	1.4660918675600705	0.49758073561926347	-0.35896956829992677	-0.021553849747002925	1.1529138059118043	1.726549263409742	0.5439680801009168	0.7502809744011938	-0.281740068678018	1.3447513546370558	1.8055623724174064	0.7904866317818315	1.1583141059241098	0.5888021573459675	1.4676791392464317	0.8744357206201734	1.0980477305345808	0.746337411903521	1.5780626495573398	0.4812962698705829	0.9207691527007635	0.6059661492307332	0.3569785645531988	0.4445963192682035
-188	2.0404782243709927	0.1994422371120421	0.1728774155781978	-0.025097984757238005	1.3976212704657913	0.6368080957547324	-0.3987423767512984	0.044765002912511	-0.47044625759557784	1.2607467142699234	1.5207977256525425	0.47089770317396684	-0.5161148892723441	-0.0036081026682803956	1.182281848783519	1.6787791209751133	0.38428640268577596	0.34459820302744937	-0.20363600500668913	1.3574535812437796	1.7163693861542548	0.45418003086815245	0.7503175120483488	0.4295206357125159	1.5676612814424264	0.8401278236158807	0.67944580145	0.41521188511921703	1.5786331852156894	0.49095615620636246	0.6548349244750882	0.5029296266255799	0.25435125763571786	0.3644314399101298
-184	1.60339676929013	0.5312199579178317	-0.35093820006458876	0.026048565217651396	1.5267587861614789	0.6166840180086048	-0.06333153678878412	0.1278446909537735	-0.28355970907144934	1.2296472756811447	1.5752427538201357	0.6157000049304923	-0.566431640148572	0.24461154577962438	1.2211393087073859	1.6243337351796523	0.42474916470100316	-0.16304071206413845	-0.03645657366250503	1.3412815298548617	1.6163625676353854	0.29815924092355084	0.1969645614419518	0.3714887788453299	1.5765801628362293	0.8543650486356297	0.3323287955476692	0.14760859273359397	1.5643652638039585	0.5401512370777165	0.43902876862308055	0.4920483815167915	0.18978069674737416	0.28330394554136384
-180	0.6856695396277985	0.700723467488198	-0.8632180072924773	0.1296059634989559	1.5452957114305346	0.7410525660878539	0.5283831940661987	0.25387588079251194	0.140992983819709	1.1197440595966242	1.6654295879277627	0.9031393505182542	-0.5506437406942614	0.6328825338597363	1.2692067591094038	1.6186075169705378	0.6705760938880128	-0.6343151910979404	0.21204453653205235	1.331204530215997	1.552754994286763	0.377623288870125	-0.38192912839782794	0.4436542976622292	1.5074615440455879	0.9422253346496131	0.13097338345361811	0.005172820748739695	1.5527790745631913	0.6385214908691199	0.3366567782008504	0.5931214675233557	0.20159918018940579	0.240712001312007
-176	-0.3608255675265793	0.539274333545995	-1.140425679188573	0.20630183763869908	1.403109427724274	1.00537299856031	1.1630088061533457	0.3434633603961135	0.5763934836140212	0.9518679952430961	1.7773531630464892	1.2315251796146969	-0.5083414899389427	0.9777678822626661	1.2813636032178097	1.6599695640615433	1.0203489039408955	-0.927686510128062	0.4620430159824251	1.3174313273546527	1.5177454910105903	0.6287614091257259	-0.8377385714360914	0.581256805382901	1.3569756712031773	1.0559359762234832	0.07370150815714134	-0.010276752498131586	1.5192470512179808	0.7427325229966069	0.34166636976763964	0.7445527296341621	0.27797108818445143	0.24775394734773276
-172	-1.1185926170717602	0.09173921472514115	-1.0093611453321623	0.19180732917042664	1.0775601836655304	1.305863377135141	1.6115202863060583	0.32769814050908275	0.7791969756480732	0.7400789838225508	1.8421918107251944	1.4575234614766621	-0.43949481733940265	1.0955178709981213	1.1873362034384214	1.6773031907649114	1.2997840610112683	-0.9484552717104526	0.596304295941681	1.2431969611251454	1.4429219924736103	0.890193579333593	-1.0535643074138583	0.6618837697484292	1.1100242109883518	1.0951880188947671	0.08729425795688361	0.05216426016631159	1.4078060353021378	0.773471353485405	0.3836496164649258	0.8326454737621827	0.36057960896053465	0.2793469421963281
-168	-1.2990125384912437	-0.41460937156902616	-0.4668871450557356	0.07552541773324396	0.6024093612720314	1.4869558773645717	1.718512649965677	0.18764302087138546	0.6211530550532908	0.4937895821978965	1.7649019912029253	1.4511413537580953	-0.30964329760575326	0.895415184621313	0.9304599738471034	1.5612767895380744	1.3369950022320172	-0.6889372450600697	0.5212486969185317	1.0357723209933247	1.2343744008370565	0.9771603917246491	-0.9948395465529078	0.5718606695995866	0.7579611520704018	0.9626209711566518	0.06819105876156902	0.12581622568789877	1.1641000479871384	0.6613240225307568	0.36931693460681	0.754963872910794	0.3768914928457427	0.29003825710501935
-164	-0.8713921882563366	-0.708852408526787	0.2813423864890806	-0.09716816967035007	0.06919005495722413	1.4172670805434486	1.4571537934706986	-0.03288729853075425	0.15910349746111815	0.22392524722307236	1.4734866581908146	1.1523559064381153	-0.09573175733953453	0.42685699355119594	0.5076401220856415	1.225988742594068	1.045147177918508	-0.23876744448460302	0.22357210460483096	0.656943140755471	0.8328741171789638	0.7739826421269974	-0.7187213879559108	0.2693235569353035	0.3210856608390406	0.6256840213237421	-0.05933521300474735	0.1660763319114013	0.7750833014946409	0.3962599923142827	0.23826336800501022	0.4835779952714688	0.2834438078399762	0.24353620348478536
-160	-0.06766998005709696	-0.6384691579911392	0.9005206800613037	-0.25716721946637683	-0.4065873016582497	1.0531564924353347	0.9274618602224708	-0.24941594835729242	-0.39444002409530593	-0.0521580948108832	0.9627743339072717	0.6030272230182131	0.16585926669683856	-0.14231073820423754	-0.012624972468032025	0.6668667776437158	0.4715519833580144	0.2450283014548417	-0.20976431614844318	0.14377970957217942	0.26438823275571693	0.2975337795851794	-0.34111353668874367	-0.18812681687064464	-0.1398208882854826	0.148858770352279	-0.2986080042929317	0.17442773238489154	0.29270127341757074	0.04986872883961442	0.001926867519297062	0.09152746922511118	0.09565026288917113	0.13799253071277484
-156	0.7340941410604088	-0.25947770410829424	1.089600321879761	-0.35271477610227864	-0.7345532160333098	0.45947185042724065	0.3020132176403525	-0.37994587325490126	-0.7800216059064587	-0.3087817720723449	0.3096216611197545	-0.06199785306297959	0.3718162169605768	-0.6016369446823372	-0.5063995706170633	-0.018796725151169348	-0.2123657906654194	0.5977720603155692	-0.6205919965334366	-0.3866205205692872	-0.3514921358294103	-0.3025802664269915	0.015102747789637553	-0.664860246887063	-0.5345602022026114	-0.3254682413466982	-0.5748848900585649	0.19051431071341746	-0.17521767274010538	-0.2484421127722496	-0.25752323800872134	-0.27471432020446906	-0.11445637018393347	0.011238107429383502
-152	1.184958574164334	0.20131909796431335	0.7417426686633211	-0.3714487543264643	-0.8820645190857148	-0.2151245767407219	-0.24766071078237825	-0.3831035485131947	-0.8173956850395457	-0.5127605186867884	-0.3479115060128585	-0.6613495929233009	0.4027411927545385	-0.7872729877622352	-0.8390686490808962	-0.662046848056123	-0.7781531791114019	0.7145888787347769	-0.8422669747068238	-0.7763558606573826	-0.8446140864028633	-0.8086957315054503	0.26820638708109895	-1.0056761477828722	-0.7741085867410898	-0.6390546544152896	-0.7710394243800643	0.259339659751343	-0.505353568708541	-0.37193822766812396	-0.4275854815178015	-0.4642011511526813	-0.2523250871486612	-0.07786672542701305
-148	1.1115716667721036	0.48170342919801556	0.0032084707555380056	-0.3324545315455054	-0.8736475684042984	-0.7948705533939932	-0.6117054804616652	-0.2716267102059321	-0.4883788811751039	-0.6285970195158503	-0.860093829844463	-1.0345128748524004	0.20517370052988354	-0.6457684023765495	-0.9211959815609225	-1.0921490164839218	-1.0362886164250655	0.5953748807180449	-0.7693356256134615	-0.8962818361541591	-1.071098563351034	-1.0345588896380509	0.40214702385459516	-1.102838990288109	-0.8088564852320036	-0.6929939967778852	-0.7870962599909224	0.39497020740924443	-0.6142273529757448	-0.26361447506151875	-0.4237131465704554	-0.3960020830169908	-0.2484863841220447	-0.0806754303921889
-144	0.5713567719339276	0.4365391124194206	-0.804651496763006	-0.26040849023875673	-0.7607687096461687	-1.137609717357914	-0.7646995763545364	-0.0978066322718303	0.06129294245861346	-0.6282759888999007	-1.1213228674234486	-1.101347205242437	-0.1503273989935143	-0.2486538731734407	-0.7496526222375581	-1.2116883962556613	-0.916760382721871	0.34355017456100967	-0.40472289817670504	-0.7126634698994587	-0.9847646926812497	-0.9105237699408335	0.4574216592684001	-0.9414585805011584	-0.6567531211484068	-0.49695411199032186	-0.5924066290203693	0.5617415890816168	-0.5000904785881619	0.02804613851380411	-0.23496824443621167	-0.10069189195244627	-0.09484488493099943	0.014221366458988529
-140	-0.19767256031196756	0.1172865924258189	-1.3501880134825825	-0.16531355637297526	-0.5837673530145019	-1.1755249470595506	-0.7467061858398153	0.07716811428852571	0.594745276856872	-0.5039862381608456	-1.1078777285261199	-0.8888072945089069	-0.4823233473044369	0.2419340157361068	-0.41474744572829975	-1.039924618956474	-0.4975006567792099	0.1160618361880664	0.13603827322945813	-0.3160026959547181	-0.6654190404304215	-0.5137236105346376	0.5017368184773464	-0.6039172395717521	-0.4057968546635565	-0.16791504579111263	-0.2447277897378041	0.6865635496925275	-0.2482728206803537	0.3653261652305942	0.0663083268518022	0.29171511457225174	0.14916250072012635	0.17275638834728693
-136	-0.899333474749665	-0.2711490087815858	-1.4598592482902228	-0.04328488547602424	-0.3533216109892048	-0.9258944368827697	-0.62347400031034	0.21112427062136616	0.8886798597786989	-0.2784884266974733	-0.8809816815068142	-0.5138894902606287	-0.5881296977453093	0.6359966977274536	-0.06660488231055282	-0.7011993509708833	0.03343989691636202	0.04551105562282947	0.665379403341746	0.10871455790966901	-0.28489079999521266	-0.02761859253526453	0.5936967119486307	-0.23275779128913598	-0.1837887163290384	0.12383952705588078	0.13534206117791694	0.6984242183217924	0.005835272357036305	0.5846146926424896	0.35744923262947936	0.6122517570296524	0.38401728771529453	0.33093187129391766
-132	-1.3087387051918462	-0.49890732639235763	-1.1855399578680055	0.10178685162594747	-0.06600170565869054	-0.4782288956488961	-0.45383089666226206	0.28902348803028033	0.8220287540662395	-0.008142535554176284	-0.5571610317468375	-0.1333228048296368	-0.3625926068211292	0.7831789831415291	0.14552465044473462	-0.3652807166890677	0.4618576157353193	0.17203199819999934	0.9930792425832006	0.3601264050451292	-0.026814855567465167	0.3465513280225182	0.7533791046195071	0.0319239570884557	-0.10649864348702956	0.23449903667372443	0.42008215082919553	0.5716273174158801	0.14010892773063244	0.5746917114053356	0.5220386968783901	0.7311161142010147	0.5158761130659767	0.42403444540730595
-128	-1.352561351222257	-0.4507773507181283	-0.7355491500403474	0.2357016795883211	0.25824373895294717	0.030735285875088125	-0.27998784113765735	0.3113737992531481	0.41289898648919227	0.22679707350690598	-0.2617298656054462	0.11723692685568521	0.1285039630268084	0.622076748231043	0.13457597758171422	-0.170704915688587	0.6379148347961276	0.420176147353769	0.9979163383084453	0.3115662030459973	-0.0015710049734833685	0.480730949618638	0.9495619511472032	0.11047185184482272	-0.22674187960598333	0.11111599178870347	0.5297511802649849	0.34565007599346736	0.10234262023359122	0.3276407710386313	0.4986578213499578	0.6128214582229772	0.49669462316994734	0.41441640153205306
-124	-1.1086128922129235	-0.18652485263938343	-0.327999948627141	0.29516935273987643	0.5498231635517103	0.45039123183024815	-0.1367188986664299	0.27799042989163225	-0.20345337637555844	0.3474874487686746	-0.08306111374388124	0.1706777508717992	0.6717096550194892	0.1981291318897943	-0.08808092750722367	-0.1665323819485876	0.5333666787986423	0.6395012720174641	0.674200831141587	-0.0275208204289831	-0.19716559300711042	0.3711559167074221	1.1059802742691307	0.012092421732114814	-0.5067226873955749	-0.18761803162412646	0.4625113594775653	0.10977607937753564	-0.06863681954697694	-0.061204444462506634	0.30142053885652476	0.3235790721353119	0.3398391297820186	0.3046357623992036
-120	-0.7432305794070925	0.10875342758854502	-0.061756022118575206	0.2202812725704454	0.6999816280811965	0.6529099328722823	-0.06351467205939414	0.18281026138403714	-0.8319545963263354	0.30868533175734186	-0.04690246272166292	0.04313591856794546	1.0172528002804995	-0.3501300206881197	-0.41943624509771776	-0.3007320456064625	0.24000534354649533	0.687430141620729	0.13473781909303198	-0.5130340444009721	-0.49126455063765173	0.12627994982308052	1.125789758700928	-0.17584428146788583	-0.8308907130244255	-0.523489056696048	0.2859061353140756	-0.041544631018652675	-0.26847538284229117	-0.44324472434668916	0.004746561392333702	-0.009421739703471077	0.10618551048649262	0.13114748862056747
-116	-0.4224702109160923	0.2442981296570255	0.11982216655758171	-0.00029101455510694324	0.6118924602318534	0.5704722390076941	-0.10048828993698818	0.023651013091098128	-1.2856780258143388	0.12401998011748268	-0.1181477305290372	-0.18518714560006672	1.0167741749841614	-0.836619315419325	-0.7106232625185929	-0.4575297820937497	-0.08540800937308392	0.5051963316560204	-0.43359598407945443	-0.9319750047041793	-0.7172564250003198	-0.09821731572387646	0.925736603783803	-0.33311781203089136	-1.056221720889815	-0.746387300991072	0.09720477437273034	-0.06021845698054091	-0.3861425509240401	-0.6885069591305225	-0.29617777391996286	-0.2632297866851096	-0.1286180612177816	-0.054633699219572784
-112	-0.2367092663033828	0.1447577472846683	0.35307267219092886	-0.3004747621579391	0.2685326331034534	0.22686299624386114	-0.26269853048756786	-0.17850655272237947	-1.43734609717824	-0.12850314346294478	-0.22293379846554287	-0.4081813384717758	0.7070268970758601	-1.0894154282721344	-0.8296241739307909	-0.5191751109366759	-0.29743590875870535	0.1540025021717966	-0.8419681766233191	-1.0996470423591562	-0.7467304449301776	-0.1789668048870118	0.4815507220984866	-0.36435833481349733	-1.0757839652557084	-0.760676978098091	-0.021898392532612037	0.030409192589635568	-0.3630531123055012	-0.7399912457856629	-0.5241704569933998	-0.37422066832474543	-0.30690172237158625	-0.20642250724174221
-108	-0.1740204836504919	-0.10454100344013038	0.7213102560905488	-0.5494577870801597	-0.22993093670967185	-0.25663542682703344	-0.5135139213948472	-0.36830174829955864	-1.2444056241088493	-0.33146536266563287	-0.2827211909308662	-0.5360487685974736	0.28453484105751276	-1.0096228097220656	-0.7154313903865499	-0.4229952980329154	-0.3249359420678755	-0.21159855967980765	-0.9708176826761793	-0.9438554620754596	-0.5492263422450812	-0.08169970640774556	-0.13665690983602	-0.24120908914701755	-0.8681359865204781	-0.5629591927620142	-0.037543687874657485	0.15136375985076866	-0.22220164481329288	-0.6283318384519142	-0.6423669441217401	-0.35664781838017523	-0.40691187875055457	-0.2970049075734227
-104	-0.14569064938001497	-0.31378215472153964	1.1638358802021609	-0.61030077780179	-0.6906676871028199	-0.6938556415205828	-0.7602270226358175	-0.4684670555684856	-0.7518613915534231	-0.3771387329116468	-0.24690937933572019	-0.5245140181650177	-0.0149671975145348	-0.608834086311505	-0.4012109627130834	-0.18742081475622382	-0.19254913877510588	-0.42459797751991213	-0.8094743469781853	-0.5359090553104728	-0.20188972302962988	0.1304287013098746	-0.7656819801072441	-0.011687287099954202	-0.5091147409936616	-0.23694264828941158	0.02878165424053998	0.2143981749366782	-0.053098540619065215	-0.4440716195815705	-0.6542053206139153	-0.27956581045139073	-0.4393508423203112	-0.3204786769405029
-100	-0.04658402490775438	-0.30708557289793176	1.490114208273956	-0.41536518826519225	-0.9115059352749627	-0.9005307532462453	-0.8823951460494491	-0.41508275165663716	-0.07567323725191372	-0.21949876789464853	-0.11127225281516824	-0.3822363307362247	-0.059168137460573464	-0.008336554260365779	0.0023920158795224453	0.1028924581790948	0.005667080622759553	-0.39676532049141267	-0.44940349346184655	-0.05434085414995005	0.1528226431326078	0.33724075470656284	-1.201200720615331	0.22512914183520616	-0.13932850921739742	0.08986056573353114	0.11879286140013484	0.17261800126362908	0.03757542362262995	-0.2862864427491048	-0.5873121604396342	-0.22107721809360523	-0.43020868192774353	-0.2866594188128451
-96	0.1767536993332503	-0.030873117890492924	1.4981389007890962	-0.015300727410726887	-0.7832663635505492	-0.7723091821245086	-0.7859284857934313	-0.19776685485976414	0.6276124103912916	0.09724847947840155	0.08339202382967754	-0.15738199611506168	0.10403659913499214	0.6039707645426253	0.35543918519879375	0.34181407007702014	0.16296374756676654	-0.16686592953990856	-0.03458178034634418	0.30030018015383275	0.37777942323671987	0.42716479193603896	-1.2810858455738576	0.3681241264585764	0.09954255794188599	0.3053047351281512	0.17015793876602545	0.047747336207479195	-0.01697991970364796	-0.2159414583953062	-0.4730032670476639	-0.22504386248990907	-0.4015998532169386	-0.21330524927167482
-92	0.4868328261005009	0.41159093276057646	1.1192150087709334	0.4307945955844063	-0.35437470585043757	-0.3389858892942131	-0.45717498544662	0.12057628452137599	1.2020566433121447	0.4511911559634367	0.2696432464467492	0.08615136124794283	0.28214293647103766	1.045529482109132	0.5462836013353051	0.4516816127817327	0.2143711144280185	0.12139587073671015	0.308386325057581	0.39755391974212245	0.4036393751443912	0.3524113288564933	-0.9643917059391685	0.36338719633862376	0.13001199033814073	0.35928666500933126	0.1458563949955557	-0.08240584263261679	-0.20994110352440065	-0.2364838415374114	-0.33399832164361276	-0.28284692692870245	-0.36127260236126607	-0.1196442392427958
-88	0.7680422644297457	0.8196977952288934	0.4868953513727124	0.725982664182695	0.18259429885539996	0.2373858237233589	0.017849164038535238	0.4219537068680952	1.5330129823126808	0.6936769467959973	0.38161831997843143	0.29272779748442884	0.26623195342557676	1.208405134011143	0.5331401811490676	0.4148198355691967	0.16369524556792567	0.29825982376135535	0.5223722444697111	0.2308320844305946	0.25405085022680834	0.14938433430625908	-0.36415970233528483	0.2296510631008356	-0.02708801620320052	0.27889755297817864	0.050198972098448987	-0.12915486064727347	-0.46664765359363275	-0.30489265841753693	-0.1837459648976812	-0.34742355258963675	-0.3046043507514863	-0.02319724479421388
-84	0.8840830899805817	1.0083243821435568	-0.12117187648220977	0.7320912461870782	0.5818605408283066	0.7271150928259235	0.4838597464266107	0.5849791154397262	1.5730577667574759	0.7166606765772939	0.38112372063733396	0.430429636345368	-0.026117427208644604	1.092199680431853	0.35352674037368137	0.2737879448177088	0.07218680512561099	0.26492103867401895	0.626945732441162	-0.09074965096449793	0.02504681230718238	-0.0829296929530639	0.29722508713066703	0.04736893239578771	-0.26650550894208275	0.1485013361996246	-0.0736751405524754	-0.04357806582177299	-0.6837195736788949	-0.35998707918831846	-0.03182929746221077	-0.36605179217425776	-0.22386079970107167	0.06180855988752176
-80	0.7521691899382661	0.9035423375205632	-0.4430533040304763	0.4420899439617263	0.6666270477630345	0.9312572455736061	0.7814285735428296	0.5445722327788348	1.3498445715202538	0.5038977848682222	0.26949849656727765	0.49141672129537906	-0.4846929001491776	0.7893254736998938	0.10138791028889242	0.10270675990876592	0.0159404128387445	0.052880797401669864	0.6830112320821725	-0.40338572757918995	-0.16725924568862713	-0.2344430530112605	0.7901904563026904	-0.08197396227882589	-0.45097631102188623	0.06620541198227672	-0.1626214082903634	0.155326827968395	-0.7782218436620097	-0.3504988840313809	0.11172538967534848	-0.3114030353313366	-0.11719796776984226	0.1264403161194438
-76	0.39456236262839856	0.567714451310189	-0.3896436979469846	-0.012474792046641576	0.4158864606847594	0.7685126642851254	0.815223572580125	0.32621225632322853	0.9501271223875366	0.1387386169507059	0.08194246867472221	0.48132353899549873	-0.8586830475108362	0.43033075223993533	-0.1172525209208352	-0.033272027885356555	0.03753356626094211	-0.1889581824538728	0.7364647965910751	-0.5697197303693047	-0.24356391964453591	-0.2379728996705919	0.9891521309674441	-0.08700036235539937	-0.477331339107812	0.09617502218044878	-0.16088683862597294	0.38981109759141364	-0.7220317107090887	-0.25212192471745726	0.23650278091324098	-0.19473005782076994	0.007554681021272887	0.16850921469105598
-72	-0.06731121970109967	0.14536453746811098	-0.10116189692705536	-0.42468610298699	-0.029130872265461856	0.30862992924016297	0.5904000982637165	0.03382815784615835	0.48589616891254284	-0.23449042380257615	-0.1310766335992696	0.40666699306811316	-0.898114500162441	0.11978277533806524	-0.22783708514864362	-0.10855110707294637	0.1192720007865327	-0.27666118671185225	0.777565358106111	-0.5387213216531651	-0.1952325845796025	-0.09961788331153071	0.9238244867842361	0.036716718133970414	-0.3239508263038374	0.23848342835296535	-0.0459192654821237	0.5637153968883705	-0.5469949231642587	-0.07077369076026319	0.33403283273285056	-0.05566972107541083	0.13556840981588	0.19246394883677573
-68	-0.4694273459980374	-0.22700013162998187	0.13525129820531437	-0.614504454968606	-0.44182827957182297	-0.26469299130368407	0.19905136475375312	-0.20414197393374878	0.05856660738701894	-0.4766586410885753	-0.3254043451676603	0.26685929231025385	-0.5047003614080966	-0.1020601240203915	-0.21128842181266314	-0.14381347560335944	0.19031365167728773	-0.10067825738998831	0.7469480614877031	-0.3564803293287792	-0.08092824349236544	0.10599286082448436	0.7363368254190654	0.2244701677853944	-0.055507227638292474	0.4291844953191538	0.15659844835798387	0.6090870484232931	-0.32280129112760153	0.16382987755897216	0.39948132533303565	0.06103221311657269	0.25095063384593325	0.20630893059140945
-64	-0.685251234231821	-0.4845261263535171	0.06765443814601102	-0.5145188557032231	-0.627046643104512	-0.7388020139161068	-0.22836549522440452	-0.29982101841569314	-0.26481598548786756	-0.5139441477197497	-0.4754247653401952	0.05817351103042741	0.1987843210446724	-0.25497350032327953	-0.10164087240068051	-0.18622638238142422	0.16499426919288082	0.30302342695977763	0.5818436727138778	-0.12829261985812962	0.009513203961970562	0.2725359194550404	0.5799866900105889	0.3743228902902771	0.21443316286307304	0.569979964247737	0.37676381969695616	0.5156529532765011	-0.12287215857477976	0.40746894375921894	0.43077370415646526	0.12651985851769576	0.341042130324483	0.2163681382438536
-60	-0.6892388445618717	-0.6397764070570526	-0.3559199860646605	-0.19269932757839947	-0.5143800364858917	-0.9600303744873196	-0.5738936648184528	-0.24550813374523334	-0.4547964919051855	-0.361556737702193	-0.5715225324506296	-0.2105398023773355	0.9235169268179716	-0.3777461638450192	0.039897449213862894	-0.27457880904491433	-0.006253750979012318	0.7634690980708999	0.27498197486115716	0.04457965481946929	0.004337651644126417	0.31341800014520377	0.5205970393388476	0.39860144156908284	0.3835631301255751	0.574462829569976	0.525598643883257	0.32960641300907134	0.0036909645330105217	0.6102713331073453	0.4258822191930003	0.13607756759142708	0.39744049210340127	0.22259312811918924
-56	-0.5616521821146794	-0.7365954499720929	-0.9429655647312098	0.19391263972438402	-0.18070791616114987	-0.8856885410835535	-0.7640734891673965	-0.10749909999647798	-0.5091112839242733	-0.10405168656066281	-0.6097664817673724	-0.5033973442719516	1.3612731660806328	-0.4816624808071583	0.15672734340198521	-0.41152536765148906	-0.3033289007634803	1.061166999045054	-0.09588014310232822	0.11495566339079512	-0.11539724440049871	0.20049337992116342	0.5011334406598085	0.26988702944326504	0.40855348007049136	0.40758883850188193	0.5304645882565003	0.12306974052113073	0.04163761426426753	0.7240710836249297	0.379409133430054	0.10139778975873899	0.4132732142504697	0.21561191921633627
-52	-0.43293821702369634	-0.7867506722613872	-1.3593399490368687	0.48536243912224913	0.20272540994959332	-0.5812455401050669	-0.7708227018922081	0.020506214298688746	-0.4397338021620262	0.1521260287497154	-0.5837639555497584	-0.754366872790231	1.3393083776991987	-0.531828044502295	0.21891359929604354	-0.5581475482200243	-0.6372433884744281	1.0416742536947934	-0.3939385702200766	0.10156866882429802	-0.31044724505245397	-0.025683442065840396	0.39480939407804644	0.036865610536243425	0.3168697945223989	0.10105401252028429	0.3675807407158535	-0.04468513641400392	0.0023680084790852637	0.711868105521584	0.2828723483096349	0.0357586405268503	0.3807480921669078	0.17852666928994038
-48	-0.39762541551335	-0.7388353925170967	-1.3270369734638237	0.59604304878429	0.46050459030233404	-0.17568989053714618	-0.5966969713404698	0.0746768636606221	-0.268948464906679	0.32509708322461894	-0.48809790488034216	-0.883911905441219	0.8985879994593412	-0.46947386742316716	0.22656632902640184	-0.6546987278621202	-0.886585650589803	0.6976386291056361	-0.49220925445263414	0.06203576906754161	-0.5074295984808264	-0.2771425836241653	0.11220946134608906	-0.1969191427027476	0.1807413990702679	-0.2610321038331448	0.07653869669186732	-0.15266773066122766	-0.08992072172111883	0.5608023390916175	0.13142645325857316	-0.0547680853414602	0.2934609942179598	0.09480383223201402
-44	-0.45486807708338	-0.5087133037121129	-0.7959696034362318	0.5407285676655533	0.4893643843693321	0.19236475180695875	-0.2695714824546208	0.052349813150319204	-0.035925939588441536	0.37799331450395635	-0.3350698343400346	-0.8354421236879831	0.25572493607806573	-0.2629284554042084	0.19421866487104944	-0.6586303694308682	-0.9562631821330919	0.17085468725936825	-0.34992808015213056	0.04467535007641457	-0.6400492175155008	-0.46322983386387384	-0.31575873414426836	-0.32364213384932505	0.06830715370813717	-0.5802634939802269	-0.2542072230119818	-0.22093750480660446	-0.21031354314633938	0.291939764477843	-0.06748721731551585	-0.16878262119595042	0.15224204919047776	-0.041987202955573164
-40	-0.5159589039173608	-0.05654617012171714	0.013573178055886145	0.4026558389034357	0.28575315999364576	0.41435387625984155	0.14992608092125484	0.0012951382635989796	0.20016755113132137	0.3104231349737032	-0.17064712898562318	-0.6115943177994396	-0.3199194959669544	0.04968675585957459	0.13067923453239422	-0.5761886820550901	-0.8266486504664712	-0.32267427362990586	-0.0464271231313599	0.05204318450662697	-0.6832551938926222	-0.5343162403921616	-0.736344991255379	-0.28455692457834625	0.0029823712463630156	-0.7855201939777507	-0.525058864221534	-0.2911098294060858	-0.3384563914336878	-0.03929741670700457	-0.2882750027054031	-0.2993558041643958	-0.028356239128045746	-0.22046446744570006
-36	-0.47285148382012654	0.5489004836529168	0.7218737584008327	0.269878535781406	-0.07704804818250943	0.42893329154438214	0.5601353631182648	-0.021909948383088688	0.3659240892231489	0.13546168769967912	-0.07307228427557796	-0.28787079380787933	-0.6416956170093299	0.3555978527627852	0.02791025296257534	-0.4677308488004011	-0.5662710056313078	-0.605084417722797	0.2518379979927865	0.03803896894387783	-0.6623268706765708	-0.5024136292170622	-0.9634088253493038	-0.10058491651650572	-0.04573896515742366	-0.8581702091484835	-0.6684286577514668	-0.3989109386862976	-0.45875438931989065	-0.3562557688301549	-0.48981991286587795	-0.42538887154943994	-0.218194364950516	-0.41047823325471877
-32	-0.28257334160987413	1.1225179405481778	0.9973291729542454	0.1814649696536919	-0.49566143626001924	0.22488197627510784	0.8288288095529163	0.0036621037778186293	0.3947769691513705	-0.13562545146078606	-0.12614297834973248	0.008641139582334468	-0.6776384694156837	0.511258779665464	-0.13343599404977946	-0.42076098812682855	-0.30170893592954234	-0.625933526366142	0.3766035726098821	-0.05970706403082039	-0.6339142306535488	-0.4309419978705637	-0.9022579170335412	0.13541407848978498	-0.13509413565859965	-0.8305931070338134	-0.6772013289520047	-0.5562521801255971	-0.5602704868476295	-0.58620285839852	-0.6284586175310314	-0.515138922821256	-0.378510921237879	-0.5712175354840839
-28	-0.008824613854360789	1.428429123133065	0.7403758149527827	0.11466633499520526	-0.8761337973408923	-0.15758597811012925	0.8367933609816297	0.04616155836252393	0.25648325616930606	-0.4878258692822741	-0.374200313338606	0.1525754626713483	-0.5303450213393828	0.41433194175061955	-0.3639446189751559	-0.5016305433959802	-0.15703481396128277	-0.4783569562278727	0.24972653325927163	-0.27161937883464327	-0.6492047293484644	-0.39818227190575817	-0.6230307801729091	0.30264407319906245	-0.3019814185624451	-0.760083792674784	-0.6021344050463766	-0.7480461578556277	-0.6370955093511137	-0.6860958916508005	-0.6747650487076063	-0.5412098155662548	-0.4748926150729841	-0.6651074273483225
-24	0.21346403604495556	1.2895771232471214	0.13328087296214317	0.018523685587368388	-1.1490087480145592	-0.6262183769628044	0.5419803844119655	0.04468987870854189	-0.02304890187225851	-0.8824623204839414	-0.782738683631685	0.08159764835498656	-0.3491623392826344	0.061924837373314084	-0.6442610605186303	-0.7123691421643009	-0.19290623020105369	-0.3360476783374285	-0.07411479931238985	-0.5636972174717598	-0.7214114647771219	-0.45375299339173736	-0.3293127111226822	0.31036287467798745	-0.52662312851507	-0.6954031569089791	-0.5200187550766968	-0.9436041092890763	-0.6895242912049804	-0.658205805547205	-0.6280358417867069	-0.4982995080287952	-0.4916034626469889	-0.6727092845144935
-20	0.2676843099988294	0.6877549869339347	-0.46273019793030556	-0.13350531425147824	-1.265782472275703	-1.0467241976059938	0.02596032240392937	-0.04303647939425967	-0.3609389951653005	-1.2430021731465113	-1.231386777629878	-0.1662514801596316	-0.23406411648305767	-0.4355479765862754	-0.9180769301123459	-0.9780968999009956	-0.3754200925885323	-0.3490655413397636	-0.4378203440579552	-0.8419609644613195	-0.8159135559463029	-0.5898842796691326	-0.2356849306831815	0.141983434199441	-0.7298772316624862	-0.6542218311004765	-0.4891291248369976	-1.1117526264731847	-0.722996531091632	-0.5476856813908166	-0.5201423155050042	-0.4125228811816091	-0.440452395757624	-0.6028885826148156
-16	0.13910306955026489	-0.19992566058227237	-0.7063125950146752	-0.308743625099785	-1.1970541446980658	-1.2765146461682846	-0.5145859705330708	-0.20149576613098158	-0.6431418641065085	-1.4669517241634293	-1.552842374695783	-0.46286940457782705	-0.18940713953834873	-0.8984384514059773	-1.107244131153757	-1.1760021418444175	-0.5923271760290842	-0.5588377104001361	-0.6693760735777796	-0.9938216184320037	-0.8688359238623083	-0.7434414606397755	-0.43325090298939856	-0.13709618116574437	-0.8080254176719985	-0.6220963581591246	-0.5177770243923542	-1.2319378821740796	-0.7432008962940693	-0.42232423914140593	-0.4046494652545271	-0.3331196001702301	-0.3580556204815708	-0.4917167114717762
-12	-0.06507521851322162	-1.0547832223964377	-0.4596709895449324	-0.4238308955459119	-0.9451085305194089	-1.2201284139345476	-0.8439211228044541	-0.3552850475877937	-0.7700257281889286	-1.4675068818234658	-1.6064534146757845	-0.649299023896261	-0.1503135856171225	-1.1604249448088562	-1.1455805272743131	-1.195800182184447	-0.7113603931586691	-0.8794786907879526	-0.6766645295225128	-0.9470955705572693	-0.8256062248366262	-0.8294632413903037	-0.8320351818058683	-0.4114503552062286	-0.688974378753671	-0.5723165855263225	-0.564334867959957	-1.29797708660482	-0.7516208272077171	-0.34494012507134014	-0.33628216300938285	-0.309692203216668	-0.29225847051265236	-0.38984066149514757
-8	-0.1794116194486863	-1.535957928594308	0.14655843340110894	-0.39633637566636953	-0.5657827839871852	-0.8834054447758413	-0.8024589995151235	-0.4106238474015374	-0.6988018137454912	-1.2266681163335027	-1.3526583875837062	-0.6172181948337332	-0.057089682524309904	-1.1452796430282466	-1.0167323325236348	-1.002333280893729	-0.6518405659430669	-1.1532473535031253	-0.49423152083546784	-0.7155109625871242	-0.6782454831165438	-0.7895351032350395	-1.218160626196901	-0.5711162671928662	-0.38027170204474325	-0.49286529297369813	-0.5691604003841446	-1.3136800494405398	-0.745411632563207	-0.3512448361588616	-0.3501323154669378	-0.3680344810730606	-0.2839986674767894	-0.3439698210614913
-4	-0.09306994057045617	-1.4182579481556932	0.7941246608711571	-0.2035120720493528	-0.1750891949286164	-0.3920122971174113	-0.39811161059955535	-0.3143497399499803	-0.4609622049614417	-0.8254322388789661	-0.8865677095917709	-0.3695007851331555	0.08155197629604273	-0.8975140429724897	-0.7730556110891462	-0.6653482301126071	-0.4322106827314048	-1.2406711547045206	-0.25676333839439847	-0.40289911526047223	-0.479340373259539	-0.6294857843718523	-1.3878573144204966	-0.5621143565291009	0.020138129541097945	-0.4025361825793512	-0.4992913293153536	-1.2868967023783395	-0.7217910271540933	-0.44131329544226383	-0.4491245735273243	-0.49675708883751424	-0.3508999934873842	-0.3785680820920743
0	0.16109724302149886	-0.6976676565675685	1.1515122622980942	0.08984092600312724	0.0787448657551106	0.0481434351480437	0.18158969237256953	-0.0932352987558068	-0.1472233679153832	-0.4269662786671157	-0.4073978354181814	-0.026263460450620762	0.17872817769225602	-0.5535278306337266	-0.523576913942225	-0.3381087175415907	-0.1678805347018748	-1.0957040759079295	-0.11925042390517848	-0.16294792253361862	-0.32434150494703134	-0.42517989766538505	-1.2732495037357325	-0.4089121510195217	0.35719811826167464	-0.3468658021275592	-0.37815800213705497	-1.2264119355709049	-0.6849113089435251	-0.5869387373410592	-0.6058534964523921	-0.652694342872674	-0.48025542376382047	-0.48654454823677257
4	0.41214451089753024	0.39000120660544474	1.04882073137603	0.35319203049179027	0.07339908164089516	0.2390221500322464	0.6512336714514961	0.15122254154649112	0.13318498399010284	-0.21325156038802895	-0.1340902891349882	0.2291606360848619	0.11928264766617883	-0.27018043330643116	-0.39385726948480826	-0.19251814435990094	-0.019203009035384137	-0.7894546965694406	-0.17078845159802883	-0.13316073980090168	-0.3106913558745153	-0.2926838986636626	-0.9781832074264124	-0.19909766266146553	0.4808698582429363	-0.37747245931690165	-0.282559781553222	-1.143711206409587	-0.6507040245793593	-0.7508354764101393	-0.7789150456789974	-0.783031223227504	-0.6360089166796017	-0.6346647127340209
8	0.4550274301007847	1.443445321253417	0.5579239115933917	0.45385685448499624	-0.22284644785884508	0.08901730902370032	0.7687086443566521	0.293903111669465	0.29455205723781863	-0.3008443109546135	-0.20365403541168817	0.24138307510467766	-0.16216793615405714	-0.15157453677532348	-0.4724035251134481	-0.33819359455553655	-0.11190358521103522	-0.4687334883299589	-0.39362275501053157	-0.3726441254744167	-0.4912893461698157	-0.33322584544927397	-0.6984218341360074	-0.03868811195261678	0.30984544675799863	-0.5252796994298693	-0.30392646712816723	-1.0546532842711553	-0.6434577687230205	-0.9057593322773865	-0.932925937204525	-0.8516657926991463	-0.7752218226887492	-0.7793412784927101
12	0.1905659432368238	2.0408446737261468	-0.05685832709619834	0.327796786195937	-0.7190572601283721	-0.33173108017137065	0.4620220053451948	0.2540296309733219	0.2984077922916367	-0.6791495067615696	-0.6025317296074463	-0.03509074813208652	-0.6235596521846659	-0.21266309863280844	-0.7677342872309688	-0.7648507933379498	-0.46863236905035277	-0.2784467630508805	-0.6887497288480797	-0.8336542823724592	-0.8446468689574069	-0.5784611091314146	-0.5862738475302683	-0.003727846071025396	-0.13397544588595717	-0.7817851881316203	-0.49318301553187116	-0.9786787604418239	-0.6846355182528457	-1.0438271734586448	-1.0514420244373441	-0.8553404786449162	-0.8660889246054805	-0.884860096127912
16	-0.2859191589289261	1.9148169707591187	-0.4790793645207265	0.01665154281524821	-1.230120894187334	-0.8164313414941594	-0.12860803273632346	0.039562079955590586	0.15376095434945417	-1.2072055309334222	-1.1676969498716727	-0.5071033226561495	-1.11574029640788	-0.3924344470129672	-1.1990870207076427	-1.3384840454640363	-0.988355574496677	-0.29476794526065003	-0.9465473866406541	-1.3812884057456754	-1.2779219118278786	-0.9661655401632055	-0.6549482329045201	-0.11104222359039957	-0.7369904499520221	-1.0990631552604107	-0.8227454403132093	-0.9368055439185153	-0.7816141228015469	-1.174370285883877	-1.1377801866415413	-0.8231124261101649	-0.9010630227227457	-0.9371189451399531
20	-0.7119868975783215	1.0813903781291268	-0.49471258992223544	-0.3504129043315095	-1.5554106196233808	-1.1179448337939768	-0.7188935261695875	-0.2570240491099878	-0.10415121141602525	-1.6729278522215756	-1.6577401119339934	-0.9827396844847632	-1.4433660470760659	-0.603989241982459	-1.6262122351596506	-1.8537880135462588	-1.4842104874331488	-0.4991454171453118	-1.1143577070711608	-1.850164170362354	-1.6608016449005067	-1.3591927255646452	-0.7865279893090685	-0.3197412780795259	-1.3426095213371045	-1.406347271229588	-1.1877543896251097	-0.9471794342922566	-0.9234775281478745	-1.3121966090451154	-1.203562495053948	-0.8021222332729928	-0.8985443092548312	-0.945233104226675
24	-0.7973683456316444	-0.1377464678386021	-0.08825975634225953	-0.619833944663097	-1.5711965521244187	-1.0696487399751777	-1.0267236206835288	-0.5088013993768684	-0.437111823647299	-1.888039107324224	-1.8617974472723748	-1.2629801003040186	-1.4567689858850001	-0.7882360796100845	-1.9062070798430515	-2.1209602302407933	-1.7664005711780846	-0.8013599494728849	-1.2181056707145568	-2.111880297097214	-1.8766574812238095	-1.6037208993476004	-0.8363128879413083	-0.5593205676262424	-1.8135250761021364	-1.6349374014584226	-1.451424237401485	-1.0202487681379255	-1.0873640748227238	-1.4632375203382733	-1.2538908688358779	-0.8371943214260215	-0.8917018748658262	-0.9308856702190145
28	-0.4021214236597288	-1.2246091334895801	0.5535236583086028	-0.687154589348628	-1.288451668347314	-0.669232843616746	-0.9181936360065215	-0.621686933855196	-0.8125372508515253	-1.7722840264397197	-1.695319052230656	-1.2403093545116473	-1.1278144092695468	-0.9383419132383668	-1.9526919077209888	-2.048605198456309	-1.7326685146455132	-1.094120380500246	-1.3285682167842374	-2.1236617511537723	-1.8700717640392037	-1.6023299653606335	-0.758195517533067	-0.7652589063396965	-2.07975673150449	-1.7412034229186422	-1.5143746099384736	-1.1566987008454857	-1.2509810892945792	-1.6161093671050188	-1.2806404796692206	-0.9528190469527311	-0.909984049883755	-0.913039622385806
32	0.3608730128237007	-1.676832552490953	1.1315991849939389	-0.5436996207815262	-0.8436646440186332	-0.07826235870629143	-0.47191944599212693	-0.5811891541112517	-1.1952900856357471	-1.3851557935075176	-1.2353671757979288	-0.9525058841498718	-0.5680184946024207	-1.085380432249607	-1.770604963600636	-1.6832808213650536	-1.4210317098979577	-1.301167246394434	-1.4974036178930032	-1.9377350758266834	-1.6698617893020706	-1.3661224807580257	-0.6551189406067258	-0.902951715096975	-2.152785534191814	-1.7194677547911466	-1.3709956372932686	-1.3478549684826744	-1.4032628500795383	-1.7447965101059206	-1.2698384491331385	-1.1464710206650093	-0.9638993119699221	-0.8982463456363513
36	1.1640723914320323	-1.2411426274435036	1.370755788203298	-0.2740281217332248	-0.43016770373456387	0.46001395467010414	0.06621000153991284	-0.4543129194233437	-1.5342769584065965	-0.8928912855493161	-0.6808776838278241	-0.5657395706198322	0.0148213402925248	-1.2598919836660023	-1.451904293209294	-1.1882824867764865	-0.9988390778118834	-1.4007726872363992	-1.7072337822725958	-1.670844073845489	-1.3788572515007147	-1.0193636391652459	-0.7165353280096478	-0.9695686673480645	-2.104038233213205	-1.6024544198586104	-1.122459289577867	-1.5782943924156414	-1.5449546536539909	-1.8219106151358357	-1.219562169810611	-1.3909929955649236	-1.0394889090042658	-0.8808042384797659
40	1.6341341692674574	-0.055339749762767364	1.1385502786500952	-0.005742449298903885	-0.205005585629719	0.740343986072553	0.41241717234436687	-0.34581670077751625	-1.7573178962208527	-0.48731672640788815	-0.2579029493973043	-0.29464214965816915	0.40180888670563814	-1.4537690841210287	-1.132431981088638	-0.770572779617296	-0.6895228010888647	-1.4180000984630459	-1.8694946718699454	-1.448346730390212	-1.1331628532410285	-0.7493125777399731	-1.0774954530214678	-0.9766970252173351	-2.0194261023080555	-1.4506469928355763	-0.9350712871785091	-1.827749843751159	-1.6766157107938078	-1.835530157223337	-1.155893799724471	-1.6411248404076446	-1.105259296487748	-0.8521088936272878
44	1.5564187725825664	1.3883112633939598	0.5026393520062566	0.15706689616125213	-0.22055533472643074	0.6888094527019939	0.3872426738498819	-0.3381029954957067	-1.7847194626571024	-0.29764607473565274	-0.11598228633923388	-0.29908576532192266	0.44843447095185723	-1.6073654849478347	-0.9287653541957728	-0.5890280589490959	-0.669989703394193	-1.4001001084264517	-1.8695728731636934	-1.3468315567344649	-1.0464537117286858	-0.721346138086613	-1.6960779385660205	-0.926278469608088	-1.951741332848511	-1.3338180746735098	-0.9599010920131282	-2.0709838814900183	-1.7823739006818233	-1.8011754705730134	-1.1332641811368909	-1.8423870755409857	-1.1297770710077555	-0.8138570764974545
48	0.9968836282356742	2.4567987856825555	-0.29343724176707675	0.1814873810000709	-0.4145821620487549	0.385332076768753	-0.0027507019625446004	-0.44972607379855656	-1.5624880751261419	-0.33797240171933357	-0.2632599168329675	-0.606382189650215	0.13446743752385226	-1.631845827751018	-0.8845339991171691	-0.6849776489129927	-0.9844965909897269	-1.392394777597212	-1.6325092274456932	-1.3606798614480364	-1.161174652028948	-0.9960776542310563	-2.340094560437044	-0.7963796237866064	-1.8928086709871088	-1.3076354232198393	-1.250266071977659	-2.275946611380252	-1.8216624213956176	-1.7600455239681774	-1.21168064765186	-1.940835351812203	-1.0999919148329558	-0.7838625888107321
52	0.2721373431964337	2.6796045235691217	-0.921197650490972	0.11530496896003879	-0.6561119539861767	0.009567620208545383	-0.5802275523795182	-0.6308135374355166	-1.0957994433393294	-0.5121253715936654	-0.5692755565575599	-1.0968334647142821	-0.4361887265159931	-1.452233072429045	-0.9513109302344318	-0.9666552519234438	-1.5165287217952175	-1.42075800536984	-1.168999311356727	-1.4063458407181169	-1.4272712433065817	-1.4885588846771138	-2.696537011014164	-0.5486226664043201	-1.7763355925534527	-1.3903346026603969	-1.7173478560004172	-2.402732127799041	-1.7380065874088302	-1.7611750319838193	-1.418201562161878	-1.894855971320685	-1.0300267908793517	-0.7890877703771296
56	-0.22140505854020334	1.9951229045086973	-1.0906248065115738	0.05472332597863719	-0.8190060833280214	-0.2581806176342894	-1.0980768176011577	-0.7975524643788907	-0.4640606928076227	-0.670087276197444	-0.8346154668716803	-1.5622878035202021	-1.081632015358436	-1.0481890413522954	-1.014216539683307	-1.2568912474370062	-2.0376458116584173	-1.4875264130229213	-0.5756902680167366	-1.3624339069300582	-1.7204679207279523	-1.9949846217331675	-2.5463128025616566	-0.15167896411270632	-1.5095174274479901	-1.5486892422676088	-2.150549167925488	-2.4065027176180123	-1.482828136515008	-1.8341437531893616	-1.7132971243517088	-1.6877548651998882	-0.9555436348631801	-0.8488370754745377
60	-0.22069160584520442	0.7942349294637132	-0.67007678577999	0.08598207660662752	-0.846598682650294	-0.32960903561343485	-1.370144602177314	-0.8866496659781301	0.1913346196350677	-0.6882629377154281	-0.8952297545718849	-1.8103977396079571	-1.6143007237685207	-0.4744799125136012	-0.9526198482303947	-1.3834086621642723	-2.313552373766996	-1.5737043579423668	0.006383963844453425	-1.1302608223035313	-1.8954225730724892	-2.279682153668184	-1.897468681313173	0.39045348664885854	-1.0210068200082651	-1.7013978915173715	-2.298786634363358	-2.2490026894054322	-1.042339322319518	-1.9628322074924451	-1.9829901406767196	-1.3366823162663148	-0.9137810445602953	-0.9558122133918598
64	0.26639664105867533	-0.28341850566833293	0.2400789850849294	0.23230600298404036	-0.7754663209410005	-0.24975675281409646	-1.3622120584427642	-0.8977344609483127	0.7054839712450999	-0.5340554700719277	-0.710938511484014	-1.7631556943247049	-1.9118226718317421	0.14899238906436688	-0.7067419272699084	-1.2684491840762213	-2.2179334107668334	-1.645543451922978	0.4481019962441395	-0.6876198035999255	-1.851358647440637	-2.184496158806577	-0.9926037763330277	1.0211749051061074	-0.30364552063572775	-1.74132930792809	-1.9787248323073616	-1.9188538741302743	-0.44988408571145716	-2.072583431733172	-2.067169422652603	-0.8894126392797175	-0.9171076989861003	-1.0658283206733
68	0.9670590733907775	-0.6996334177472978	1.3139581647123597	0.43275704870635895	-0.7113265377205221	-0.17030513243592663	-1.2007501095019668	-0.9007373429445152	0.9391152238977303	-0.28465062307969663	-0.3944416930253554	-1.5002353153498431	-1.9605965564818544	0.6712932569721396	-0.31710594812440274	-0.9733067130310706	-1.7989766552328008	-1.6704523521210142	0.6705673916098975	-0.11060504587381764	-1.5803607662354975	-1.7086472468152307	-0.1908487523744078	1.6381365019447303	0.5675976858113689	-1.5714966019054604	-1.1617140740628036	-1.4517464601103274	0.2264172727113561	-2.040327066992224	-1.8164812280569531	-0.40736028449206774	-0.9337553358344804	-1.1035474510941206
72	1.4792879782521564	-0.3296926311275213	2.0936989731379905	0.5597190246755599	-0.7764989714091269	-0.274637340805936	-1.1035599680694919	-1.009244558647276	0.8188555816003436	-0.09313765144675006	-0.16577427047360346	-1.226648685219355	-1.8604757738824622	0.955051360103223	0.08435284325045041	-0.674152372565507	-1.2655065027710897	-1.6414744812530142	0.6527421457976632	0.44948080068592505	-1.174550172701355	-1.0197706196787446	0.2029982204080415	2.124010795952696	1.4531098567514773	-1.1419903011099768	0.0006690912979525843	-0.9382790899429322	0.9166316962941259	-1.728243823456428	-1.153458115526519	0.06093744918219967	-0.8865132905512283	-0.983425376316528
76	1.4591100179072878	0.43979811557357645	2.144891018220535	0.4694697249003657	-1.0524033281458545	-0.6908556205473222	-1.2699854341867836	-1.3304122652796428	0.3550732424831191	-0.11585424066141843	-0.2487308078684903	-1.1762787073954772	-1.7845458939319547	0.9168881750799468	0.3324581972311499	-0.5758734926943135	-0.8935164786667867	-1.5978159864139005	0.4171334792572793	0.8291597345398737	-0.783994493889287	-0.3843697895836062	0.06787711364774908	2.3898689686518297	2.1989469472680168	-0.47046449661683304	1.2294378249599327	-0.5054263459796279	1.587085362242079	-1.0295860741369953	-0.10726720812656479	0.5049861656790731	-0.6727045757475681	-0.6371048672803198
80	0.7578797917304889	0.8953312612816812	1.2220916717192027	0.0667247472508935	-1.5415244063558278	-1.4300193750516574	-1.7844170286902756	-1.9127285432207515	-0.36286559609351127	-0.43439781556127094	-0.7563022356012016	-1.4950557909412283	-1.9059392165701072	0.5537964091624064	0.309974341802	-0.8044982532216753	-0.8953943826003389	-1.627712722483438	0.01339674365118357	0.9290873980906812	-0.5444569573961303	-0.048098429916061614	-0.5126687275340661	2.413021081554192	2.699332945684229	0.3627534201523272	2.2272908631357864	-0.2735309593924085	2.2601635399021562	0.08739271737922337	1.193462368812969	0.9592270230870652	-0.20146994241869784	-0.03761117150824374
84	-0.5463780150923909	0.3794136633830455	-0.6202690585688588	-0.6455771906765928	-2.162719005846422	-2.3739783703948305	-2.57753228490471	-2.7146203449376243	-1.1883525818385654	-1.0080941890060153	-1.6210384327969198	-2.16056775501262	-2.320419782502099	-0.04934282215892774	0.01229013499494848	-1.3327333893506257	-1.3145632710645918	-1.8393259002023399	-0.48243713257102583	0.7681416253723353	-0.5103169070711012	-0.12200622974824973	-1.3274824585777503	2.2527766170845025	2.943892471510257	1.2425622908691794	2.7963037420244845	-0.30130466742737394	3.0017137451679834	1.5541529616217953	2.5659587318486032	1.4845776520440381	0.5654940590886222	0.787980316079999
88	-2.217810148361749	-1.3363190855619707	-3.0238928718514884	-1.5536572893970946	-2.783006661064404	-3.318818560804138	-3.460833540761747	-3.6077666191566458	-1.9538161705279038	-1.6828073220681534	-2.610209696855289	-2.9805707856266377	-2.993435613703898	-0.7383885961009885	-0.44125160463507707	-1.9814348170798775	-1.9979669997316192	-2.3029546679526884	-0.9609760021742937	0.48416262742827215	-0.6293023808803415	-0.5297948108648503	-2.1496336405840495	2.0341861196658093	3.024196617120497	2.055269712981109	2.9123873637101614	-0.5437494502644327	3.8791096112541634	3.2055373110901457	3.8345577620014115	2.130379671440156	1.5865271051405223	1.7615572169651543
92	-3.9698471922781247	-3.9010305306171533	-5.440523610684164	-2.465627425644396	-3.2748494065572396	-4.057227601298233	-4.214654911844371	-4.41487501937109	-2.512647860858933	-2.2575690689309234	-3.4262449654859157	-3.676622858301648	-3.757169475606222	-1.3348158564245307	-0.8618698694403513	-2.5036780770986202	-2.665611498778401	-2.9886727257612113	-1.288715478504424	0.2718664400866135	-0.77703797621047	-1.0467194292344237	-2.8132946420212592	1.9013525199569317	3.089236013242299	2.712584011858659	2.7194676330571	-0.8534899928478915	4.907798754698843	4.810453879608922	4.875815379230277	2.8935537265201625	2.7362725665626453	2.7674691607221624
96	-5.542503342940118	-6.542973978689319	-7.320594292277774	-3.179521075804268	-3.57709573796272	-4.46728037659962	-4.687939155186797	-4.968724238248634	-2.778651230472373	-2.579658263369191	-3.847232093634451	-4.013956059812024	-4.366904247702654	-1.693584318653493	-1.0859206887484871	-2.711112253973581	-3.0431005877911526	-3.735923280820386	-1.342289563604758	0.2855066947881218	-0.8335406759198041	-1.4100673163099173	-3.217049352153	1.9597942779652031	3.269325963349139	3.1568009773661476	2.4488346514863544	-1.0322332356140764	6.0158462372528545	6.1234512174499285	5.631921753969241	3.6991729642932984	3.8322343729539328	3.6746339705198046
100	-6.7315301725186805	-8.447005250584983	-8.304146745696643	-3.560846796582236	-3.7357301617718015	-4.572868812459743	-4.864907252426763	-5.173196779541473	-2.7547013690063515	-2.6254882746212793	-3.840386142571413	-3.9163780113523305	-4.602481830420866	-1.7570024684414975	-1.0637073489989675	-2.57917856518925	-2.9936737938638194	-4.290564049378549	-1.0650440427593255	0.5523788318992923	-0.7606666664945708	-1.4482119046840705	-3.2883403218216403	2.2304408493949235	3.6030063538183223	3.3515508090277715	2.302139514832798	-0.9174085832321669	7.047308904021221	6.942585450763893	6.093157752865767	4.4160427935685815	4.6841368556968845	4.36217116208228
104	-7.386433582730443	-9.138496375853295	-8.338022211004182	-3.5961387066646413	-3.898936977079348	-4.54314135358094	-4.867228018869878	-5.041730868008158	-2.540551656030792	-2.5241894658255206	-3.585966101175798	-3.507459870066024	-4.373115051672569	-1.5832397897801695	-0.89512169135118	-2.271152490603782	-2.5844783717707176	-4.409479606939644	-0.5196453915827663	0.943146524432291	-0.6342733486374138	-1.1644748419925397	-2.968668930187937	2.636024468442334	4.004178513907755	3.272573224388304	2.3538803994830486	-0.46626233936845507	7.807740668611324	7.158403855370371	6.267135604294191	4.904360281959722	5.149734484068483	4.74324225181841
108	-7.411931972863819	-8.665636040743442	-7.665356616694198	-3.395699730882859	-4.256240833980588	-4.620623100058902	-4.887518870411666	-4.695142734117584	-2.307644122973197	-2.5028796132792253	-3.3901433859109256	-3.052830449979722	-3.773004999171588	-1.3298565115731602	-0.7861608843028238	-2.0598535485713425	-2.0521147199318235	-3.9868972200823674	0.10295854482882266	1.2225450246462197	-0.6066836103380832	-0.7326529007533786	-2.2499892654832636	3.029141895275736	4.292755592952117	2.9135360644213724	2.520790093733273	0.20694042690004916	8.135148027861604	6.7819919414952805	6.15903137559374	5.074524389806466	5.177889810840659	4.783991324744092
112	-6.804911119446448	-7.501550655498882	-6.695834142945718	-3.139863483130956	-4.939081656383777	-5.002784239535932	-5.086109625372919	-4.315052975250558	-2.2372610512514832	-2.772758715304755	-3.5262534529348346	-2.8307101655063422	-3.055572978888203	-1.1892511814609303	-0.9438794231425989	-2.1837019865215948	-1.6861290889130993	-3.135564796160608	0.5393718467446013	1.1610735625516644	-0.8167090395334669	-0.4088642288852433	-1.2401590315979034	3.2512574113775456	4.277297962833673	2.3075892867001424	2.6097171240721084	0.8662775137010736	7.964341143527226	5.943423733010655	5.774398312294825	4.9267215604372	4.822860228759728	4.512258518270729
116	-5.709851250537625	-6.245330317941773	-5.8217654081225	-2.991626493530243	-5.921722397158463	-5.7239770744765694	-5.496255860757077	-4.067826737624012	-2.4421768126817525	-3.4066200170338767	-4.081257332988052	-2.9912061615763483	-2.5288803513575004	-1.3007351127209035	-1.460381861814294	-2.709438078715357	-1.6875833230326578	-2.16957926202417	0.5592782483285588	0.6551101191193214	-1.2952758041104193	-0.4042888571545465	-0.1979826534756286	3.1972999492029843	3.851215829662601	1.5498269757242091	2.4185092388126743	1.2498306004440294	7.356018047834089	4.859674441465853	5.138428198238874	4.550232875779833	4.223813999956012	4.010968675023424
120	-4.434402454624522	-5.313914762432043	-5.265079008160811	-3.0197479648642727	-6.978893262409285	-6.599152071504026	-5.985145553736617	-4.032353867840525	-2.9085690901754897	-4.273371685682942	-4.889098155075647	-3.4757172973617423	-2.414646619422402	-1.6828945832678843	-2.2485547008964315	-3.476820936961617	-2.073301071654456	-1.4802094660580574	0.07188382726640202	-0.20835596270408482	-1.9223334740741869	-0.7832825164092426	0.5135660158542493	2.8565678524375175	3.0527315062696445	0.7973315695659108	1.8384441090897592	1.1816465824811067	6.475127203805684	3.778623094555353	4.31313942773952	4.081801881021345	3.5564229398581757	3.3951620969883423
124	-3.38642429450491	-4.804072844773958	-5.022431360915771	-3.1693606296629286	-7.738246898187414	-7.27303789209877	-6.301732047383113	-4.164976586316721	-3.486080160876228	-5.07067822129811	-5.5938825466067845	-4.040950288106908	-2.7393619945028433	-2.218069547775157	-3.066340200311824	-4.161067952140797	-2.6735534600468016	-1.3584328855549668	-0.8206519463800489	-1.1789216965474347	-2.4651191172350346	-1.4376083576145895	0.560667513385476	2.3123967589170085	2.056989664606405	0.23347809851826679	0.9071910954459214	0.6430633051848929	5.529364571916162	2.9139125273568234	3.395561924944486	3.643717041352867	2.97548388683577	2.7790243555477248
128	-2.931510679473037	-4.5743374709033	-4.927089201885247	-3.296300164483428	-7.824592093739677	-7.366988640305171	-6.193819030382618	-4.320247162401751	-3.9422933955795028	-5.449984059879029	-5.816044315912824	-4.3759069332267995	-3.312194815856262	-2.703072779506574	-3.6210551170479004	-4.424450386320792	-3.2198328890569825	-1.8451218558456655	-1.8563642454962364	-1.9517567108468241	-2.681844704532704	-2.143706077885392	-0.18979264747862146	1.7011556582416159	1.1029887171554067	0.005356872906422105	-0.20810432679563964	-0.22979412914909653	4.696663844648412	2.3918316303900387	2.4942295488326804	3.294405452040092	2.570867055124175	2.2440392914382272
132	-3.2243814386975984	-4.4500751383007735	-4.783714282355876	-3.2499444402657485	-7.040169221269471	-6.662709696160452	-5.539101109824928	-4.3220519910409925	-4.064373006095867	-5.179419504440313	-5.338220105998608	-4.251202095742577	-3.8080694579301047	-2.944934122279722	-3.702898731419512	-4.078592290117584	-3.4721717746808745	-2.6941287449527396	-2.7209286621061457	-2.3036475123418083	-2.4359099803458903	-2.667165034235904	-1.56247722708082	1.152763363788771	0.3937674452853585	0.1650294359332095	-1.2818067041459513	-1.2184810607664045	4.0738415615224	2.2292978707295963	1.6984612898859919	3.01797818375607	2.3531663358404424	1.8220798923265704
136	-4.105777730112424	-4.386301029575068	-4.490546215163926	-2.9616517945855363	-5.490756497825405	-5.230505930092582	-4.423049915590685	-4.053677548664374	-3.761848917046434	-4.26221369620916	-4.213061798902836	-3.6228735355461166	-3.9209649463840845	-2.854546539728998	-3.2777123368478627	-3.1713929096260594	-3.318604222502067	-3.4797673137547154	-3.1770641723528295	-2.184447521416563	-1.7574750140640838	-2.857403032718002	-3.1110408227575594	0.7421646099426207	0.022805748449801506	0.648799596578949	-2.1135938114208908	-2.1244244521863926	3.66807030705371	2.3511657655482523	1.0601527664121166	2.7547807623929916	2.271909469590518	1.500773068453649
140	-5.139302717584811	-4.469865310827712	-4.087923516442901	-2.4879417356619102	-3.5829021840234994	-3.427337160994022	-3.1177377622090354	-3.5195617586920855	-3.118223897690596	-2.945626489831685	-2.7355928351953427	-2.6388389997615223	-3.51378964490661	-2.488914006625032	-2.491627210048357	-1.9531533668796748	-2.8000533510085477	-3.8021559619275784	-3.1544010559549704	-1.71798145337278	-0.8191035965266278	-2.686943762671075	-4.300283421149664	0.4737149167021629	-0.037682432586183104	1.3103836741742043	-2.584000819357983	-2.845410578219471	3.42991017429319	2.6399936609371957	0.5994616731767514	2.454381221296569	2.254955286054832	1.2468967406263025
144	-5.7883248183021445	-4.767072188739446	-3.7093727495000905	-1.9838746736029533	-1.8745459270833276	-1.7505787566809825	-1.96100878220408	-2.845871441331711	-2.3594803750548476	-1.6095608432186592	-1.2934482064969304	-1.5472149809874565	-2.688707106477658	-2.0179340788438047	-1.5865086277006886	-0.7414426784869239	-2.056233400875404	-3.488690129055063	-2.7567548682229686	-1.1160615654424082	0.15948140580920117	-2.2242886963953192	-4.745798098979925	0.3040496401262846	0.11365827144298658	1.9936644980640152	-2.661592715219211	-3.3878784094151793	3.305340281724398	2.995093814917363	0.3290207079686647	2.1191630309960634	2.248764032408354	1.0363748047411931
148	-5.649147496265838	-5.151059614527783	-3.4681141288933897	-1.618333216395974	-0.836061713968859	-0.6099857076503028	-1.1931719749843566	-2.2171058598808613	-1.7485462382992734	-0.586098788689005	-0.17426753000130096	-0.5598044381313074	-1.737933035277363	-1.6336989361524064	-0.7721988539273079	0.2403841608654089	-1.2320767609960557	-2.684140198606498	-2.190393203927186	-0.5556291923799775	1.0223764155324562	-1.567465420580189	-4.389813888910682	0.18567484570354884	0.3848122050583345	2.6053769522691015	-2.3723194539256305	-3.8189945124526923	3.2752005971233693	3.3711781416655953	0.27455031802478364	1.8099741890032526	2.2381503525492867	0.8715053178718346
152	-4.62746428275037	-5.264217363418113	-3.3551878844427834	-1.4776297770386915	-0.6340235455717909	-0.13110071387569808	-0.8345717170625256	-1.7801742508765859	-1.4578729831127426	-0.000855497489851713	0.5670782909381075	0.25390860374241103	-0.9987041328964527	-1.4503542148211788	-0.12497636644281157	0.9635225510112481	-0.40037527579311993	-1.778560872355879	-1.6561362701564264	-0.08860725142042272	1.7427350238669237	-0.7819564322756277	-3.5195104986977084	0.10280360255512024	0.7464597206342912	3.1481220642716043	-1.7593345597670915	-4.1944041146237705	3.3604659949336075	3.7794320487922017	0.4736363875828696	1.6117075640994698	2.2390782776568074	0.7765379528467117
156	-2.9715487881976337	-4.682322967151659	-3.206317893516154	-1.5110815725322368	-1.0489121649008846	-0.09433215087677485	-0.670990644191379	-1.566457148411714	-1.4843134842590604	0.281316190247768	1.1124006481695468	0.9860683058638409	-0.6835136992363604	-1.4473586045916205	0.43393468747253544	1.5809276064058804	0.4576574850448586	-1.2048231332877648	-1.262793656975632	0.36686146166684247	2.407610171915143	0.12058393626762971	-2.6136364870840634	0.0791417507319261	1.2338691918692157	3.6943030264088654	-0.8625730254329913	-4.509267795622029	3.59216307686816	4.2512864959193655	0.9475904083169453	1.5784403045856832	2.2711250724672545	0.7745934109204687
160	-1.1442086667736264	-3.1916878142836818	-2.767702810929092	-1.5484335383421681	-1.5749014576250133	-0.047787386803376845	-0.3631412973772237	-1.4732474051472901	-1.6484445291861611	0.5779649004649122	1.7582331851437127	1.8147500707584676	-0.7723047117761618	-1.4837313852996536	1.073022243651658	2.314962619658821	1.4082039559096537	-1.2078635662100812	-1.0029165719460285	0.9539818143600737	3.137317411131159	1.1554697722826095	-2.0951650089771845	0.15534637829183198	1.8970963907028457	4.317673195428269	0.2723268561640185	-4.701810824921061	3.9678623576121153	4.788177001308232	1.6625364976869592	1.6924211936182827	2.3279504717225876	0.8598523118244429
164	0.39385732908945287	-0.9991407965229747	-1.8337646676495472	-1.3808718884890365	-1.6573094087719338	0.46007269504738196	0.3725869050155768	-1.3161498274952175	-1.681787367389332	1.2204220264139698	2.740251057382068	2.880634062169847	-1.0252097819193455	-1.3730248178148787	1.9419469784344576	3.315767756673657	2.49264859523865	-1.7039642290963415	-0.7908828834592979	1.7743717387223514	3.994520892548471	2.3163022936514106	-2.1156876033772742	0.35492712169682117	2.7392876079063515	5.02866696041785	1.571442957725298	-4.7011456370870475	4.42735861614133	5.3320464953269395	2.51057147345878	1.8657891703229046	2.3678383767427302	0.9858138536359372
168	1.3756469453412175	1.285499688717621	-0.37419739271101937	-0.864450690947965	-0.9536945199729816	1.6460691648885695	1.606761451479206	-0.9273537373971212	-1.3589897121450527	2.3809115826575993	4.099897851129466	4.187731255448724	-1.1079380484264802	-0.979607221991146	3.0803215425921984	4.57036970891991	3.674376955292182	-2.3109488428897804	-0.5346012101981132	2.8169548440383854	4.937538611343728	3.5393657594965777	-2.4903876718587377	0.6603503210561644	3.685452451937803	5.7540020797413405	2.9194111750327596	-4.486424911615981	4.866000640027762	5.776702389437445	3.3302664672693756	1.9852223346179223	2.330928796605205	1.0795563432140185
172	1.8041089727628727	2.920715086238574	1.4101502859752353	0.008765095822735106	0.5119203316161558	3.3785223875576973	3.146452418966372	-0.24704882440182016	-0.6052911862350008	3.9850370783329137	5.662546620377516	5.582888112277853	-0.767779705970173	-0.2832013063433198	4.394478786817605	5.910372242310411	4.836482512660882	-2.5418279106815005	-0.1938122207993522	3.960379590525905	5.844418987777219	4.706474292316513	-2.8167354989461657	1.0177797053389837	4.6063442113925595	6.375282271501616	4.1733312501445035	-4.117415417766146	5.183120714452941	6.019110187592514	3.963910808092063	1.9761048505482295	2.1744270269808026	1.0763428184037114
176	1.8831878852982031	3.415453663785866	3.1399743477699587	1.1037247153072351	2.376634591777895	5.244348035923112	4.621333110585674	0.6367975457326338	0.4666872310776637	5.751134381079146	7.132436257474507	6.823924524244635	0.029240250513638842	0.6132367237820789	5.710330948717566	7.107391339477437	5.830299839558473	-2.066821093109415	0.20387421496893254	5.042580114984774	6.588742716366733	5.68538855070925	-2.7118153503615763	1.3661837543327	5.383508668658924	6.802361471167973	5.201446520070735	-3.717333784254771	5.337934480541565	6.022180542046432	4.3237419019253975	1.8476692391476446	1.9053199243124543	0.9559312438671758
180	1.8618955565174273	2.7987930704025987	4.397858608586416	2.199893945861817	4.12458466442163	6.755684835543633	5.660771355642008	1.5199798307189993	1.6055661399358983	7.326949101069103	8.243092516114462	7.695363502147003	1.0722528668988398	1.5291149577635013	6.86367700751219	7.994235018573821	6.5428404642853595	-0.9112403965831587	0.5879353269991875	5.949244007348987	7.115350705302068	6.38201282797266	-2.049474711012097	1.6707098441857937	5.973056778132372	7.032794457799321	5.925047859491376	-3.424089184699122	5.377352224124906	5.848671898380496	4.428389061237605	1.6896715121524466	1.5881068666416607	0.7577346544208272
184	1.8975614261402092	1.6135818917543445	4.893309580846265	3.081365100710291	5.328125463384935	7.582565288473051	6.06979034798702	2.170112365965695	2.5328211720415204	8.447258927952506	8.877293564317945	8.107063272988665	2.0049586245461204	2.281115764580702	7.772724608824243	8.540280320539916	6.943319303148515	0.5235947953356125	0.8896504618117709	6.664660436969736	7.467261772376224	6.77451704222216	-1.0582295629486496	1.9375283669191241	6.425374968518699	7.157735806513415	6.340409739698791	-3.3349189674102173	5.4151182037964025	5.64217613703051	4.387182224641203	1.620422001562209	1.3200197186521339	0.5647943601653704
188	2.009728665046162	0.6301769598309227	4.581063259002775	3.614092102462819	5.822010025584041	7.691215495718266	5.911017879820988	2.4274544654594012	3.0599234026900857	9.032214141929739	9.096158958357648	8.124374369136364	2.500550740604441	2.749416582795329	8.452984788533753	8.842514015760736	7.0847301304282055	1.639001961384684	1.0798103782094097	7.254775505822857	7.748443107115529	6.9123782937051494	-0.21766586546778813	2.199564928223488	6.844457132225022	7.307697277692416	6.509325487868511	-3.4721493633344958	5.569055543190463	5.55961702850482	4.339486588012355	1.7155289606650437	1.1861839264485328	0.4633989322406747
192	2.1316487735335095	0.43363922724912984	3.6760432627373154	3.7789778614001603	5.7301153991986205	7.322340469946705	5.454563127097693	2.2704279365437214	3.1553685585465217	9.183918929754729	9.072669960003866	7.91953561690695	2.421529763783686	2.908324949551106	8.972031570670552	9.046151138354512	7.064859849258891	1.9315361927856933	1.1763462990624818	7.797372321469533	8.048811892215324	6.885250074169149	-0.004826352919373716	2.483243459153997	7.311424713748679	7.569916229209332	6.524965269780929	-3.7844316863833387	5.890167698294039	5.689515099465922	4.382635582349216	1.9594260404707105	1.2183227508302807	0.5001752363928186
196	2.205949062499972	1.12692403508814	2.5644462043866016	3.6542367842920056	5.349812494122417	6.8354434794462655	5.0309219233333	1.8180379821652664	2.9353763983048293	9.098808265601937	8.980683304047146	7.679412345571064	1.884413833628848	2.8160531449744997	9.380435919920192	9.25050923872967	6.9760913672747575	1.2542021242901091	1.221543070570075	8.308586099628306	8.382436731155718	6.784401876486754	-0.6193916781999803	2.777113669059629	7.819842795655965	7.93038080120574	6.475065691812431	-4.170678605040117	6.325427993063033	6.003109439952248	4.52962349701717	2.2501027527266295	1.3805173600628076	0.6605125052941887
200	2.246265882542835	2.312092059973686	1.6508387285514543	3.369202366905569	4.975645529582478	6.516148073910856	4.868144499885631	1.2759656873912892	2.595863812568388	8.955770469942564	8.908990837492311	7.522935848315983	1.199280855011963	2.5808572704004655	9.66696069184083	9.458891844709902	6.874055845071435	-0.08778019227276872	1.2504858939070356	8.717645623131663	8.68012998296759	6.678602678603237	-1.8362147761714984	3.025972835530319	8.26723668872196	8.278588274081484	6.42241905498246	-4.507870185914864	6.73927353111119	6.367990954533941	4.719963061813708	2.455942862985742	1.590809341228954	0.880111394090646
204	2.32185291657746	3.341388693956383	1.2081748216643124	3.052977077405499	4.764738070855935	6.455052359496016	5.001690851934933	0.85261386417655	2.3208672941739428	8.843319870556064	8.846032120305075	7.470569591734328	0.7135143262014791	2.3197390974604826	9.768010114803477	9.599001860225298	6.7790303059131585	-1.4692109786132916	1.2709082332948662	8.908662773528297	8.840351082416587	6.611700518127617	-3.0806837004129393	3.1559607902955147	8.512706735099279	8.474021890226245	6.405950530091178	-4.675404536840758	6.985069257266739	6.619293673015673	4.873249518488464	2.4921297964118345	1.7658779576540136	1.0816100808492142
208	2.4790487226838747	3.684099188086239	1.2896612850053317	2.79760264644015	4.707122790850033	6.554528696677724	5.294559942229445	0.6815121156652115	2.2051820699329387	8.75542257005777	8.73236844719117	7.472294311731194	0.6421713812827259	2.1202521270626495	9.62255952312969	9.593761419869878	6.699498636497257	-2.2471516075619613	1.2617914644809087	8.801850296686156	8.804557778063597	6.611978037352991	-3.7027127649282825	3.116075031042579	8.466535546861357	8.434916474980739	6.451230509682667	-4.5771517638039105	6.9878544631007715	6.6501741241401	4.94962309541356	2.371267074320133	1.8632495356247267	1.2154256074736427
212	2.6624174050822416	3.1840710559563545	1.7265841917314921	2.642225497250531	4.695599067276832	6.637266142300131	5.5407857755006065	0.7796503285750902	2.222385639301735	8.639529206397734	8.533666589172336	7.463592987290272	0.9708851551338946	2.0128908106528027	9.231548286018754	9.429540610347972	6.651273710624141	-2.0784134812332233	1.1871926754541646	8.419413545332379	8.605347611635402	6.695241434359568	-3.3150701439129673	2.911238186161793	8.15615461197605	8.193540552433415	6.573594553563181	-4.168983448946985	6.7909426517693126	6.470080836173161	4.977643954107462	2.1980979387099797	1.8980195474387962	1.2820205656108654
216	2.709556095911714	2.0792443699792944	2.210469717166903	2.57364391630796	4.632439124809342	6.579575522023423	5.587118611534751	1.0535798046214608	2.2498202267111074	8.454984643570208	8.283073404380218	7.412008266808939	1.4773958884131835	1.962894673160012	8.681583382622124	9.17774674959453	6.656691057564808	-1.0851879092474686	1.0170026991916534	7.892519454102845	8.357460000872099	6.856905443045644	-2.0129983374317058	2.60824536618703	7.727797488728933	7.8846983710537435	6.770198328091219	-3.4856831939430264	6.5399365259992335	6.199516280734445	5.0340914599158735	2.1114144271948256	1.925948853398555	1.3241419758743922
220	2.4428524909332205	0.8109903315095751	2.4232063232276952	2.537180178912229	4.495242107486054	6.384140952204348	5.4037260872785335	1.3446490730668794	2.1317672675670236	8.199871042529738	8.064954737328376	7.32722757396879	1.8550554467095626	1.8832802724973716	8.112995127221735	8.955952621736538	6.723781568717443	0.2196084255395972	0.7425628881780043	7.4001698307121195	8.195896127988991	7.059926492032576	-0.3438002458475335	2.308875316512569	7.37803743407	7.6737327381940466	7.008973580784267	-2.650449746115875	6.411015971209981	6.004452213386358	5.191591249709875	2.206734651716128	2.0053980299862952	1.3976687157629126
224	1.8036880447625316	-0.23571754932495248	2.163227314255783	2.4580476221967364	4.327945698301503	6.154349788386321	5.0727376809791895	1.494619484942574	1.7567331746570822	7.896139601798783	7.953518370574814	7.23550460895989	1.8742868852977876	1.6723251300551287	7.6512484357300625	8.854972816998812	6.823780996260378	1.2125496833704912	0.38215908311679087	7.076824170365159	8.19945428685452	7.234588604781295	0.975597259919361	2.1057827419520865	7.253234844968592	7.6678619191170725	7.229930859431726	-1.847652192219282	6.522913916331518	6.008686527340511	5.469998345869757	2.4857666429702583	2.162562841677505	1.5395414790384465
228	0.9319139695480834	-0.8997510052852624	1.4242274725241664	2.272192234024619	4.178307045877791	6.000007614245968	4.717219340812334	1.4068955147508477	1.1219559879586543	7.55556581496944	7.951650599430848	7.144872647366204	1.4994137249283335	1.2698583570844433	7.345304947427788	8.881107307899626	6.890973550564611	1.4961845837011347	-0.02083158674047037	6.946131688700496	8.348837831399239	7.30246875826592	1.4441673719184032	2.045341009698071	7.375787239526121	7.864177207165125	7.368698101513013	-1.256348487543052	6.88093565157262	6.233827575203481	5.8232860418161705	2.861371033119971	2.3799681603424765	1.7507232383395532
232	0.13007874754012064	-1.2344076602287573	0.3963216235168249	1.9602063844781397	4.038562764461813	5.947222694640468	4.4253430254786945	1.0839577885916998	0.35538956433214347	7.161257725755012	7.975282172094572	7.032315236456537	0.9031081176844707	0.7069206219944939	7.152187806191729	8.95251367216026	6.8547081774261915	1.107346293514644	-0.40476840632287614	6.922676545784861	8.545543649078873	7.219830017935012	1.0531102392311058	2.114934439087794	7.639852504514938	8.164761522659884	7.39456985514032	-0.9688230132438069	7.38179395719284	6.598719103365471	6.17061708799735	3.211552611825691	2.6124873095356955	2.001511091901016
236	-0.28253033685877726	-1.3673983777808663	-0.608257590188693	1.5698170622292198	3.8395602606154906	5.915029033985665	4.217015255771517	0.6279888733267425	-0.31570479194088286	6.684836370756688	7.897332171528438	6.8638672655378326	0.3754391958771346	0.1218942177198384	6.978549939656245	8.952411629008662	6.688057882589375	0.47926044343109697	-0.6996818763233779	6.880785447868165	8.678693749450709	7.016036969590897	0.29336813018163416	2.2590331974214894	7.8791770736128495	8.446532228125239	7.3396615796747025	-0.9380006766478892	7.8740429679434385	6.975055676969755	6.449501974988546	3.447604885933696	2.8179609704396538	2.252586835896017
240	-0.15362331232385412	-1.3609315122576429	-1.2793186870700186	1.2098706930131802	3.5042104632596525	5.771547302933127	4.0618386166064155	0.20244833775905446	-0.6450501664088194	6.128022178436923	7.62424133283194	6.631095392651404	0.1754244710546315	-0.27805417705905855	6.75177143299614	8.804479576769848	6.440636618565616	0.1771194334326687	-0.8408572652568003	6.745619279996537	8.696715332962338	6.7980637378719395	-0.12827739087142795	2.409989589328569	7.96576259509224	8.639526345374794	7.294116001786764	-0.9947159861246004	8.236674287981252	7.262334805272766	6.653958303818046	3.555163374507962	2.981218568904421	2.4757893022972066
244	0.39236932893871446	-1.1800390452155731	-1.4391354286098794	1.0084769700337965	3.0221800727835473	5.430212484001213	3.925992240530327	-0.032730299896812254	-0.4714215385932528	5.555467114727456	7.159321290060437	6.376702769392317	0.4033588160821418	-0.3059903971575938	6.4747433498942994	8.525127389364794	6.230366691117981	0.5598878250291376	-0.7892459014993195	6.54845283762324	8.640819527744574	6.710381014094294	0.2914935939105033	2.514763825743117	7.8817071715678875	8.766676880637265	7.363844376091918	-0.934606192136501	8.433017709421568	7.438779335314346	6.834197027117869	3.586549273018808	3.117047778842857	2.663063757848554
248	1.0003446315304638	-0.7867926935358478	-1.121184703857208	1.0494372818200302	2.4877991613519677	4.920533167813664	3.8094553851269226	0.011545444809553232	0.19662904689735822	5.088625895050404	6.614235861291382	6.187511428469832	0.9594551896666893	0.10493800762623513	6.230165465837727	8.221675852044998	6.192109569174776	1.5609426459003073	-0.550939677754824	6.412117465042649	8.621510483909049	6.866044980833848	1.5370229443844659	2.547795766119924	7.725407580898053	8.922503448847356	7.610908012247927	-0.633594153711913	8.513025262320154	7.561225395185864	7.0582408726825845	3.6132929233876885	3.2518329538260438	2.8209934163395904
252	1.270828959117515	-0.2647611194124903	-0.5629283175560986	1.3201779093789683	2.0659694619470144	4.384884823218781	3.7468700314336174	0.31404134551869106	1.159877058915464	4.854669558665989	6.160416110697665	6.154302104670621	1.6037352044623103	0.8440110066085484	6.130951389092369	8.038398722380775	6.40835760405971	2.720665447995482	-0.18610471440058365	6.475052340372035	8.753952004265583	7.285432320320651	3.057322017580076	2.507405036317726	7.649720649479036	9.207396484016742	8.012527445590626	-0.1258854862849529	8.569072701753843	7.718704204144958	7.362680416591683	3.6730677988776406	3.398880234720044	2.958596937339221
256	0.9827017759307818	0.14221741223191608	-0.11083690049082794	1.7034678416159053	1.9007551622085008	4.001798619657172	3.7750167751369674	0.750444767964623	2.0903370327625677	4.916856276496043	5.94796274590813	6.320724471346392	2.0809628910931197	1.648113246571336	6.248146995028168	8.083291987037938	6.86064193900789	3.4536020668572753	0.19989712485865818	6.801387769693381	9.092694259574893	7.879063586369484	4.071821202488194	2.4053211151429683	7.770946006228636	9.661505674764758	8.467583634932442	0.4095057834776634	8.676867463139402	7.972912768261444	7.727185706656503	3.7466459179698277	3.5462336450688374	3.0797834318605246
260	0.22132639531045964	0.1310418095856475	-0.06786785257609049	2.0237028547691813	2.0237500616477244	3.883678188055373	3.8959689041956067	1.1455004186319373	2.657880776370551	5.228956686169491	6.0357346382341355	6.652293665302961	2.2416191044478775	2.2085995618371523	6.56181190741373	8.376168229889807	7.431249599768171	3.3897106561909487	0.48627835389387775	7.3327288442490905	9.602871870591505	8.487380006342422	4.021186818460761	2.259260648745378	8.10167882781183	10.237340901277221	8.849568344661382	0.7505383472566841	8.855685211711368	8.32073209569139	8.087082842436082	3.7784573936432957	3.6647748854616884	3.1846990504921227
264	-0.6663317663535627	-0.4690465319235289	-0.5574342594377981	2.1310608333189296	2.3264315069589667	4.015653123253784	4.068863381603328	1.3503222431422777	2.67120026867701	5.6472534990782375	6.370712741026092	7.047277909606016	2.101356024205084	2.3129556120650117	6.967022878222947	8.845960594731526	7.9576096333818676	2.59715866386822	0.5792661294617185	7.912783125926684	10.1827287416861	8.958750702173809	2.9052634165845928	2.0924482292751816	8.544971444490475	10.827033015572084	9.077798820464551	0.7672377805412434	9.068643547050165	8.699942566840908	8.375362375094477	3.725170841348632	3.7312455083102236	3.277222625087625
268	-1.2635749546573751	-1.5406671723568324	-1.4605185948690635	1.9793856093976734	2.61628913218845	4.271380413715312	4.23675869825707	1.307785626924294	2.1636035387726555	5.997269138453322	6.823783380446164	7.3853630833129795	1.8145278646433058	1.9479405830793592	7.330629330246823	9.37427995222333	8.312199571604046	1.5513373574190041	0.4480836082112727	8.370111444321601	10.721170398346686	9.224874473169391	1.306772586384249	1.934893603208125	8.950117088609181	11.325179071443293	9.164905524956541	0.5104486929403669	9.256724334233999	9.031574226465045	8.565586068461865	3.596083393554429	3.7497334385613974	3.370475522114757
272	-1.321304913999536	-2.6809921196959894	-2.4566862521135033	1.6537153679103413	2.7252612045146405	4.489566791643449	4.363212574433166	1.0732868882737927	1.3803516591507503	6.157685264299531	7.25430296020027	7.583732585833385	1.5810378749984364	1.3093399968468222	7.5619978713802025	9.853865598595503	8.461933114622001	0.8639309384468358	0.13780866528526817	8.607707001888235	11.152385683512854	9.329454398442461	0.07678492347881279	1.819778199369735	9.194626784952304	11.686096161901693	9.208910918827371	0.19439430485759787	9.380457854429414	9.26927754922916	8.686081864361256	3.4565534504405218	3.7553987408237055	3.483667364861812
276	-0.8972941018338239	-3.3891346369052937	-3.162306777599439	1.3283152546724495	2.6050209933314017	4.562901008529831	4.451917160238261	0.780864236767521	0.6679185015981223	6.114781364261368	7.567573528256995	7.630658607290836	1.542535777965823	0.708045004010698	7.655569534046789	10.229277584952365	8.476056077538004	0.9337575412063316	-0.24779291388415628	8.64724157057504	11.477746934522452	9.395754790425949	-0.13866738940037915	1.7732206538253554	9.245621657870428	11.9428472217393	9.334291434563063	0.07894556204414323	9.443286871909946	9.425884223028103	8.798535324770697	3.391875258465147	3.7970993422961805	3.631237974535619
280	-0.31924775162203173	-3.340765706210763	-3.300946465741229	1.1767140597198174	2.351527446531836	4.4880638009245875	4.533173549651028	0.5733670577831917	0.3176981500710735	5.958551868653612	7.739454726706093	7.581386070183791	1.7226338343043321	0.4211861778592603	7.682620982800512	10.503477070038887	8.48216817621642	1.7252955393147018	-0.5849012717738461	8.606115319458171	11.748926133056539	9.554909681991894	0.7512900810346934	1.8042983963234906	9.170940376015523	12.181802718877695	9.619457220586252	0.3202484241983169	9.486959433445191	9.564636206320365	8.958854652674034	3.455248823978972	3.910687198302123	3.8128018282947433
284	0.002477433293390864	-2.588342898509618	-2.8244750428414203	1.2796741691705615	2.1405730193453283	4.348401058662456	4.624287116773283	0.5316306339192973	0.438966243350869	5.822300419412653	7.8004450601092366	7.519682865230934	2.035204166996003	0.5642051682532533	7.7380480570929455	10.712078067437025	8.594519593474264	2.806417458124438	-0.7731963376551056	8.622676827595068	12.026041000520955	9.87494466195781	2.261883253108874	1.9015389632853184	9.097341514507006	12.490483252461143	10.05481049860086	0.8825857617029595	9.565515494037871	9.763072942879907	9.187381721188856	3.6347257999204894	4.100066174645886	4.012249936464281
288	-0.1911727185191053	-1.5645419319706266	-1.9383869122203012	1.5823007782087488	2.11253404083946	4.244600762141079	4.6952533603380076	0.6402995570229254	0.9210195518128328	5.8013367506423394	7.795527438509104	7.508821945305963	2.3454952180772173	1.0466865274705908	7.875710944318622	10.88496873014749	8.854186035689763	3.6141443161315103	-0.7660918812483296	8.77450368573225	12.336682288493984	10.327941868455703	3.6389617828046923	2.0377829023410547	9.14121434764819	12.909074750732914	10.554337474878738	1.5623013933791765	9.714806532174132	10.070820782984267	9.46623036855612	3.859929551869605	4.337192524450032	4.207839955196538
292	-0.8654009081925752	-0.8725700356387693	-1.0164206002322467	1.9246277760550887	2.2821280898650116	4.223908413713098	4.673226821544742	0.8077356794944769	1.503491159457834	5.899641975766457	7.748519401060649	7.561044673903361	2.5438761646893906	1.6338685709710088	8.073476770998267	11.020902605841888	9.21239755211935	3.7880530261721694	-0.5778956398678581	9.037871337960377	12.65929314278201	10.810922595385708	4.30591248378804	2.1823799555038144	9.351221060985162	13.411649670118331	11.011460276458989	2.1112911647897414	9.937078450863437	10.485088321916368	9.76220319190554	4.044430722515845	4.579839694857915	4.385974396122524
296	-1.7211447910723128	-0.9682794784894724	-0.44765064007271743	2.125647539494096	2.527375453290011	4.252361763708398	4.489100444903904	0.922847089821677	1.9137479018531265	6.032227024107249	7.65047977423298	7.638921241547318	2.5916840964687116	2.0749595112864996	8.247218111196819	11.087350817344044	9.560912108124201	3.3681013499100576	-0.26719656519186386	9.308666205745924	12.935866323236073	11.203277559605068	4.175463189073447	2.3151907862384453	9.690548872323268	13.921771968024732	11.360892267153906	2.3852226673940295	10.205502484304384	10.953908892632125	10.05454823816451	4.137740601583238	4.7953271744774355	4.549431789356074
300	-2.369879478193265	-1.9160013150478157	-0.485992042983422	2.0731828160395205	2.662787430716073	4.2422094237987285	4.1350588694122745	0.9144537425795319	1.9960033843190963	6.076823219215601	7.4723415186097375	7.68078134504881	2.5186262067148104	2.2245595399004947	8.30103586008438	11.039195032858693	9.786634420481553	2.7414216926025015	0.09099090821419781	9.465647673550267	13.100069966620326	11.422583551177839	3.6415131000132166	2.431689017832133	10.06097600304086	14.34632774545625	11.603008240968892	2.42036914214355	10.47913548684839	11.399445504971608	10.342625591868337	4.151924122818181	4.972807871661176	4.711535441900903
304	-2.5495867664816134	-3.354782572859334	-1.1574207515104717	1.7696059897567227	2.5498354370589884	4.110474099271709	3.691049804905238	0.7782533149143718	1.7671067670076006	5.940158828996681	7.186986428235219	7.629787425804998	2.3824052750518994	2.094276184516538	8.179055193278094	10.839846583654968	9.816233610165122	2.3812725483854478	0.42779984962219497	9.433941817307074	13.101031270328837	11.445753068636431	3.2741575158424334	2.536037677084059	10.348910305597588	14.604985200247539	11.774148911313171	2.392248862902413	10.71692845499802	11.744652718455512	10.625068637725061	4.146289814971078	5.116124617057392	4.877852904402134
308	-2.262068027507211	-4.692606914116662	-2.268910163872993	1.3153468337228307	2.1765329782846896	3.828285684456822	3.292787305147815	0.5617272839669067	1.3781709636225037	5.601631627245179	6.785671216998686	7.450720768237078	2.224672311888125	1.814907307810988	7.889390925515773	10.474057171126349	9.631646131993467	2.5447881157521515	0.6919183713609842	9.214373565297954	12.913940397082936	11.292040796380475	3.4245397958124864	2.6283798151413227	10.469481441767783	14.645749055125089	11.888541191602972	2.4860782560523575	10.884392710861835	11.932789772423872	10.86937234041636	4.183626164364117	5.22607754341553	5.02995728176469
312	-1.7582484439327366	-5.412207112952922	-3.4992151172029287	0.8463247993082426	1.6578949648007288	3.4312674912605883	3.0530531329320407	0.32140463509475076	1.0152928803559433	5.113185392821649	6.280740722057693	7.1291932879697555	2.0514829106987995	1.5432707032340482	7.488709430860893	9.949142430935517	9.255540824410327	3.119829646816791	0.8513792135677898	8.866316772963824	12.539016691974838	10.987588854705294	3.999384393131285	2.697943203790155	10.38987729310402	14.449125253436458	11.897420853140611	2.7642800738161517	10.955109568593448	11.936947792432905	11.001294108271766	4.287725914620089	5.2874998912829145	5.125202166015186
316	-1.3891146147942144	-5.324975953962955	-4.518382061040913	0.4651148009478141	1.1588019103357199	2.988246910180011	2.983749620533773	0.08334682860789071	0.7993084768141849	4.560648906637324	5.695950493736783	6.661624891628279	1.8444857550782285	1.3727498019845794	7.039785367358086	9.287908530627433	8.72286603632649	3.7079760934672397	0.8881979562269066	8.459188439946313	11.994671791310603	10.538679096317198	4.5441598777482906	2.7266468932928802	10.124986622996436	14.025647127979758	11.697043389352082	3.115642778159759	10.911148043741061	11.759120911473183	10.926525088379973	4.427466858175968	5.271002279325055	5.114374624691205
320	-1.4124410116774595	-4.641946304045593	-5.091082560083263	0.20433703013328378	0.7913763503121475	2.5555910999625477	2.973466388824506	-0.16636669593769152	0.7365321498395012	4.015678872460263	5.055918680777513	6.051577552775434	1.5902566869639918	1.295100566455222	6.573916895481313	8.523245789943275	8.062495211272575	3.8867983719921972	0.7930828312877585	8.0280723369088	11.314020128295196	9.934914563844975	4.571677196404402	2.6982617310110304	9.716935133242975	13.415088619694611	11.188612909678714	3.320826045235105	10.746558162259639	11.425059289696978	10.579053852074637	4.536034572593024	5.149872290006855	4.968340861174407
324	-1.8605636311286393	-3.8296291731466674	-5.131335722365668	0.037952449076914495	0.5526069388742718	2.1500091498451863	2.843175165627459	-0.4561429906295844	0.7418000679360949	3.5084690959088127	4.383195866008689	5.317878709718178	1.3034539189808236	1.2299681870878052	6.082300647638052	7.697630862828534	7.299015503574931	3.4840569408190802	0.5666015729903975	7.561549644452623	10.54504296501451	9.177665687277841	3.9149474998813325	2.6088302069600897	9.212985015496773	12.685089079301354	10.353657696332672	3.1923677840695626	10.472305271411534	10.977663012445198	9.968002294169152	4.551462161970576	4.921609866114169	4.69796704059849
328	-2.5354609425426684	-3.342517367507	-4.694919097490951	-0.07816254327828645	0.3398914924623216	1.756732459401347	2.453761094573892	-0.789648173245893	0.7067465764321892	3.033499233216395	3.703039398380827	4.508541572631919	1.0248255703800935	1.0920479270066379	5.539526925406129	6.863704187230139	6.468596918940579	2.6843669346746513	0.22384852114427894	7.025162202264391	9.747605299181167	8.309674242020577	2.8647479938658393	2.469161981070653	8.651299454781103	11.920182197992812	9.292043662452931	2.696261637555997	10.11564252206788	10.466746303835237	9.188182807612614	4.448872554990821	4.617186057831251	4.3529844174155325
332	-3.1207318227178336	-3.3803729925640114	-3.9304523368783197	-0.16892802672651286	0.03359057373268348	1.365602966675475	1.8043880417090066	-1.1224670381816682	0.5664967284205022	2.5790290767405306	3.0512425822469145	3.707568636116584	0.7976686338312646	0.8497776963713632	4.941835390965448	6.081891521357346	5.633458123289093	1.9068854999081721	-0.20095571824835762	6.402580245065508	8.984368301596435	7.42215583834704	2.0016796538360153	2.2954938353756997	8.058497408548293	11.200688333842562	8.193539598759102	1.979068035851112	9.710273718159696	9.936207746214757	8.382639863784599	4.244476784480259	4.289045799870663	3.9978203672563275
336	-3.3383760367984614	-3.803205480510134	-3.0286190433330864	-0.22499127629218876	-0.4059222032312027	1.0073807214098554	1.0585498783088638	-1.3695777620069312	0.33135723984028326	2.1592454855762613	2.478420966566685	3.0237417144727194	0.6434594972577147	0.5455046282347022	4.33488558628447	5.413257108372634	4.880729662970311	1.5432202777046955	-0.6527000053139134	5.72791145785897	8.308128335957585	6.630236132094492	1.832458491467237	2.099714273873536	7.456549625644237	10.578421566004454	7.2543058212232125	1.2855637041059482	9.282743430542817	9.412430739480525	7.675196151428877	3.9741845030581895	3.9844205278889135	3.6775071528093033
340	-3.069030753970192	-4.239341248299378	-2.179934734562722	-0.21833398883054983	-0.8888242222279804	0.7610608916141199	0.4748940455844551	-1.4436085187704	0.0671769527885015	1.8260511113793492	2.0445859380599627	2.5606722767075314	0.554493902713807	0.2660256319482076	3.8101084136134333	4.90834425640645	4.301244248021018	1.7188197330947845	-1.0635422441333564	5.085998045478181	7.750393371087656	6.027776226083819	2.46117591236523	1.8861161422793353	6.869632226765954	10.060668919911752	6.5825123620733805	0.8166062215214889	8.842184044448093	8.899090744438695	7.110725384879175	3.6647665408114407	3.720612278127719	3.3949389371988667
344	-2.387854331663508	-4.3220534215524635	-1.5531152447588756	-0.1310881819991657	-1.2255865304521392	0.7244521361180167	0.27790835429598376	-1.2997548547354023	-0.15424667259850253	1.6527243810888077	1.8049849226202803	2.380629056642077	0.5107690083005811	0.08731401689657677	3.4696178348679867	4.597124088124823	3.958875884551308	2.2254126015743663	-1.369537588476454	4.579488265873207	7.318836670517075	5.648628220601866	3.504755726548681	1.655677075974236	6.325613005879949	9.614997839493995	6.150327190129875	0.6172967537553488	8.380835511982514	8.384985902597036	6.639991266652381	3.319451562130055	3.4790768535513803	3.1145033757731095
348	-1.514790411939377	-3.9123053451944	-1.2751960722198925	0.026130331614205898	-1.2219939201020178	0.9641097163654481	0.5413789139430556	-0.9609620546874516	-0.29821631237077917	1.698836918356418	1.7929136707815556	2.4806358751609467	0.5074827658238317	0.029728922917886404	3.37750815492476	4.48416708767759	3.866987457048929	2.6619701318289763	-1.5332542619141225	4.279752243680749	7.004590016799973	5.4566063743154345	4.306904305074598	1.4148548805754788	5.850119575989146	9.193713164959492	5.820948586072561	0.5631573186007475	7.886285285112237	7.8611116210827765	6.15887068147183	2.927449934244031	3.2213628210752145	2.788748972527567
352	-0.7161958795585089	-3.181231729105003	-1.4036416972007744	0.2178950751286932	-0.7876037935399034	1.471927400687427	1.1512347430727208	-0.5082899319213422	-0.37700918221655455	1.9750637958252109	2.00554179638913	2.7931485105566205	0.5672939405423604	0.05021610098319807	3.523733606978672	4.54915903850227	3.9836687941109044	2.688199274905454	-1.561439271799322	4.188368786727631	6.79303596688854	5.368683324610661	4.316703308650933	1.1812289923408645	5.457219110062178	8.763741471098777	5.433460221877535	0.4475469577933924	7.35752914478462	7.336265545442553	5.578055367691666	2.4883842405436054	2.917106382634404	2.392241710345058
356	-0.2035518581496399	-2.507878297196048	-1.9003326844873996	0.4045232226172116	0.003628625758144094	2.1551074927278218	1.869011039783459	-0.04385749612106482	-0.42595738064987226	2.427695745060843	2.3997898041217773	3.212123862739776	0.7259447556287135	0.07288675736860238	3.822247972374898	4.751963126582769	4.229280937961008	2.2305595818470163	-1.5041872224977635	4.232431401057302	6.670743925418733	5.298849092456653	3.3991634759913016	0.9796352957787644	5.143685327894791	8.325123765907353	4.897213446650617	0.11329285026795247	6.814330560645811	6.842185003171921	4.8816213484538995	2.0320377298549497	2.567661278917669	1.9427833508078343
360	-0.06579698605614573	-2.2417073193219226	-2.607203953836144	0.5608540163185073	0.933833596732873	2.8669116424657233	2.459060662736781	0.3503290703988446	-0.4717494535456567	2.95008134097095	2.8999349997737047	3.632792702086015	0.9977790688118742	0.03345872080819262	4.143172730475774	5.039106833133191	4.517554271736362	1.5167429408879993	-1.435829039763247	4.294905651693027	6.623371584382331	5.1974992620850955	1.8982230376955456	0.8277050831878029	4.8882603521908	7.906515578335086	4.240514267705596	-0.45375826840278666	6.291639312118067	6.421940310476833	4.139780034103724	1.6153318841205315	2.2093388978490793	1.495741840400861
364	-0.25092673238343866	-2.4730997023131525	-3.2558555520824894	0.6797695142749579	1.7299655632210629	3.459464541284002	2.8015193868477417	0.6351819022354311	-0.5142062889468101	3.414869538268542	3.4129013929030276	3.983328332380807	1.3435111011917007	-0.08750530310233924	4.362866867494342	5.349164472426055	4.782392966593831	0.9244799590611762	-1.4217349254952423	4.2652583014565995	6.626784784752131	5.064080702393869	0.4256168295128079	0.7229906898364586	4.6589207531604515	7.540788631474034	3.5862233548219993	-1.1255093784526125	5.822707161507574	6.106618865807856	3.4694716842793665	1.295805450982556	1.8942378711559247	1.1153552504036033
368	-0.5902377352117583	-2.94845580310274	-3.5298209101249243	0.7603054027434993	2.1763234083541887	3.833919992303925	2.929656498188045	0.8115364888682731	-0.5335888253091593	3.7141470815345454	3.849619140442389	4.237483013898552	1.669397111492575	-0.2599452727430543	4.408845890357992	5.620337948914258	4.990941035067542	0.7486056666547216	-1.4855545721694403	4.086451520139245	6.641480905930847	4.931734549468733	-0.4791563737215819	0.6427243931755557	4.425636757167406	7.238649826847457	3.0742211264241286	-1.7189357237332246	5.42205952229084	5.893791660687233	2.9684967919742604	1.0984584065360463	1.6606525140796553	0.840105054641634
372	-0.8527477362083776	-3.188446036871823	-3.1684148231620206	0.7956107834755898	2.19718741815869	3.9671842951748624	2.9772527142696585	0.9025577283960045	-0.5110545145483344	3.7923555278397734	4.148198117273388	4.407411087352581	1.866186018046817	-0.424333571316356	4.280193794888129	5.802649483335558	5.1412191261187905	1.0337378952629874	-1.5957777459863072	3.7753975296068316	6.618511660078195	4.8369994041390685	-0.6102048143239439	0.5574731216660935	4.171349038082858	6.978113633657592	2.7792608667775967	-2.108234400194798	5.077969061428628	5.740743622590976	2.6623268060224117	0.9970099304776344	1.5102139673250767	0.6621947867840821
376	-0.8201742151533803	-2.755234711366455	-2.087208742594074	0.7743265609264831	1.8730455589688295	3.9048926731702687	3.072788230767346	0.9369047260471711	-0.444160758327607	3.660517921742578	4.290167797701082	4.522798526789039	1.869368906069787	-0.5227246867333781	4.036788930237775	5.871503338294776	5.247549520595205	1.5687721928089453	-1.6823987918338943	3.4077398690970897	6.517135603663002	4.793143737135536	-0.14373660051295445	0.45250105743603586	3.896399488148377	6.717480642524855	2.67184066097886	-2.290927642760275	4.760737407108712	5.579649911144672	2.4954430993972436	0.9234682894279577	1.4067029917487093	0.5344970212793089
380	-0.36411309150318816	-1.5221562347128332	-0.4573210466282733	0.6977577191855967	1.3893145287722863	3.7299394513372026	3.2512407220770507	0.9447078680982404	-0.34361350449592365	3.3875458154981724	4.303504932982351	4.609602439686335	1.7057456927148904	-0.5233563767571129	3.765056839020146	5.836277470158615	5.322727666767704	2.035727734194388	-1.677691455419998	3.0765297335197404	6.324905379538961	4.7811159966873875	0.5321917520437962	0.34181320580967306	3.614595404082032	6.422949297901043	2.640958540924384	-2.3695888459460743	4.441647041550811	5.348343835678858	2.3696672856584007	0.8023729900129297	1.296937343183983	0.40018877286008864
384	0.4939832376882828	0.2054182285844572	1.310137745410482	0.6014724954678171	0.9480896568203235	3.526355496086432	3.4395203503553526	0.9640724038579128	-0.21475467031617976	3.0736536902072995	4.250928868051616	4.680342185601485	1.4938666782809615	-0.4276113201312464	3.539116850500624	5.738528713996716	5.369318471703783	2.2081496659795232	-1.5602312048620643	2.8464434075015315	6.067867263732842	4.762974727049352	1.0734895440655172	0.26234722071214867	3.343331566952576	6.092913612241383	2.5627744133141626	-2.466338866682639	4.109982480162842	5.020616518696232	2.2044742051733732	0.5908984526974254	1.141539928415191	0.22794681729939806
388	1.5717341860189353	1.8018679573342657	2.685607664957163	0.5589396343424446	0.6882077438145054	3.3545510684196107	3.5179541022172627	1.0439653370248854	-0.04425049562010883	2.8159141469432347	4.206023682465528	4.736385333500761	1.3919776642941268	-0.26347380810020393	3.393659583106638	5.636559948995372	5.381121145013829	2.0783119149187823	-1.3771368230382615	2.7249801090105894	5.801321491853315	4.705012786430311	1.3546311821115014	0.2503680878516918	3.0918686311860917	5.7611002776604305	2.3700628220801314	-2.631271832498523	3.777198781967396	4.619051444789432	1.9820495793845387	0.30121600551849437	0.9378309822246421	0.03242383889118303
392	2.579354041263026	2.6242997580074587	3.21963786265977	0.6542099101715515	0.6453072412410866	3.243591300404469	3.414887658080508	1.2313566176796975	0.19195947002583172	2.676664345659064	4.224817265334338	4.777348983147093	1.5181769094283852	-0.07454788666023439	3.317626944748797	5.580767140603521	5.352194772558785	1.8382930709202796	-1.2289280860391005	2.6631467275138716	5.583477006166747	4.5962872389142895	1.4685021601794124	0.312387227223383	2.854283087199756	5.4754366736453335	2.0821249432447266	-2.8063056398111215	3.4661412151563056	4.202746380685472	1.7505987838415764	-0.007507299519747664	0.7216262203117054	-0.13203404810471828
396	3.228082410291648	2.3488907754722086	2.7374274661568974	0.9334118938721518	0.7601985316156868	3.197832099470195	3.1704385200563254	1.5430668553494309	0.49714657538781565	2.665835373823612	4.325640667484569	4.810176837220705	1.8855254602511025	0.08920237399468006	3.2697281754910676	5.592555508798855	5.288498388289671	1.739063020130162	-1.2194430797306504	2.586204999116212	5.447880731179505	4.454463947493794	1.5838800628727303	0.412315606029926	2.614085906104535	5.269149290132956	1.7838224127554976	-2.8650734352254914	3.196247569597487	3.839433660350307	1.5893506963656931	-0.2588573985716829	0.5495110736324543	-0.1992185855842483
400	3.3555810366787293	1.15344047255171	1.438656564894963	1.3628038133546003	0.9252624488358119	3.208404056078025	2.921594850793238	1.939238543382702	0.8204128721504583	2.7446465422952873	4.485435951352365	4.849719035302023	2.3915548264204007	0.17928123428856935	3.205996028435179	5.657228455565504	5.212727056693866	1.9265704106327035	-1.3952189648688291	2.4390215812138885	5.389928804140761	4.316603172847962	1.7816847517806702	0.4865345048541532	2.3591873586218717	5.1439576019114375	1.5715931614297527	-2.701338522766568	2.9767444058602974	3.5783052354114484	1.560045834417281	-0.3920712759132676	0.47261094927674274	-0.12452804265768477
404	3.0018138809709534	-0.3628875008004109	-0.15463535448610152	1.8227077676530492	1.038314459086577	3.2585031903967274	2.8173327374853074	2.318758243428535	1.0519814464711994	2.8454477715177173	4.651761520085265	4.909057604793321	2.868466131597541	0.15788285394384474	3.1038076799230385	5.733390793630049	5.157344328257033	2.3534326493926265	-1.7122160153075023	2.2202324811193055	5.374274240276477	4.220581044031557	1.983516688107336	0.47963183997175474	2.097379440734289	5.0753188005100265	1.5003632269172082	-2.311948531989429	2.8112704682897975	3.436058512595538	1.6726634460180196	-0.38335630200872667	0.5141276108159052	0.09094310528920864
408	2.394131415998246	-1.4833149872523042	-1.405273553161315	2.1505157893244977	1.0403352949579396	3.320660821160205	2.918786995194248	2.550258868454404	1.0623924705385421	2.900659792252344	4.764561164270688	4.986468302534889	3.1668138424073957	0.010495102937844053	2.973040334824727	5.77436731787962	5.149027334564653	2.81524109129613	-2.0499648996094924	1.987950319993115	5.359065995991143	4.187532891191411	2.011955732987927	0.3798775365298388	1.8635153723397537	5.036655413309058	1.5610015352891966	-1.8204823686413336	2.709173434093222	3.4012374792056694	1.8833640766277142	-0.24749819871880846	0.6607354266650859	0.3968014707083777
412	1.8397408677382185	-1.7345356897430328	-1.8346748305729694	2.2159614507040635	0.924096224359081	3.3485290919638677	3.1446084896802557	2.5282103951519166	0.7734743933222809	2.8670968937012176	4.7746791719050545	5.054159628505343	3.2259557165714314	-0.24277275739410728	2.849115602929355	5.7476243827664755	5.188701616538459	3.074522725925931	-2.2692496719287765	1.8330117417786453	5.320227609553556	4.2101278198758205	1.7235687927599184	0.23000089766130033	1.7121303038285316	5.02306555433458	1.6938483672291813	-1.4283457958398795	2.6919259957059816	3.4490761669816172	2.1196896976359687	-0.025041667681293192	0.8689812399859039	0.7095842939581362
416	1.5756164749419337	-1.1083799572617292	-1.3338808979689445	1.987296576250869	0.7162219267882101	3.2747092164330818	3.2994668400430602	2.2245185319049927	0.22238376680494426	2.735526316411941	4.652628886873846	5.056765066731186	3.092232934774039	-0.5449371324132285	2.771901600515049	5.643139824924805	5.238955484514608	2.9952633305266763	-2.284425968124591	1.8320063306331125	5.261650072164829	4.251534451241005	1.1219660015389512	0.10519084307815339	1.695075150024851	5.056682097065869	1.8238760186876972	-1.321131702902256	2.7859461237187255	3.555666437708596	2.314699643966736	0.23344984591671458	1.0812128754974337	0.9400855875122237
420	1.65265726625896	-0.027932455692698116	-0.21449282711234255	1.551994439021349	0.44934549814262653	3.0251920146857327	3.176626912679861	1.7086771683468325	-0.4265266050060401	2.5247328217659213	4.3896503337658315	4.926565634686861	2.8788924144539076	-0.8163390138996355	2.762654297529363	5.470210061567466	5.231194959784446	2.611203902327632	-2.1111476368054847	2.0039331862399936	5.2072605955260265	4.257453907707993	0.3753231754363722	0.06930035335210252	1.8335757209260863	5.168658720318311	1.895026440604312	-1.579804654901147	3.0022253914374435	3.7033300306280177	2.4302194057142614	0.47849598406146027	1.2438183991500047	1.0213931773147238
424	1.9169253062487908	0.9136366225063691	0.9368310547064147	1.0769411298264562	0.14130699598875415	2.5508696968525197	2.6774885586849373	1.1225126953394509	-0.9395915842175725	2.266032690049081	3.9970526594335585	4.613483417307152	2.6956508091578812	-0.982831416032841	2.8112456727576336	5.2486600743338565	5.095270143996031	2.0961546844965366	-1.861500735351432	2.293180459908518	5.1819853651821255	4.178794373452244	-0.2664528780408789	0.13390114869643222	2.0981836265995684	5.369196401391592	1.8869050693555904	-2.141537184076781	3.3150710975872815	3.876017560709602	2.4603369173874894	0.6671872122132193	1.3217188086518115	0.9289284921081112
428	2.0999736732869434	1.2857443061791616	1.536928053790223	0.72917425448378	-0.20462574013068566	1.867396588379149	1.8815723610102897	0.6217291935482351	-1.1195294828759743	1.9910638282097415	3.5105984122333926	4.119022835822391	2.588904612680563	-1.0064311002116912	2.8812451289865417	5.004094111206209	4.800987231531016	1.6652562576211936	-1.6866158204411064	2.5903201037811154	5.196329103701819	3.9976642030874103	-0.5950222000357993	0.2469557666503995	2.4107270179918685	5.6285943842877	1.8111947729158813	-2.8270440030247537	3.6571578887157825	4.052997578878493	2.4209558902652373	0.7679353933019332	1.3068447080042451	0.6883424503113578
432	1.9750022838319579	1.0283687088751763	1.2865669694842745	0.5981925710833979	-0.5825496301248151	1.0804189416310301	1.0261294815859079	0.3132857076364588	-0.9097716785349564	1.7273325876494026	2.9966616554895764	3.5165781886007417	2.527295821484792	-0.9061567760477454	2.928941004033968	4.769201266645448	4.389513481501773	1.469780918225195	-1.7005214648228069	2.7797350813302324	5.243133531684236	3.744187107169761	-0.5315174446991546	0.3171742252448206	2.668132298408877	5.882269367625504	1.6968285994604264	-3.417852631522729	3.936108817653223	4.206912506926175	2.3353025854277805	0.7667303065969069	1.2181342809439768	0.3681258251909482
436	1.4944676123080698	0.4234819401539554	0.30886313241225793	0.6626471860367851	-0.9616135334532017	0.37530457878724927	0.4052352298995784	0.22162333074881974	-0.4340647150047847	1.5024765691970288	2.551267855878614	2.944361202435587	2.438366883797329	-0.7534880023052367	2.9274971411225743	4.587273586135533	3.9750707049144727	1.5412037333677457	-1.9253191899327375	2.791714899644102	5.308370576807613	3.4948897273517887	-0.13602291013230605	0.2624129944374922	2.781017534863982	6.060950263933411	1.5773457248917915	-3.741396417708423	4.069393147684754	4.31075428828021	2.2267658654259304	0.6734895689172781	1.0944218607927587	0.05976601302435442
440	0.8315825441345868	-0.13083894517766664	-0.9233441329532039	0.8174868205411773	-1.2754672733529357	-0.03809898709572482	0.23757365285973314	0.2977589659325723	0.056862614905321046	1.3502987589122954	2.2814056815721577	2.5648722583863806	2.2727906646566525	-0.6419296248441273	2.883865587582831	4.508776176513163	3.707272281823509	1.8037106945274892	-2.283349508242665	2.634834759735621	5.386408315410636	3.3476371680617003	0.447604625287067	0.05467189462090648	2.711599819966613	6.128744586729777	1.484940286701936	-3.729265918852941	4.020658482890806	4.350589741213082	2.119698757541952	0.5233668075699223	0.9821295117377381	-0.14984276852923037
444	0.2994032196591949	-0.38428848884833783	-1.8286052896108156	0.9401939487561518	-1.4371553623154403	-0.013252979110993447	0.5677258357973124	0.45929315570265516	0.30746692341424187	1.3063806262411957	2.2658770027173207	2.500872844103994	2.0516357370076177	-0.6451304538651291	2.835671179287762	4.573369491474592	3.7044055368356297	2.13218259273077	-2.6398980550872175	2.3892793595072	5.4851617674623325	3.378668776564896	1.062232610881658	-0.26506656341387064	2.490365498930937	6.103250488130813	1.4474135600739646	-3.429718008918919	3.816097726723922	4.334309566998815	2.040695900533163	0.3667331924716097	0.9199718809742609	-0.20716130681186787
448	0.18637859774263507	-0.36666399147920015	-2.0087771364993703	0.9574983691836537	-1.3795928920246752	0.4487984765165815	1.2433514563640131	0.6343764050679702	0.187928646328428	1.3901115620802105	2.5090703900885463	2.772987358721536	1.86663841729952	-0.7818516473103772	2.828569881927151	4.782355773295586	3.988205422822595	2.4150690971435034	-2.870276682282667	2.165348285930116	5.615499482282187	3.6006908325839344	1.5796115358525624	-0.6082133039377366	2.203077310721944	6.0446476783727645	1.4830988608108941	-2.9746763631103916	3.532429447792288	4.289987553255736	2.014304155986148	0.24990208383885312	0.925885019348919	-0.11062094541277134
452	0.592283366615285	-0.3169468037232543	-1.4441164695518933	0.8727405049223965	-1.1007524700983695	1.1646411389510434	1.9744080255250476	0.783464548993927	-0.24163904725101928	1.5828578432174132	2.913123600280568	3.2700965321948496	1.8291940642904203	-1.0082643006617749	2.8861255572884286	5.077444540555929	4.4541282541352665	2.591283791675411	-2.915468208581533	2.0489404149776798	5.771466240616437	3.9431459804162174	1.9076890897270051	-0.8831043817158408	1.952445740538688	6.01851509482058	1.591510411059032	-2.5230021413045924	3.262173644412729	4.253431309451548	2.052983040394719	0.19578632662932902	0.9914776657821294	0.0892698315512343
456	1.3541911806248803	-0.4723809945577799	-0.4903360890883296	0.7402824740793001	-0.6883609873558361	1.8136591865525424	2.4453482566129545	0.8898650981370652	-0.7729682902847708	1.816604728880616	3.291827193532197	3.774134626396519	1.995287413327862	-1.2449145285646566	2.9876882954505866	5.343533025601894	4.899406420735657	2.650094740852489	-2.802061073858093	2.0599839635337815	5.915556415881306	4.270470608419759	1.9836074063764553	-1.0386580202581948	1.8102852060389052	6.054703220339564	1.7464975074542262	-2.203342432181236	3.073896161901634	4.2509894263705545	2.148181909859565	0.19477580438551956	1.0867775651196148	0.310571341922563
460	2.106043571876965	-0.8684174396523969	0.31715953269992053	0.611634312515983	-0.30543091816082213	2.058763975667599	2.4321379600154476	0.9346655583625474	-1.1711246937747617	1.9858535478045	3.43265770999182	4.038082112607557	2.3156380594917105	-1.4215915167202746	3.0686583441505757	5.443715558613117	5.103882776725751	2.6077754431688076	-2.620309823096268	2.1450126116955697	5.982897743378522	4.435554493195832	1.779357309617357	-1.0823920937866929	1.7833394959247466	6.127815231110785	1.89959847447491	-2.0774755425454057	2.988200656975782	4.287803162239523	2.2712645473356767	0.2131212944372012	1.1741030186573789	0.4747406232291906
464	2.4447724757458777	-1.2960734334647896	0.5429286943079478	0.49212089056697766	-0.13172377612712335	1.6957215027911634	1.8785172653453956	0.8815807081852944	-1.3085063662870984	1.9856270501549256	3.1858265319498473	3.88761948557655	2.641906493192498	-1.5169676503982352	3.046753637250924	5.276364313155511	4.928284632637844	2.4863338407685087	-2.4786462721233673	2.2072443906369603	5.907552227363917	4.345287312027251	1.3253685202514836	-1.0668930980448792	1.8114863588373864	6.172227843913693	1.9974374720687715	-2.1345248168459503	2.979702465163742	4.347932804574283	2.386357301409109	0.21377831643490153	1.2243392436587184	0.5398023114880823
468	2.120324129473356	-1.4504791461563127	0.06542896462848984	0.3374925843301031	-0.2838191382871792	0.7613411526531463	0.9101707316307203	0.687943397215594	-1.2338877885183388	1.760865207041059	2.540119164729394	3.3022980606627432	2.789572470297705	-1.5700186451373412	2.864174597184548	4.828637110916773	4.3837404140419824	2.302919143584492	-2.458236449710908	2.1587235873079256	5.659592614189906	4.007382382765633	0.7249401789482054	-1.0567319366478043	1.8015223696047304	6.124664291177334	2.0071742483961175	-2.31156706226383	3.000931493811926	4.405489433609874	2.469170087302322	0.17729969277917557	1.2279465167514176	0.5159352408734447
472	1.1578048438404347	-1.1680521935536372	-0.8868775345345311	0.09561166143119593	-0.7551637272842213	-0.4618631291649471	-0.21277776306790558	0.3389935484910474	-1.1340820760704338	1.340223308994191	1.6423566299934627	2.434595101885465	2.6292073660272948	-1.6551990467243445	2.523435109443148	4.194730271239158	3.633872261409461	2.070263618964371	-2.590922587528984	1.9663197944587376	5.270657526060544	3.530501833585119	0.13321880962592747	-1.0954130860328708	1.6790225463437614	5.966939434245229	1.9331715058156222	-2.530774825382258	3.0127806587447785	4.439425934073509	2.5187463696783743	0.11208243639781282	1.1954774826384478	0.4546799350226215
476	-0.14919090233329013	-0.5866929873912706	-1.8802173090193872	-0.2357333743581004	-1.406863209033461	-1.5575003584639298	-1.1843519180913418	-0.11776591062615065	-1.2101131647075143	0.8350849130527461	0.7450700383448616	1.5541393717628207	2.1605474894334478	-1.8335518790682364	2.0980977959113085	3.5454220682276247	2.92673348641564	1.8067274048012447	-2.8616361545792626	1.6699176984587287	4.832199084479558	3.0766875666187072	-0.3020885877134807	-1.190181013917079	1.4329943620741756	5.743925556939632	1.8160834266587267	-2.7350635459510735	3.0036978645782573	4.443430412517989	2.5538697178257803	0.04660094517624727	1.147616741143989	0.4166440357179419
480	-1.3689845765836242	-0.09887042616677326	-2.514990084974113	-0.5807582721352583	-2.0217575975872033	-2.159610027582787	-1.7535135701730236	-0.568689821714831	-1.5443268975368014	0.3973461975556047	0.10053493057140717	0.9375590062312187	1.525158282244011	-2.1087496227429354	1.7082592205787226	3.05834316435179	2.486310952584973	1.541198607368308	-3.2231428541822926	1.3629271949689739	4.46216677492796	2.7873508859832454	-0.5113553391897563	-1.3178909983740001	1.127411720290461	5.54391573459915	1.7108203129489654	-2.9071803019557296	2.988521806801021	4.425268638882202	2.5950975352570906	0.009672699471728798	1.1017159195740867	0.43575301656378507
484	-2.117647165673963	-0.11660478234653522	-2.627571576160209	-0.8096564987721591	-2.4016914307038904	-2.1228122657585784	-1.8043451263648767	-0.871371624653941	-2.036025042161777	0.15282531044045475	-0.15053744576117248	0.7524709682540021	0.9489445066335339	-2.412578338253918	1.4694710932824349	2.84019874809347	2.4147965847082786	1.307687875307109	-3.6146974472336297	1.145064112633283	4.2536296737088595	2.7188069751760775	-0.5381062613252807	-1.4446333610300806	0.8706425406408892	5.450605378694599	1.6538478094306979	-3.0656135004845573	2.9915578289796354	4.3973197825990065	2.6427838735613767	0.01267571371573669	1.0625841590756557	0.49978107087791407
488	-2.2164797726937215	-0.7982085923069216	-2.3442692697465723	-0.8061524013193057	-2.458227866642082	-1.589433189193854	-1.3909721339393049	-0.9190496183079797	-2.445259326483174	0.14482703768404476	-0.038658399037271265	0.9894010399633978	0.6406062825241652	-2.6298444204690457	1.4406232797490064	2.8812494205209545	2.652802460648509	1.1355788679062544	-3.974076499442129	1.0744565698199118	4.232552994532337	2.8202056813562275	-0.5096067773350401	-1.5446748694521217	0.7595059852497901	5.495165811016177	1.6401925045564218	-3.2395634569392966	3.0264265460852036	4.366090763512814	2.666829340877377	0.043879248091062625	1.0220239136641445	0.5573202357526307
492	-1.7502301887192162	-1.9129728030544242	-1.9699832151266734	-0.5434333668339868	-2.251588100470682	-0.9148795581607322	-0.7149668317863435	-0.7012647372660368	-2.528364175135049	0.31624507824208525	0.25786971980792595	1.4734917841902524	0.6944935304273585	-2.655801766366034	1.5962477882138193	3.0664348524874883	3.0158176345977066	1.0388661596772248	-4.244431008113188	1.1430007190456581	4.347267139903112	2.964766256476477	-0.5549659118945917	-1.607281203980335	0.8267009833444519	5.636534676626051	1.6245949227323986	-3.4400706204345295	3.086241475896344	4.328218925992464	2.617945426053287	0.07982597479931709	0.9675819253334271	0.5482887015804868
496	-1.000607130385392	-2.939255945414175	-1.7848478510616246	-0.11535825551233346	-1.9536753843572998	-0.4841499912436117	-0.047124031812185135	-0.31997764029778597	-2.1826596204963944	0.5429499731660788	0.5097867833618074	1.9515435646376456	1.0490174267032923	-2.4522621569708645	1.8406224204322208	3.239304295944468	3.288346043867524	1.0099705432188073	-4.38070725288631	1.287507292357877	4.496957767576937	3.0177199764355547	-0.7218413334741567	-1.632887001683326	1.0219150755830595	5.783115849199085	1.547256227401537	-3.6469361689997686	3.1488602081906394	4.275714386635279	2.456274980065592	0.10423507515101249	0.8941134787873497	0.4409164477183512
500	-0.3055922679338217	-3.3469357406037545	-1.8693418455611273	0.30104184074690044	-1.7505664781241899	-0.514203606737802	0.3749798228810105	0.051182772835015045	-1.515765901553308	0.7027347666164208	0.556408701922382	2.2081601563969775	1.5195662936945917	-2.0716550297884946	2.0579018540877447	3.2848510659252983	3.3242282783502946	1.0186014149697826	-4.357674587691777	1.4300123417035917	4.584623802054088	2.9023280070461053	-0.9472060775684039	-1.623706575108909	1.2400099007770518	5.843686089066912	1.3692753280401044	-3.819535007370151	3.192276708172576	4.205820072999489	2.181003565050136	0.12127466469186542	0.8105300644437816	0.2532075339123329
504	0.08933262504434664	-2.899867288897411	-2.065856213122227	0.5332052098163534	-1.7385914281818897	-0.945738730427028	0.434027640915828	0.24546229777351677	-0.800716994171316	0.7422962169979526	0.3854906549257775	2.156323904315327	1.8893520784360214	-1.63707983080482	2.172096723794547	3.1875734248745142	3.105847589280681	1.0223466132101438	-4.178764332711353	1.5227907857595098	4.566824424657621	2.6317660742117526	-1.1002703877326434	-1.5777494867544806	1.3802580798586892	5.779282078456811	1.0981911393095483	-3.924955596551011	3.2091324248353414	4.128457058973621	1.8432171298220321	0.1536998446875525	0.7378649692979588	0.04710782307413745
508	0.11881016164823721	-1.7965259506644033	-2.098037476010948	0.5049492704040502	-1.8693333817015905	-1.4812074862276567	0.17068397955716252	0.18249623431383083	-0.338960318901669	0.7058361154855438	0.13332298364357065	1.8630802584339918	2.0108828493846787	-1.2871556249545901	2.185705656255305	3.0350816173218966	2.7388420035831356	0.9853132938303772	-3.8778040311182993	1.5731812675811387	4.473903167873181	2.2949194850200945	-1.0719252797719814	-1.4914627037539498	1.4029387200220682	5.627554402448285	0.7896621207327352	-3.965867032528652	3.2110392966261814	4.065675248371631	1.5330771169102972	0.22718898894647588	0.7009041887707007	-0.10096935902375577
512	-0.10924129905538044	-0.5616161213046813	-1.768092389411118	0.2789545946230847	-1.9761004398045272	-1.7497574046780513	-0.24728922483475355	-0.09341777837532594	-0.3079364888045969	0.7080329638724838	0.005020984901477046	1.501046415353899	1.866263265666251	-1.1143436403750293	2.173741573567616	2.9645306989209192	2.3887941776999537	0.8951528645803188	-3.5117196948080767	1.6326744515205935	4.388315189726233	2.006105656327282	-0.8524866082602759	-1.3666034902401485	1.3483141626648647	5.482994065746614	0.5230837451125986	-3.988522757950578	3.2193627276201813	4.040455807975099	1.3436565365245856	0.3497184804193071	0.7163200956379072	-0.13853369618248548
516	-0.3982251574475658	0.2438887798589028	-1.1098912926308382	0.021463897025038224	-1.8713372898538798	-1.5112042388908749	-0.611055730230609	-0.43873399385308803	-0.679010568334949	0.8634690024509928	0.15688313504187354	1.2541115252302792	1.559142585632635	-1.1304534645149589	2.233874076925318	3.0798749845946687	2.195946926294756	0.7699379901520407	-3.1486775795595086	1.7553114846734892	4.39131258809513	1.8471789313409601	-0.5509430752195676	-1.2172323434615127	1.3039487567404997	5.44209431227932	0.36357429531810137	-4.062577714199764	3.2476572908422017	4.060547341585262	1.328371402247686	0.4974263893920073	0.7825495580942902	-0.06364701672220316
520	-0.5719455466135325	0.3128806940762326	-0.4017236222615022	-0.09244938916468572	-1.4621092044155237	-0.7898894528473346	-0.7705443482018098	-0.6856917721602437	-1.2475535838100689	1.2113262384349204	0.6044061764716102	1.2267450063250689	1.2470400301919806	-1.275030728935703	2.420817369071129	3.386108866725555	2.2120766583859908	0.6473233087408794	-2.854029886669389	1.951607222398105	4.508612621368313	1.8328338815190848	-0.34144687566380844	-1.0703572007811895	1.3414733376012646	5.544512257882555	0.3315221658919604	-4.241162289401958	3.288391820234596	4.10805701172288	1.4743591509788339	0.6183184369688642	0.876997170618284	0.07422866653536514
524	-0.552984951530483	-0.2821746461419781	-0.02215092064808145	0.020374875464257772	-0.8195244649223242	0.13360473479871257	-0.6985209566600186	-0.7254806738656641	-1.7539656117978588	1.6778620439129144	1.2055518596729489	1.4022508824230968	1.0531543466681283	-1.4595693312987674	2.701704256865986	3.777308931350663	2.3887040554772807	0.5602447972457962	-2.6794357232155437	2.1664440577169	4.686636436073875	1.914834732943217	-0.3694024672718467	-0.9598781442249477	1.4608510695767813	5.744174465935586	0.39564111728914236	-4.5243506317350715	3.312377206068814	4.142238606485212	1.7058149533119447	0.6521504504904718	0.9608641838609774	0.19853426465930976
