time	FP1	FPZ	FP2	F7	F3	FZ	F4	F8	FT7	FC3	FCZ	FC4	FT8	T7	C3	CZ	C4	T8	TP7	CP3	CPZ	CP4	TP8	P7	P3	PZ	P4	P8	PO3	POZ	PO4	O1	OZ	O2
-200	-0.4980346845927267	-0.5654745087651852	-0.9079009271587593	-0.5621379003637277	-0.7220234852681304	-0.7766035179557991	-1.1507205934081863	-0.8478502609781278	-0.3933380534254807	-0.7538336496394166	-0.5560450539855255	-0.9655483340681147	-1.0609469386970989	0.3113244168050764	-0.5231705890798171	-0.5673671946506044	-0.8037955740661923	-0.7354541402368152	1.0405663225605057	-0.01854676562335424	-0.3890584995460573	-0.2497197681321067	-0.29253798649362084	1.1814235419009202	0.5201726542691183	0.4884340750760266	0.26312985949839596	0.13610528375117767	0.8166642764453536	0.6451992376250263	0.4291838098657406	0.45548784617818977	0.027555679832862945	0.03713235249681073
-196	-0.3546042731392104	-0.47895732401085706	-0.9423180794766495	-0.6249122603851388	-0.47556054472065074	-0.6107924565153009	-1.1645690173310472	-0.9331487989707775	-0.4695237565107182	-0.5779317602825007	-0.3679305007705124	-0.8861110784092995	-1.1999729841453473	0.308530061658094	-0.4788170742820546	-0.4155218590735888	-0.7539644222297236	-0.6732942444968423	1.5969562490198308	-0.053469125046439976	-0.2872793667215887	-0.17982371106046174	-0.2664848559327202	1.8999217700673554	0.42639672648540244	0.5281175957697501	0.28178954053305666	0.05812985435352996	0.7599708418732197	0.596860764903899	0.42055249107993065	0.19173073720208364	-0.10718893232701114	-0.05761167765019307
-192	-0.2246096575549778	-0.3860430707721611	-0.8557395913453246	-0.6425001605024768	-0.274517446063273	-0.4171377111870476	-0.9846401785786283	-0.9593070721247964	-0.5283553586971589	-0.45342254524193687	-0.15958994586706313	-0.6861163956485514	-1.052947041714123	0.2003535772271957	-0.502761660737027	-0.2873431436913374	-0.6507659538051246	-0.7235322576375206	1.7552993253259856	-0.1736166919854805	-0.2559585266803507	-0.15313114187202514	-0.2418821745964443	2.075422758584524	0.20174631425466236	0.36492058542624406	0.16552188950710045	0.0028683151977361896	0.49797606342473816	0.3395452192793732	0.25644704634769644	-0.2054414147912163	-0.2643012695792092	-0.1725437487775876
-188	-0.15919206996303076	-0.3528285911711899	-0.7120919805667951	-0.630718289213406	-0.21007342583546795	-0.2893896095598888	-0.7295151334463899	-0.9280635691099592	-0.570042429915304	-0.43260773907157357	-0.02499485568352091	-0.4829002606597613	-0.7666652779296211	-0.014662005901571566	-0.611335574037123	-0.24785841938859907	-0.591686664517945	-0.9942758654286901	1.4811682663714936	-0.391815303766926	-0.3390069893384103	-0.24054241119688802	-0.289280413850936	1.656733985532725	-0.13710701430990496	0.0030544469987224647	-0.11277157039780479	-0.08479785152721994	0.08347640910530525	-0.09717283373379197	-0.05194651322362595	-0.6976557356386435	-0.4366899121703216	-0.31286483924076236
-184	-0.18637607944639967	-0.4139201332609061	-0.6034123286271346	-0.6237636788832169	-0.30996224205914114	-0.2916735999372705	-0.559207974452546	-0.8708204009004499	-0.608100114717594	-0.5202715979791956	-0.02549995289265292	-0.40184464949241305	-0.5133100735102301	-0.2708233290033554	-0.7821444253247747	-0.32310566224537857	-0.6526226384851903	-1.426858659956488	0.9266875362841487	-0.6845903379322201	-0.5296738730409064	-0.46329399826381257	-0.4396863866672271	0.8485655167136266	-0.531015394777479	-0.4762196826832352	-0.5123178945958039	-0.22856266738882372	-0.37658157849601553	-0.6116416438872718	-0.43156632672068723	-1.1887118786363642	-0.6114962681590317	-0.4691912818030005
-180	-0.2887235872608501	-0.5448100553108882	-0.5925482496559981	-0.6447320564204563	-0.5131819831289312	-0.41739886893747163	-0.5792539105095703	-0.8245098570033957	-0.6533398015693171	-0.6573113186453191	-0.15246179661404863	-0.5038185106908711	-0.404014109545148	-0.47508001207568473	-0.9556428169918358	-0.4811652588616973	-0.8415691235275554	-1.8202319099246198	0.3288781932633666	-0.9867057179334596	-0.7606849651204707	-0.7704242448428906	-0.661832628963341	0.001490667342170043	-0.8874593950753594	-0.9369541382975651	-0.9286734438337613	-0.40112975138478196	-0.755375264167995	-1.0631763908246488	-0.7756018619028775	-1.5531189402468424	-0.7669844608015874	-0.6143535360084157
-176	-0.4013753821252812	-0.6653066260706589	-0.6721367819028713	-0.6827195269513783	-0.6904149634096103	-0.583920060114031	-0.7725951652094188	-0.8024598935847929	-0.698413310671826	-0.7384229283762924	-0.32397940673093506	-0.7439707498840445	-0.4463531065638779	-0.5628941044900839	-1.053071257793521	-0.6390777214127595	-1.0859867306947315	-1.9382945250211328	-0.11422252626190882	-1.2049823968982025	-0.9254220700741174	-1.0521577570099998	-0.8718567468565431	-0.5518963323010537	-1.1067008944226457	-1.235651251534211	-1.229440805192164	-0.5369869457038696	-0.9494496559967299	-1.3234233822787944	-0.9853942369377778	-1.6850385623350421	-0.8733845927122132	-0.7110671979117591
-172	-0.43969350942225977	-0.6789877397560576	-0.767847238032533	-0.6950301510429165	-0.7051857096033968	-0.6706317050214479	-1.0035105918343603	-0.7848131636832101	-0.7163006645237595	-0.6597316844496025	-0.4211846579408224	-0.9887716149161588	-0.5685678110072838	-0.5369450436386983	-1.0061138842929975	-0.6957501751499854	-1.2640157906090208	-1.6443459946124634	-0.32137757458609106	-1.2506710259332405	-0.9243313646821263	-1.18616532979941	-0.971435067585204	-0.6368019564763361	-1.1184233398810255	-1.2755732504110788	-1.3077064719562321	-0.5696262702865329	-0.9168572402693865	-1.3254247870360094	-1.0079762910189474	-1.5408021172722632	-0.9002130604903946	-0.7273640614265218
-168	-0.3443008056530934	-0.5289669023510104	-0.7838137130021398	-0.6329963787309698	-0.4855628895421227	-0.5829104170387297	-1.0936049195335298	-0.736334977675082	-0.6737267954028852	-0.3734164526571439	-0.347526877241094	-1.0845178338325954	-0.6825839263848565	-0.46238317968929943	-0.7858923653787886	-0.5790546521825893	-1.265277144098573	-0.991940615056931	-0.33229896342303444	-1.0775873633834794	-0.7150481325216118	-1.0956808300965257	-0.8977081753000331	-0.29436367675848163	-0.912878034194228	-1.0453954908680154	-1.1295423479172226	-0.472202448844806	-0.6935214978828156	-1.0900769206181817	-0.854499278295325	-1.162996527596553	-0.8310933092115056	-0.6533811075880421
-164	-0.11931092261947276	-0.23724158048336663	-0.6611074192521899	-0.47477865099246125	-0.06751710904479524	-0.30618053597394723	-0.923923966936115	-0.637038586915497	-0.5504217133930336	0.08067767301694291	-0.0787528974809738	-0.9381940937196971	-0.7388104181709989	-0.41648951067675183	-0.41776168240930345	-0.283506452321477	-1.0471483442571445	-0.21224132126628145	-0.24649217662566816	-0.7067005616465387	-0.3383774748842044	-0.7878335098402878	-0.6571396572687993	0.26306372814518464	-0.5490211234536376	-0.6230491384034536	-0.7504793386585055	-0.27560275723492555	-0.37727433347816847	-0.7163925748857711	-0.5914257153837773	-0.6749735457545043	-0.6783192736665894	-0.5095437752256716
-160	0.15893489082263546	0.09653364842599567	-0.4154194880964455	-0.24560092327575314	0.41387888684682567	0.07950445989562979	-0.5064454065887799	-0.505440472280404	-0.35430157095148285	0.5832645282324462	0.32096809067751797	-0.5679321870770039	-0.7418312411652337	-0.42922934781423405	0.022745927738339836	0.11956544190260168	-0.658075807817278	0.3963454355723525	-0.14635625444654127	-0.22513666692159004	0.0943923888207489	-0.353001623454536	-0.3255874208336257	0.7634887676036262	-0.1342278864571048	-0.142891659971913	-0.29222157523762954	-0.0544534137960339	-0.0866529641347837	-0.3388485005883527	-0.31015902679337026	-0.24205119846743933	-0.4853273915912097	-0.34030243668468796
-156	0.3734571030247781	0.33973535809572664	-0.13184747066588118	-0.010615740875919712	0.7844024280770999	0.4340398598679761	0.015995534096506524	-0.39702907104387786	-0.12255773662380282	0.9831311677906596	0.7246069293801076	-0.09680744981166073	-0.7223070245626111	-0.4564559746185098	0.4337479163186033	0.5057245480166863	-0.217544719027588	0.616386829250505	-0.05169791342676635	0.24366851089469146	0.44762411600585933	0.07336268555477107	-0.017388774038162195	0.9987172459182702	0.21812277977232147	0.2580534809273045	0.10821466120578052	0.10998394312508442	0.08862216003215952	-0.07145014387211122	-0.08999666548895152	-0.01589048091035513	-0.31054478805338265	-0.19568905184930116
-152	0.42447870862601766	0.3933083703124575	0.08119489977125609	0.15689651628459184	0.9114505625601061	0.6246285422767243	0.44379511363515556	-0.3712994744940012	0.09296198165787932	1.1619784802663595	0.9978829001028108	0.3084181241354884	-0.6950861198042193	-0.40711614386768413	0.7219460588347626	0.7474140505993806	0.13895223999704157	0.4218435574848284	0.06907808763229625	0.5868927225554087	0.6202301367359188	0.369873582382962	0.16454406041086775	0.9035086012917055	0.43483027706034694	0.49267616743630327	0.354999690351652	0.17096327202071365	0.12577728895379756	0.038298576973541595	0.031362611721249226	-0.07690785060777107	-0.19956199774425468	-0.10857909145359776
-148	0.28452479767489347	0.24502383110649484	0.15189932248388457	0.21452264433581616	0.7656585554819065	0.5917837008793945	0.626358745900896	-0.4481053341042385	0.24850706693372956	1.0854442092193557	1.0579862567892906	0.5201196061354021	-0.6368843896998523	-0.21005292183771698	0.8357287624239843	0.7691432218206122	0.32223609008494586	-0.012606145782233706	0.24953079160632344	0.7454465608849572	0.5895546659843569	0.48065510270835277	0.1745045478706519	0.5654998407391508	0.5106497394066867	0.5530416355475213	0.42992332469160177	0.13745227421389472	0.07735247890493112	0.026015011528017867	0.06866963190384295	-0.395321457580019	-0.15755711456096966	-0.07879451642408314
-144	0.019431833128744285	-0.020886626041846035	0.08408136644592572	0.17409190491591367	0.4329223323859038	0.3793368926007686	0.540039776392268	-0.5820155129043314	0.32672828353406863	0.8163983801256819	0.9074744559264681	0.5094780313026503	-0.5028608428656829	0.12070929973643704	0.7832307795777081	0.5813605174645483	0.3272660962425192	-0.40647011892691715	0.47731888173708537	0.7328178864097004	0.4180940677100542	0.43345248589752	0.04289676238196861	0.16671496587623483	0.5024987446495865	0.5025392162032869	0.39041858812943064	0.06340712292874907	0.04226139177142829	-0.012241423099128778	0.07594033311505849	-0.831330476092468	-0.13977518642421644	-0.07381179910143915
-140	-0.2400657379526615	-0.2653692656015982	-0.04705530020635205	0.09313373244136597	0.07042639684777562	0.11236751796247314	0.29588091298740854	-0.6761459691142762	0.3390552989028788	0.48369040963123133	0.6287255867343062	0.3527035704290892	-0.27310058405589444	0.46751752377728856	0.6257159098086164	0.27640202571702316	0.2291759842808528	-0.5247976170641431	0.6825002414638032	0.6199020131672587	0.22026333157241332	0.31777077833054895	-0.13951204681935866	-0.10779458257162536	0.49199914808033135	0.4361235190347735	0.33186918413296657	0.013271759230663153	0.11303586484265218	0.02884365983475618	0.1161180359173671	-1.1763232916696567	-0.07126336526759851	-0.04619749623794246
-136	-0.3620318165221758	-0.3637980809563455	-0.13728778029589114	0.04184090335534134	-0.16828376012276228	-0.0642243696617817	0.07581474612883382	-0.6291689260810263	0.31455737272953116	0.22328939977537504	0.344446986044036	0.18427327228751655	0.011322983512006793	0.6593762023490596	0.4495411503886078	-0.01235125955801132	0.14193242752480326	-0.3048705152920588	0.7713913302019297	0.49383881563435666	0.10679255398967495	0.2358621501928125	-0.2651739411811624	-0.15167950055450793	0.536620138720848	0.4290240396158235	0.3340369454533297	0.024858077925267914	0.3240781418247562	0.20763795025377207	0.22648441734352606	-1.2253568141517548	0.11204566778265983	0.04026768718924077
-132	-0.27938073802983043	-0.2664384239145574	-0.10951010855205817	0.06336940808986266	-0.20171751031014737	-0.055501226195636806	0.03389811507249654	-0.39075031777909053	0.28162169385379293	0.12001953243709593	0.16370560187492925	0.12416662989500167	0.2529266768268604	0.5689370021760904	0.3281383804142823	-0.16959752099610093	0.16082590777800512	0.11415608943489378	0.6771413666795121	0.4131946553288541	0.13489453460491202	0.25191637810046824	-0.26099842720893174	0.01748598735090027	0.6360769255791188	0.4995225655341759	0.4192265261556051	0.08967666305312158	0.6279153807999199	0.5018979894364122	0.396197347832782	-0.8662060477321684	0.4198134232889042	0.18758866143548755
-128	-0.022837914468802362	-0.018765935626930297	0.047761045275742924	0.1509944345715116	-0.047335095584092206	0.1421121802318308	0.21825259868831454	0.00448207090408484	0.2542914443748368	0.17924490525767045	0.14028842711792033	0.2195575380742487	0.34814396412689563	0.200229227037347	0.2935875348784984	-0.14511179887374023	0.3192622653529979	0.47542506336341833	0.4030181755381105	0.3852924694823997	0.2898490719629799	0.3666599383633657	-0.12097577720139382	0.27368956735175537	0.7350984197176939	0.6060911997751562	0.5457758293677455	0.16227604407824556	0.9155886150131901	0.8180361369460404	0.5699262604629299	-0.1427893336982532	0.7895834426018303	0.35810980110353485
-124	0.2956007413553492	0.2683313482185551	0.2798800461378532	0.25544744665501445	0.20117916115989523	0.44591006524038096	0.5535377250047343	0.4459815610116086	0.23080107511422848	0.3369409433440996	0.2585584514765667	0.42866051088825624	0.2543749802842786	-0.2917464368130021	0.3288800112050277	0.03101219415285427	0.5773581251826306	0.5534831867549025	0.027484871377693704	0.3735347976790466	0.5012072312098541	0.5248533474068673	0.09321709698745448	0.44568213707933535	0.757785556787337	0.6756584031212445	0.6355800016568809	0.19064849566962927	1.0680923434947323	1.0353356573668027	0.673533914772879	0.7394284587311145	1.1063790293416713	0.48996457333838256
-120	0.54094916445531	0.47939655063709796	0.4998694347635705	0.3164734236356433	0.42903262268464953	0.7326064687352158	0.8888670779674658	0.7948159555395168	0.2024459684744306	0.49974262588213103	0.44943785553947285	0.6504396779804478	0.03030865631795966	-0.6677568538018995	0.38447397850241055	0.27084416082665175	0.8446550943983652	0.2831735603812469	-0.33007222330681496	0.33069780385447567	0.6833067519102228	0.6496970041084216	0.28401476073083814	0.40094590085843645	0.6564290506955812	0.6490648968521744	0.6220975502520171	0.14946278891974663	1.0171955798216596	1.0664979192510162	0.6527491791457289	1.4729405604367611	1.2528101174195392	0.5264732824384829
-116	0.6225498302954308	0.5517000542063039	0.634831546134326	0.29888930841323896	0.5564675317066268	0.8988697506144832	1.080322501316027	0.9439102983485145	0.1649108673938894	0.5924011453930638	0.6253234728284061	0.7797942737918594	-0.18490074528264405	-0.7286618333539397	0.4097241450932468	0.47463199376436166	1.0229247782630053	-0.2028187210207536	-0.5622201547733101	0.2360172116758042	0.7763829807706869	0.6835784894850677	0.36613330152578233	0.10982584925579744	0.4449507582874655	0.5174214826871666	0.49154493088596724	0.05562177658939067	0.7820270637795083	0.9034182406504542	0.505231677210283	1.7650036767266555	1.166596648131897	0.4460197377864908
-112	0.5326913581750421	0.49745648973754286	0.6566799862494521	0.2086573684907918	0.5641742930473376	0.9025709010224665	1.0589781972851384	0.8576847889226583	0.12104503779844797	0.5850446805488136	0.7134255748856327	0.7547088246364441	-0.25110134418986735	-0.43074065338102074	0.3776257624628769	0.5720549211364192	1.0444061729765313	-0.6533427818015484	-0.6143707617507123	0.10890503945272904	0.7635239343439548	0.6103969796982146	0.3055165998374704	-0.33801478062166185	0.19259956430445854	0.32558017886930374	0.2904211275397674	-0.04414808366477238	0.45699992660535665	0.6193107946972243	0.28425568270441204	1.459271427284932	0.8720302559770462	0.27365863254119505
-108	0.34040319833642635	0.38391017816890355	0.5849473461641411	0.08341201373736862	0.48154303309932994	0.7677847127603215	0.8523854591783474	0.5765222892510556	0.07577165197077002	0.49168532962638123	0.6754060966605472	0.574829576948353	-0.11776786267826211	0.08031433055389009	0.2918676428578469	0.5405937419594118	0.8910880662354789	-0.847183463818709	-0.49743181341466813	-0.00684990359603459	0.6609554274083964	0.452402352144537	0.13059489396024998	-0.7718021254126846	-0.015925174538817113	0.14390748702909406	0.09824134384624088	-0.10440958264931305	0.16148944158313072	0.32941779411115585	0.07324825208767184	0.614212392209944	0.468862741001828	0.06935071927681057
-104	0.1490571346095907	0.28946757243505816	0.46818208576253395	-0.031268559317321414	0.35496213942553834	0.5601600990457842	0.5581010565972169	0.1951332832416574	0.03088850706467702	0.3489861479531232	0.5124975429947033	0.29133722112532984	0.13458992506855644	0.5411262498544906	0.1768440748756628	0.3984566022826443	0.5939605817103851	-0.7196856718966524	-0.2704503231372927	-0.07597821186671762	0.49459084743558906	0.24971719023122665	-0.08579393454586902	-1.0129969094449922	-0.12940882113685903	0.026153793492446373	-0.017422335178376304	-0.11060181977242732	-0.021568713655256262	0.1313147243522238	-0.05644820616298583	-0.4960509824149653	0.08580765106471332	-0.09980359648302076
-100	0.04155100126504696	0.2610297494496821	0.35615846424780473	-0.10529501709579657	0.21739093904445578	0.3479861012256066	0.28804409431212624	-0.17243029133654408	-0.015927102376541703	0.19062477302106856	0.2566140883642577	-0.021665174459355944	0.3306437424418009	0.7127073985225473	0.057416550670142584	0.18090537144763102	0.21585293059687707	-0.39566519756557084	-0.008489944019340251	-0.10104706112860491	0.27889451314130276	0.0357776693096468	-0.26469921998904733	-0.9533139443170516	-0.16080446500710133	-0.023902082755419378	-0.039830665934850976	-0.08858218021677737	-0.0868163926197646	0.053900420529655484	-0.08508156963563449	-1.4765390120420558	-0.17843271746885037	-0.19125328909747702
-96	0.043077833841758485	0.2960372261679374	0.2800217859827713	-0.13324105705953374	0.0777679903331919	0.17167344646025823	0.1172104102394077	-0.42445865166310137	-0.06573959423395252	0.03268277264330447	-0.04491088900552074	-0.2959794096626512	0.2953611306839571	0.5148206936236036	-0.05700306952508934	-0.08086809495535832	-0.17065635280437888	-0.10992204370164145	0.22311386409695472	-0.12651264635569615	0.01297497187259203	-0.17591313973358877	-0.35984221009955764	-0.6052557214714489	-0.1792815174106313	-0.057164341066992884	-0.013622178661703248	-0.08902709908657996	-0.10461228314452119	0.04337560747043363	-0.05901150763037008	-1.965210552022268	-0.2966086856982786	-0.20604714699221688
-92	0.12039020627143762	0.35757830648741457	0.25078689988714864	-0.12329419671162696	-0.06494411064678857	0.03890600790691399	0.0643992049856277	-0.4889146077209926	-0.10766580673691326	-0.12100563167777033	-0.34035795841115607	-0.4830744552336776	-0.03754452979026281	0.07705889622783116	-0.17072413818647855	-0.3621259024537162	-0.49870255463574875	-0.05980641007224895	0.3826120486136178	-0.20970262534125642	-0.3018875412471609	-0.38496136568150835	-0.3738002171615613	-0.09649893617108224	-0.2655629210919845	-0.14820200167431835	-0.01789635787856215	-0.1541126962585469	-0.17676117971615074	-0.0038678168687174006	-0.06771108491014641	-1.781990523607596	-0.3142129770928884	-0.1841630931019274
-88	0.21021792239519987	0.40520098703124136	0.2685937278641939	-0.07951614240597626	-0.1999321574885365	-0.05959247037623873	0.10455222401448103	-0.3348449758181872	-0.11467710108414064	-0.26307460599282867	-0.5803715572009319	-0.5549370036419485	-0.5725511894075661	-0.32557704962546097	-0.28667509483438147	-0.6314241870196988	-0.7156337481550515	-0.28045087981942596	0.4554994690838916	-0.37749230766356173	-0.6388782842718446	-0.5859283790100224	-0.3459981075134322	0.3856248845854728	-0.4574759889019757	-0.34717065008249326	-0.1178012263780909	-0.2873022251028024	-0.37452143336152266	-0.17927063956298725	-0.1941770757302624	-1.0090165112769411	-0.31312206308464113	-0.17929233565363073
-84	0.25635471875317245	0.4194422353645026	0.3308354607812369	0.00535308242355299	-0.29571539088928517	-0.13014061716124128	0.1970850969345445	0.01684586885788655	-0.054407723110638614	-0.37264680768342484	-0.7241599541500654	-0.5015850054474867	-1.092175361736846	-0.4244319189799871	-0.3915948559887808	-0.83901637580756	-0.788951692973451	-0.6192751511197386	0.44853177553420737	-0.5974583014662638	-0.936731693763825	-0.7545998673460697	-0.3223418585268328	0.6695719344400171	-0.7193544488864718	-0.6428545101147719	-0.32288312830467153	-0.44514024145272807	-0.6932337266585665	-0.5042650686884009	-0.4639946508613783	0.03852280592133019	-0.35898494629823996	-0.22630430700863075
-80	0.23599143266700393	0.40698960320714545	0.43225666771473287	0.14188082480371925	-0.3124949328162202	-0.16624999004351595	0.30925232093933624	0.48810627933291195	0.09005591995628925	-0.4191612590697408	-0.7470579724523915	-0.3323908141804014	-1.3616677488280495	-0.10923918309049625	-0.45260947828460857	-0.9222213602624046	-0.7117974740177034	-0.824399230782972	0.38237973951119225	-0.7835941890959862	-1.1148934336170495	-0.8494070746910856	-0.3229121557666038	0.6637600643565766	-0.9541538929691058	-0.9578627919808904	-0.5747172221932351	-0.5562539682649358	-1.0490237447956225	-0.907886025997603	-0.8199348429005666	0.9437420940413831	-0.46105590346279207	-0.31905946054966167
-76	0.16363261598758605	0.38717067143917505	0.5590907917212135	0.3268131605480145	-0.22870144190267164	-0.1548586334848664	0.4231226433561565	0.9538131928204299	0.30161145253325833	-0.37963256144043045	-0.6483086331211737	-0.08044125119403824	-1.2410542933601694	0.504414735951054	-0.43135571370890513	-0.8306537249573969	-0.5067275749764342	-0.6937777382500581	0.28462028431558256	-0.8369026162952271	-1.1077100010561454	-0.8290042856266919	-0.326505123744593	0.38257530235020654	-1.0520217392109659	-1.1800575226554069	-0.7715428452085662	-0.557511030220075	-1.3174570765611309	-1.2532479731389536	-1.1390057773443185	1.3644636834981145	-0.5687748775427107	-0.41175779596320383
-72	0.07497638445044282	0.37211549188123844	0.6847717148658137	0.5312482701240285	-0.06309055521056563	-0.09279376244958668	0.5277873264338836	1.2742836443199745	0.5272565470734988	-0.2574989491160367	-0.45629534010124567	0.19635415027634814	-0.7447311859401691	1.12949192238787	-0.3080671123832923	-0.5600370154546338	-0.22516089620963006	-0.19520251403638925	0.17928743317161033	-0.6994954329949912	-0.9005981660993161	-0.6775752288877367	-0.2826218895929211	-0.07117592525393378	-0.9487599706537752	-1.2157137363257595	-0.8187096098256571	-0.4279756237191938	-1.3932992184747504	-1.401553865708853	-1.2869849172523844	1.1773635119276504	-0.6054100378963828	-0.4444575298531944
-68	0.005539129008523903	0.35739633350737476	0.7749172429547159	0.7064707857415097	0.12581719426337393	0.0011908727435130798	0.6097457393510429	1.3481812443073513	0.6983543020736473	-0.08777758456956637	-0.22499731126245703	0.42734837424148364	-0.018477674527008252	1.456557985443028	-0.09884279941398962	-0.17146004693133993	0.0644147990507777	0.514225839270247	0.07363240402227934	-0.38966420194473556	-0.5449288473676256	-0.41976165665504744	-0.1417147215603108	-0.5531433210712513	-0.6600847823643604	-1.0345903608904128	-0.6759380085091798	-0.20057347366237813	-1.238675233574611	-1.278900381674041	-1.1818717688284996	0.5254443274583233	-0.5162205087026195	-0.3764771511586327
-64	-0.024551991311312735	0.3280527881446009	0.8009605387492534	0.8059002736725422	0.2648880177008967	0.0881927085676371	0.6515018923523083	1.162755605622979	0.763920543649289	0.07586041073719707	-0.020780533499703997	0.5533274398184976	0.7405728679079127	1.3154268231559174	0.14559131823974758	0.22128169182699095	0.2974038414598971	1.1751682728661152	-0.049576222771407996	0.0029496732093427518	-0.14203649723431835	-0.11584939033346207	0.11155574740616543	-0.931492922338453	-0.2739762060877566	-0.6843000037082522	-0.3778525283333523	0.053711745752385645	-0.8969830847981711	-0.9124931073992403	-0.8349218347450523	-0.2534633868493853	-0.304304539389023	-0.21048313326145837
-60	-0.01408261336555976	0.2735529535062751	0.7547973971383566	0.8115370849147194	0.303563802667947	0.12634748188544054	0.6396501048150924	0.8119147995477074	0.719753442377591	0.1871393765254662	0.098313130190111	0.5522377477054652	1.3697361911523442	0.7642782907263276	0.36247709301984615	0.4968149053428004	0.435790686699188	1.5646126230791517	-0.21695218925537185	0.3611483266772232	0.19810308466009321	0.16179487068334988	0.44057878740655115	-1.1184147568121994	0.09456200873819022	-0.2668412321029325	-0.017514357299096575	0.2601274543393503	-0.46712833525021025	-0.4174332310150979	-0.3475613883303318	-0.7789588550927967	-0.03155210606238266	0.006508993899779883
-56	0.025759590724638997	0.2004324788755179	0.6545750482245236	0.7461896519894958	0.2413747453555913	0.09439867711075682	0.5767151698810619	0.4651885020908928	0.6134444459685967	0.2308259898556817	0.10415590528178946	0.4532378304482443	1.7844215586432672	0.05852378144985594	0.5076246844826836	0.582743345219846	0.4825004327036175	1.6028155047957482	-0.436490504831729	0.5977764710592715	0.4039346863561853	0.36008587388678426	0.7657763342596853	-1.0797562571920905	0.36005446223906695	0.1099948433244702	0.29794615431901683	0.37490957880732	-0.0545484198742757	0.058746848107074354	0.13517597283566965	-0.7907735089364112	0.21572965329063162	0.20727412350298166
-52	0.07993893305146187	0.13109023835940525	0.5355969057865723	0.6610191447735004	0.12785153058674417	0.006285034104214669	0.48518958565283693	0.2933032803282823	0.5190143572101226	0.22842308821227333	0.010733973207791214	0.3271157733287752	1.9692704627862487	-0.4808808254975473	0.574950991609454	0.4920026349520419	0.4786358463600726	1.370193239567328	-0.6703176481489193	0.694371400510522	0.4699820268209168	0.46700745703091096	0.9960590575819334	-0.8289650061658841	0.502581475896326	0.3792194416485352	0.49551206702058925	0.40252032774388097	0.27314642002761097	0.40402561324156056	0.4903652655618735	-0.24945518311461676	0.3755976548248699	0.3403441897382477
-48	0.13366942073929175	0.08895176626635466	0.43028417121016094	0.6040581449516454	0.03351845211268735	-0.09437565481677046	0.3968088616843112	0.3835268905016431	0.49363607043566504	0.2204832429087569	-0.13153049316576593	0.2531897717282347	1.9396641205453238	-0.6300954206770758	0.5916413053833856	0.31513908425874787	0.48128655431350903	1.0352954838363255	-0.8346011617569704	0.6978808623813918	0.449177860079619	0.5103647099960904	1.0670288774253347	-0.4198477257618858	0.5625286088092439	0.5338011966579578	0.5622652158846465	0.38605943224711065	0.5011091815694462	0.5849004373088214	0.6665948016502924	0.6634740216670217	0.44280853755732413	0.39570605654946117
-44	0.17360672310866698	0.08198945948642837	0.3506153813093003	0.5899301752454938	0.009979156752067739	-0.15692110320049962	0.33418017541436335	0.6913929564186156	0.541902123513573	0.23682390093615763	-0.2573857300935717	0.27948343683251914	1.7141258673305735	-0.3697056462967313	0.5924672469439528	0.17062000887231885	0.5325217233564397	0.7475133519373257	-0.8382865169341281	0.6798167807581454	0.41574910178122126	0.5355718122311852	0.9686746572833355	0.057054612641528724	0.601239560516623	0.611710904484326	0.5390864001014926	0.379210262533263	0.6506757123731625	0.6449053867270256	0.694021819269797	1.6385034281370412	0.4659122216859284	0.40632709758213964
-40	0.187963366033922	0.09504459774339574	0.2827612750543764	0.5894502982516187	0.06196488424392144	-0.15165758094644713	0.2955871216940524	1.0563486787828662	0.6094827040543133	0.27353769471725115	-0.3155001095912409	0.39681529898593065	1.3170626130230032	0.11800821840771203	0.5913965091079111	0.13997402751868512	0.6354334338357482	0.5640339837138906	-0.6418983920103438	0.6861616355738218	0.4201454807641095	0.5757093415030166	0.7487182002237734	0.4826092409823802	0.654921887651596	0.6590761525680178	0.48884719486792183	0.4163441349485117	0.7473284583296992	0.6634569747386589	0.6531989557940685	2.370729678844195	0.510784445903539	0.42502906811216173
-36	0.1683164681715002	0.09744340156748614	0.1987399006832657	0.5475285635475854	0.1472624238587737	-0.08646368958577731	0.25483760173353476	1.2789940801753914	0.6125493630202645	0.2915566258221941	-0.2905283562954476	0.5430379496215452	0.8073564151407286	0.5530855045659652	0.5691929445201098	0.22466532829305746	0.7508723120805175	0.4534032333370784	-0.30175301356424244	0.7087773066745596	0.46139043453074935	0.6316191538122669	0.4920415269826596	0.733817933137217	0.7096469980442816	0.6955993753990843	0.4588277626374239	0.4958491908905877	0.7947933057745593	0.7007359844635693	0.6229240878590305	2.6705634526538375	0.6124607309137072	0.489475874857103
-32	0.11303346575570604	0.06105098485433925	0.07742845992566671	0.41888281597237553	0.20356120117768486	-0.002539231202673449	0.17689634814899885	1.2179633348231926	0.48649263259130426	0.23923832117713975	-0.20775598235129053	0.635258196180551	0.29917448683544684	0.7034617644669108	0.48643827315540633	0.34982237131488825	0.8173837045059762	0.36051905064159573	0.029907358734796774	0.6953699571219231	0.49252456302269987	0.6732375008751593	0.2863327555579783	0.7189944964375821	0.7113001328629532	0.7030437570941563	0.4584049868930995	0.5843983277825011	0.7707153539272387	0.7616599778972448	0.6379053576576322	2.50971173606471	0.7459353785755259	0.5968318566512559
-28	0.02914148561749538	-0.023723402931995072	-0.0797982288372442	0.19869866917034643	0.18468962563138266	0.04763412091030448	0.03872975324746786	0.8557853677123965	0.2257117027306088	0.08627353586826272	-0.11807186871759086	0.6115963443573569	-0.05953758567441006	0.494203685466428	0.3150548628958929	0.41283696785646007	0.7834886292703555	0.27696469356228226	0.1692561353940118	0.5909254536014404	0.45486307029323153	0.659981249096647	0.18838402581336225	0.41448804631489217	0.6044880732533249	0.642921386526041	0.4613681125913373	0.635771451775416	0.6472047551027205	0.7981479743833381	0.677549598890548	1.9929034659614444	0.8332398512783822	0.7015964371133744
-24	-0.06884887797139119	-0.14221249484873452	-0.2467359745233452	-0.06948193890195228	0.0856496391518127	0.029786692857043946	-0.15446104070289599	0.30433401388579	-0.1074474153190076	-0.15120449624033092	-0.06952232849926623	0.46245965244835313	-0.15039423070129998	0.03210637710333021	0.06752815825579259	0.3487312486903848	0.6364545806074621	0.26001125508465406	0.0020897895976293005	0.3829363276826996	0.3209011248592819	0.5682078585583941	0.20545008726700922	-0.11044704141149761	0.3752285232607079	0.491242169093595	0.42904573570646704	0.6132295712247239	0.4210382689336236	0.7466666083557844	0.6890275460966764	1.2910183635541517	0.7877066115518814	0.7394831161902355
-20	-0.16331748623145417	-0.26293766432180293	-0.3852046718408672	-0.3139038376035414	-0.05839483797708083	-0.05303802700360978	-0.3687205603350155	-0.25009453233518575	-0.4113228012667313	-0.4113134731398475	-0.08192055651724198	0.2341799134064027	0.04653764504365563	-0.462827144884788	-0.19737681696649992	0.17231319801217848	0.41169777408606656	0.38311698936055766	-0.43970280774682124	0.12026471614276046	0.11997393488395788	0.40889176623106	0.29784277006291493	-0.7081747633220464	0.07096704822742637	0.26709553531922464	0.3382827929062177	0.5038136231100119	0.1328320648892788	0.5769756421780727	0.6274193509473516	0.5722616300439783	0.569935141554979	0.6645452959448651
-16	-0.24004036127521244	-0.35436123520075236	-0.4668430972233578	-0.4720732855799038	-0.19783218155027305	-0.1639275993738347	-0.5587410316665545	-0.6327291115044718	-0.5964784011086303	-0.614817021725019	-0.13969531620041908	0.002950036657976578	0.4236824799807959	-0.7777872661980496	-0.3987895836298413	-0.02896935671704438	0.1768161948031395	0.6586551053583874	-0.9716826652789758	-0.10742048147021772	-0.07064699363753238	0.22433775606736014	0.3988511850300612	-1.2020411461045422	-0.21501542573525256	0.03461559108100766	0.19697894106246755	0.3190438441327699	-0.1387526389433539	0.3208987704758192	0.4866884934535417	-0.03604030600031557	0.22175227049630458	0.4778436112260407
-12	-0.29275792763228675	-0.3996921469610739	-0.48927667613476655	-0.5229884372858433	-0.30110883636745883	-0.25551029975277145	-0.6915250999157491	-0.7505207042818752	-0.630659340219872	-0.706514118318152	-0.20665679819860155	-0.16481117862575426	0.7822470049181741	-0.8107102492844828	-0.47577798246424235	-0.14752556346363146	-0.0015279548204111028	0.9930159424506089	-1.3388482298426947	-0.2179989660242744	-0.16562718111183033	0.06611108018157724	0.44248574860435796	-1.448099013487151	-0.38679134748078214	-0.12543231217186976	0.039794672180078115	0.08547162243005985	-0.3067511014346191	0.06358223392407646	0.30420789045776375	-0.4520502675087377	-0.1442288901740727	0.23237854183654888
-8	-0.32584893621191746	-0.40399899976773557	-0.47931682942491216	-0.49664348238485917	-0.3755641272122684	-0.3018824450500454	-0.7659924607010953	-0.6190302356349748	-0.5537639246310858	-0.6878450495519629	-0.25567263300240733	-0.24648691651578003	0.9237462854904882	-0.610460637458674	-0.4238612641123483	-0.12397657303503459	-0.09224013215856884	1.2145148485037742	-1.354038354316062	-0.1852258290144283	-0.12189200489740669	-0.03415777898151465	0.38625371358626553	-1.3888549769622283	-0.3936455239847783	-0.16009299416653616	-0.09266170835942021	-0.16616329508790903	-0.31526338974511314	-0.09860352401872352	0.13826152647396703	-0.6314289553912688	-0.39616572756880847	0.011227210955288012
-4	-0.3543941667669076	-0.39198008080699154	-0.48234674212745215	-0.4568511832146952	-0.46396145107432224	-0.3201373509430584	-0.8182486275041281	-0.3451808384286578	-0.4564008999268764	-0.6215924604934656	-0.29546311423091026	-0.27525734831932425	0.7501507382526884	-0.3406350007993726	-0.3033344141931081	0.009813377608914438	-0.11883550107278339	1.166723963652816	-1.0132341359305992	-0.058418039085001074	0.028218563574833086	-0.08512502887214661	0.22113278452355678	-1.0724823447806457	-0.2578302019285396	-0.08054575303722684	-0.17863784685332698	-0.40735793010860505	-0.16920198457437008	-0.1106729728169483	0.033850967798598246	-0.5651590213811856	-0.449219732342468	-0.10934229912569733
0	-0.4008598913562427	-0.3987317969268775	-0.5429602251649543	-0.46762731553268766	-0.6183014496451462	-0.36762374546695037	-0.9078474021878861	-0.0787623969712109	-0.4338603604806882	-0.6043754800796284	-0.3756419410758262	-0.32391717948194665	0.31272497694215007	-0.1891763503543611	-0.2128541762223147	0.14022238517167593	-0.15191052815707407	0.809146581037393	-0.5150871263850769	0.05899536222225731	0.18217638088961244	-0.1348391618900555	-0.03287816039367519	-0.6273637994185611	-0.06657002104402783	0.03275968871190262	-0.22896750213511605	-0.6126648768215476	0.06294379367433797	0.008435246513348607	-0.0018216830166629806	-0.2897248558835816	-0.3113524607903724	-0.09340023970864507
4	-0.4905548977387476	-0.45877426746887306	-0.6868618113342305	-0.562772212991826	-0.8669042565393045	-0.5139828311341114	-1.0916287871456356	0.040546007352026465	-0.5408083186800614	-0.7201019507347127	-0.5634254798969149	-0.46944436312407783	-0.21861961428759236	-0.2750357680529312	-0.2418110215519233	0.13036110964286995	-0.27727413107485244	0.2584931247860578	-0.1683107908290997	0.060911621744625645	0.21163009053681422	-0.24796925422527907	-0.33953741107092733	-0.20943984336426638	0.06781785918041135	0.06270620211028252	-0.28239512372244563	-0.7592381815814905	0.2749074392530537	0.17184816257481497	-0.001100657504998321	0.10269352022707862	-0.08066326359410485	0.040319949286705944
8	-0.6452586038510727	-0.5954112395512661	-0.9113782025215316	-0.7347655873821084	-1.194472667539361	-0.8024998883013361	-1.3971676791201957	-0.0776283217496746	-0.7699645738235434	-0.9993016098541727	-0.9037384964060238	-0.7563903312659571	-0.6472734196533283	-0.5967362508012777	-0.42855963002722863	-0.10590267899716688	-0.5550438151651164	-0.2670547657423012	-0.22988425137176938	-0.11024230690779165	0.02354890288427509	-0.47347959756518376	-0.6598010642559459	0.051294766236974945	0.05617710933807061	-0.09026860422947207	-0.38623320958851454	-0.8303926566139398	0.36312654522767907	0.2647756629457788	-0.017306381792839134	0.4751155066415589	0.10328674290328854	0.22753666283857293
12	-0.8748707749212906	-0.8115952590478733	-1.1861680716130627	-0.9456912851299066	-1.546449299722605	-1.2206299274144214	-1.8059848501385076	-0.45290192847346067	-1.062691685854559	-1.4050835335542506	-1.3846195901244718	-1.1742327183640828	-0.8496502616411552	-1.0441653702122466	-0.7465092520939746	-0.5556710944451488	-0.987492558847153	-0.5722821340417293	-0.7634116987981262	-0.4390720117927559	-0.39208179613304395	-0.8180055597633478	-0.9598254537190992	0.08341629782120104	-0.13278628852220686	-0.45887645963208246	-0.572509406551684	-0.8220319727170492	0.2655884616822063	0.19756551037022121	-0.09821684633730005	0.6852959973199343	0.12736356226236126	0.38478881023531925
16	-1.1683076590604995	-1.08303928101803	-1.461347218638639	-1.149526950794928	-1.854835624780186	-1.6963945584382678	-2.253033870730704	-1.0253372166495536	-1.3413500751961802	-1.8513842774378255	-1.9292652558254846	-1.6569666820653406	-0.8263122418522082	-1.461429353838932	-1.123076793696181	-1.110531565723399	-1.5101892910022021	-0.6004705413916724	-1.5941401679798828	-0.8493772127641286	-0.9518878435897562	-1.2372796504253636	-1.2106932371090038	-0.11435032607056518	-0.46524956704931103	-0.9887937282393147	-0.8403519370796703	-0.7476028185089076	-0.01657437528955555	-0.054415162515345866	-0.2657770209754772	0.6437007768591563	-0.0435489564034543	0.4404819894636803
20	-1.491103406956151	-1.3598501647948578	-1.6831653075637707	-1.3145585026930218	-2.072583431733172	-2.1268970912640124	-2.6473529271997434	-1.663716908069111	-1.5469469985052229	-2.2442641201577525	-2.42505049093239	-2.106510872290824	-0.6847393495437823	-1.7278540090805812	-1.4802548847972616	-1.6210049349866407	-2.013146872206111	-0.4684353160952228	-2.388849729228744	-1.2451626030955856	-1.5135878286294249	-1.6507266718195595	-1.3848495448434348	-0.4823139893752308	-0.8638856985215655	-1.5588999947290119	-1.1530615062211849	-0.636085151020077	-0.4230448890972433	-0.4416137922581403	-0.5092369901197873	0.35895371346445654	-0.3540286710860677	0.36074757484908765
24	-1.7912447407320584	-1.578861590213892	-1.8105605794970723	-1.4322043621143172	-2.1960411016332637	-2.4241483150313474	-2.904894583043654	-2.194228882018088	-1.660949226000598	-2.5233719285198455	-2.77524160638125	-2.4284405647000757	-0.5658892974871299	-1.8117259695087784	-1.771364207563868	-1.96983277300364	-2.38281201714682	-0.3951515247381934	-2.820570938618489	-1.555370207674325	-1.9373625467977778	-1.9714221904572078	-1.456126567025233	-0.9214598513226769	-1.2429461447805639	-2.0300919958358143	-1.449137922442963	-0.5210064040381315	-0.8568593838038927	-0.8608064629755984	-0.7878649810926498	-0.0589012092354917	-0.6875810605809193	0.16345518786169885
28	-2.014707321802391	-1.6864521460869664	-1.8287340356432054	-1.5113484821308671	-2.2641880455072294	-2.5557656223620095	-2.982033245187154	-2.452571624285757	-1.7037615733046167	-2.6835620335536365	-2.9466762468328187	-2.5674550468472668	-0.5649433717769327	-1.7733495190670343	-1.9952160069636014	-2.1256120151258995	-2.5488252575418855	-0.5630081877798959	-2.7289943626167874	-1.7602064565086646	-2.1454141085817633	-2.139424795471274	-1.4080313408588199	-1.3181509938338538	-1.5404282769411757	-2.300012582694003	-1.66281127509868	-0.42576584112437016	-1.2164286344333906	-1.1934730976490016	-1.0388479206559698	-0.44303330667220464	-0.9206295586230521	-0.08392728098898976
32	-2.1278140491169215	-1.6656951862242115	-1.7579480365238271	-1.5678664406292253	-2.3358948171767735	-2.5596141750561503	-2.897701256111742	-2.3521475732545136	-1.717574472859281	-2.7674906183942274	-2.9859983845661815	-2.5296387608557076	-0.6971124989075321	-1.7244678692194404	-2.183537000865273	-2.1495211070149973	-2.515048735944424	-0.9995674465691998	-2.195636028468393	-1.8892217826828712	-2.1512877886816795	-2.1444306319454522	-1.2478144137349474	-1.5766754110583396	-1.7348110632012	-2.339483255201771	-1.7470364526509246	-0.3528999677331282	-1.4261952602618129	-1.3451336588276799	-1.1884117096460332	-0.6468576772570697	-0.9722032522451298	-0.2813368134548082
36	-2.132825369218405	-1.5508414467757248	-1.6493859249433669	-1.613908525206889	-2.455400460719655	-2.522102349589335	-2.7300884654735222	-1.9354668806801274	-1.7419993833429632	-2.834283821579473	-2.9927427693147783	-2.381114715286481	-0.9158472991708622	-1.7629041627243878	-2.370733493541451	-2.153431648539548	-2.3598015248800865	-1.5526289900680257	-1.4966878853203474	-1.9947445342246184	-2.0456271119922707	-2.028937096241562	-1.016593572910948	-1.6541038709840066	-1.841842765926271	-2.1963019315581422	-1.6917979674540846	-0.2847521297894928	-1.457534309521984	-1.274382707239341	-1.1693631381075174	-0.6167527421638573	-0.8290600755740608	-0.3267480424737618
40	-2.0695455022059304	-1.4193465673851222	-1.5692037304360296	-1.6558130937732702	-2.6278614931516646	-2.5342168744000575	-2.589527838844761	-1.3811830247339785	-1.7985206797014204	-2.9258098528425323	-3.06604050815865	-2.2262110653937617	-1.1641856402568198	-1.9219207715148041	-2.5702445442157122	-2.2395851555546975	-2.2076237145953534	-1.9781520316725163	-0.9689328646038505	-2.1228172725487267	-1.9526429127031073	-1.8759365034424265	-0.7882898429995361	-1.5863425691607635	-1.90258109089194	-1.9743472287875303	-1.5363886317563675	-0.19986489364707727	-1.3417373861769528	-1.0123892996976858	-0.952695426919779	-0.42384204161445677	-0.5456210361056546	-0.1582765128192699
44	-1.9997703978593904	-1.359514352227041	-1.5737066229188625	-1.699607129574261	-2.818927996194048	-2.648402922619456	-2.5755608016790967	-0.9483619308369701	-1.889919753071429	-3.05022000496373	-3.254765502341589	-2.1713814680590486	-1.4168953859795679	-2.162309164309981	-2.7732264925557715	-2.4562413630460234	-2.1830117647368383	-2.0890257305808198	-0.8577580430309023	-2.2990558089384843	-1.9812449166821027	-1.7864781573014048	-0.6515436752081902	-1.4874614439602802	-1.9723300884041344	-1.80236303351252	-1.3712578977296181	-0.09643598621577776	-1.1716434926015769	-0.6712415201406052	-0.5862726554373758	-0.2362693542237287	-0.22890900017641672	0.2059384728239045
48	-1.9814292142432828	-1.4282736742198834	-1.6862117009505495	-1.7584836438604265	-2.9786517544882942	-2.8590667175587723	-2.735769503362011	-0.8744492508745033	-2.01108765094361	-3.1899323382901894	-3.5396230131427786	-2.2881693782256134	-1.6891735749512502	-2.4057223736105833	-2.966867677827372	-2.790271751988444	-2.3657350480432067	-1.8752777529100322	-1.2214050262131237	-2.531717294023067	-2.193346018021904	-1.8540112925450236	-0.6802049858085875	-1.5094165763892848	-2.111958498390962	-1.8046885683272054	-1.323718663688266	-0.0076245078624509605	-1.0857855054144778	-0.4328379024067926	-0.21683558766932437	-0.24157006977602713	-0.014585223943423823	0.6513010246999223
52	-2.045135254464826	-1.6206617314428904	-1.887017364506064	-1.8541465950883222	-3.0763945501857313	-3.1163110654352937	-3.047707788402079	-1.269158717765836	-2.161095136908261	-3.326496115868983	-3.8569028280155524	-2.5904879504603793	-2.007659430203364	-2.588062756679881	-3.1569724003240887	-3.193633548302817	-2.7659516264700126	-1.5216400584903815	-1.9289725970203764	-2.82437180759693	-2.5983438426219414	-2.1413781588849217	-0.9057037211439515	-1.7684310630018767	-2.3784432351143927	-2.076869244100281	-1.52457367988953	0.0028444002310643052	-1.230369922392577	-0.5069851266458584	-0.06760054064610894	-0.5560662732390119	-0.03502637139060134	0.9926859115333209
56	-2.1850295011666803	-1.8699929666990096	-2.122203106290512	-2.008707041437291	-3.126428596232503	-3.363131276222655	-3.4325535210730154	-2.0562775083124265	-2.3471105039465523	-3.464648714854898	-4.147027005215798	-3.0345623416579244	-2.369221204498028	-2.701575272415018	-3.376444569646073	-3.6213068870667957	-3.327872506322661	-1.3088673320149466	-2.7374286582497898	-3.184297315187351	-3.1657595554532705	-2.663160555791425	-1.3036565747725484	-2.270804161060594	-2.808661930622433	-2.662067883446161	-2.059426779315828	-0.13295666839886716	-1.7010379986731263	-1.05541050167647	-0.3576965621023504	-1.1599106759350324	-0.3770382692831315	1.045856234770966
60	-2.3682761132528554	-2.0834393448679953	-2.330202573615095	-2.232381815042489	-3.1880013862229206	-3.572644939939289	-3.795517673446414	-3.0005469246448064	-2.578646891759196	-3.638076057785566	-4.395653236735295	-3.5411820322275878	-2.725472204956613	-2.800243370615612	-3.67010425594689	-4.053568352955421	-3.957902421495294	-1.458424326075523	-3.4050402555327386	-3.616592159676966	-3.840002527078607	-3.375391236366262	-1.803476805901981	-2.8850159572240917	-3.3963503751835846	-3.5256688505803533	-2.9183411524524536	-0.4485062945486302	-2.4817233022974836	-2.098608250087876	-1.1826610535326225	-1.8872396898305148	-1.0314410898870114	0.7217489462749881
64	-2.555854075654633	-2.1945431177045505	-2.472991937115671	-2.5130248006315408	-3.3375134383814498	-3.7628502750761323	-4.074419011319526	-3.8082792662791842	-2.8551280426419585	-3.8914911648728054	-4.640509593691554	-4.030132760363223	-3.0018594189194467	-2.963969938424288	-4.062561501736426	-4.489775646318215	-4.561961162493386	-2.0059139677901685	-3.7827494048934454	-4.1067104235915135	-4.545790183988071	-4.176015843338409	-2.315188163634082	-3.3872203741385203	-4.071994771213342	-4.535084236139125	-3.9666354556071566	-0.9128380394776846	-3.4100472840998086	-3.4466512116196975	-2.410561793916968	-2.481168979102472	-1.8545126868156083	0.09954907719989184
68	-2.7228698661722897	-2.2035713140165956	-2.5546622211807133	-2.8145110536087645	-3.6260931400301755	-3.9799604315409214	-4.269183624933017	-4.253845204103824	-3.1554534355604678	-4.249029625655288	-4.938080775191236	-4.4490380174843	-3.1399121205209704	-3.243324033177971	-4.529858100898413	-4.921943175286911	-5.0739731660529745	-2.775070660260466	-3.851904382517308	-4.605210769470372	-5.186168180723323	-4.919550883270246	-2.759325258917773	-3.567678919367721	-4.7020974040524175	-5.463372693573254	-4.958433138726277	-1.4252378904598477	-4.197762001883359	-4.702475535917918	-3.6591486838462544	-2.6883220604733813	-2.5701057846030255	-0.5654232487708077
72	-2.8657319473393073	-2.1802947466162568	-2.6159212523218254	-3.0859460752775827	-4.0438604252760735	-4.2594642531619025	-4.434529293308285	-4.270581711477339	-3.4375023755069316	-4.687715995397321	-5.3104600772295845	-4.781918513622617	-3.1318368832671886	-3.617991199895602	-4.994597422387412	-5.309733377402317	-5.463092313324938	-3.466022244285634	-3.70641564387096	-5.029002176939221	-5.644932732635122	-5.4464874130067535	-3.083474389874277	-3.347657433640873	-5.119511114546401	-6.033408626582293	-5.599812970328384	-1.8405253840707714	-4.516036499065633	-5.3643498285278515	-4.39297007405286	-2.3552703797957015	-2.8324110436453585	-0.9182330942812631
76	-2.9937689228766406	-2.224717134580883	-2.707232230027078	-3.279132596319985	-4.512128341726868	-4.590156066749593	-4.639513480870583	-3.9621825118165193	-3.6513497737249536	-5.133837686928443	-5.70871113289524	-5.035519587201086	-3.0219426078793616	-3.997070063989789	-5.352473722295629	-5.578886971693473	-5.721029267172001	-3.8038556479737022	-3.499060621964061	-5.286104665761535	-5.806973919512385	-5.6235995150681335	-3.2594699777325435	-2.840843193511154	-5.18239782932293	-6.003148540599122	-5.6466054773818755	-2.015276188530691	-4.123000611386078	-5.007824885122571	-4.12182759197986	-1.4897936544951633	-2.3462636411557214	-0.6432151778193972
80	-3.111079684985855	-2.4054543911283495	-2.8541016506615176	-3.3645231638839355	-4.908044325834697	-4.902370917340721	-4.913170325272439	-3.5313162714492736	-3.7586042786116325	-5.48470448062877	-6.017462715215082	-5.210523592191373	-2.872783892054169	-4.261192311018867	-5.51598499812792	-5.64639185433554	-5.8393149228487	-3.6616606619893264	-3.3730163489058276	-5.311808095872421	-5.595751748262222	-5.381961808921618	-3.2669043458473186	-2.3104865492660696	-4.836800086207443	-5.263675676407762	-4.9982414119412	-1.8534558964664087	-2.979194633591538	-3.47609113769283	-2.620223992408008	-0.26424330406231145	-1.0014538739669334	0.3942597498476379
84	-3.2013971724745	-2.7101967266321423	-3.0342683715506347	-3.3379988586072753	-5.110116468879202	-5.088918196227644	-5.207961546146815	-3.1696364799582524	-3.747376670912929	-5.645162568144795	-6.101476653906776	-5.2767906055738685	-2.7185618808773797	-4.319981564105302	-5.450734601564146	-5.458290563153955	-5.792880997337272	-3.0981542985896553	-3.404130211818605	-5.096940981394156	-5.0115384929012805	-4.738727557615941	-3.07941078362233	-2.034548515905129	-4.150439728748442	-3.904726257002476	-3.745701780398969	-1.333661672086014	-1.2919509378239529	-0.986682770145279	-0.06205487608143418	1.0417770121021268	1.0441774103504609	2.0723516888748708
88	-3.2268366732189873	-3.037185184439999	-3.179555884916729	-3.2141592421444276	-5.041698919918639	-5.0477218500486964	-5.403388963408536	-2.967307083267547	-3.632916441328256	-5.55877159622546	-5.868569836104916	-5.169666277231051	-2.539510482098484	-4.150763501178044	-5.182059751778618	-5.015695082398843	-5.541266904192019	-2.3011424483375125	-3.570775738283852	-4.690399634916912	-4.145673264527078	-3.7920987510307294	-2.667321913660557	-2.1484818404313177	-3.2946715271736973	-2.2065930310804993	-2.146495813672416	-0.5090699779055483	0.542569695533372	1.9111677359966037	3.0063979549797653	2.144031042407887	3.3853804979682387	4.044789304057908
92	-3.140249721228126	-3.2341027178173416	-3.2017848410831404	-3.009181968720905	-4.689263331971783	-4.720640647413804	-5.349900232159304	-2.8841440604825186	-3.4415440472496575	-5.215672002975493	-5.30980299562724	-4.810616004242301	-2.272490257247743	-3.79415964122328	-4.765448081382707	-4.369194973404878	-5.044664370198017	-1.477165695275642	-3.7579312229645283	-4.168136586156154	-3.1521272579718196	-2.6862399510273445	-2.0175459333980075	-2.5525212223457867	-2.4717376169741843	-0.5446119890767996	-0.5294683562262397	0.5167467581100127	2.090585941758521	4.530020225531793	5.859728321539837	2.856198303640843	5.501796708521408	5.870911106545782
96	-2.9048738406273245	-3.1648714462483594	-3.0301196498661627	-2.7243945529817943	-4.090368737383994	-4.109659184570397	-4.93385170644581	-2.788407795541734	-3.187566749154316	-4.637330997202998	-4.494780529118079	-4.144095887211725	-1.8525891257242735	-3.3142547523744987	-4.240392197393404	-3.5863003640228546	-4.286355484630874	-0.7529468517366873	-3.795718660308089	-3.5862259774263627	-2.184267753808374	-1.5604969223678022	-1.1589572400396124	-2.944673530773422	-1.820206160718142	0.7577443699779011	0.8298985341099994	1.6214554268907158	3.059146396542755	6.308704837129913	7.869982222714434	3.1529879490402033	6.951120835874179	7.182530385003061
100	-2.510097974161879	-2.7699119974774695	-2.640713923462843	-2.3415183961878436	-3.3036649143732815	-3.265953055719105	-4.131756295262898	-2.53460096673002	-2.8585333751986686	-3.853342284964239	-3.5280086905097487	-3.1730575481411436	-1.2561407057518894	-2.7534677912811945	-3.599492063971238	-2.7144763401162106	-3.289785376825926	-0.1395255770736885	-3.5305564314395954	-2.9482653066585187	-1.3288209404774471	-0.5067961799223974	-0.17572738185861525	-2.9765026494216986	-1.3504368032692469	1.557425971867438	1.8050631239140282	2.6870160035003607	3.412720671620525	7.024188500789799	8.73763463675307	3.1657366672697345	7.5343055534874726	7.808402041748082
104	-1.9754528949453223	-2.089994663683842	-2.0649731107074647	-1.835215325490428	-2.3818559586470363	-2.2629587593164855	-3.026780359255697	-2.0346350618491242	-2.4209659038455342	-2.889744274472896	-2.49539279307718	-1.9732902000197523	-0.5182313905983298	-2.1135544723554385	-2.7967977453191355	-1.7647309258728519	-2.1207308715682767	0.43209430466277465	-2.900791160889097	-2.209435934210529	-0.5742261395261705	0.4455104459004933	0.804306505079917	-2.44705557205359	-0.9470443701675366	1.9360722254509377	2.4394724307458313	3.608805647321747	3.3700246725828142	6.848843557232258	8.569107034029146	3.1040794771025277	7.352086048637474	7.80176971373138
108	-1.3452355827699884	-1.2464705674172343	-1.3775471414118594	-1.2009394138532954	-1.3681647743014533	-1.176473376164822	-1.7844680502660746	-1.2941415277232073	-1.849939460852118	-1.7815524294696028	-1.4395739995850296	-0.6826548559119602	0.2815301411196491	-1.3825402224920875	-1.7985385610948077	-0.7330254893869289	-0.8791848994945964	1.0350973579975924	-1.9843168208567807	-1.3245767321522863	0.15997739095828617	1.3064998355304456	1.6420439440277605	-1.4294172489316568	-0.44786211735184656	2.128560537686204	2.8807356284842878	4.292817581782527	3.2723190701836233	6.221516116646918	7.766689280928104	3.1431462685383176	6.723052007867234	7.365937214373988
112	-0.677506385523195	-0.39062261482798166	-0.6717890484061296	-0.48137044785081856	-0.3157781652584161	-0.0826193464696632	-0.6002216920003635	-0.40387567775800665	-1.1658467024932266	-0.6004443153480375	-0.37842312359634656	0.5317279683039697	1.0557812425660371	-0.5885182008189744	-0.6459727867029683	0.3541274955868558	0.31480005304012143	1.6786830382879778	-0.9878061388825246	-0.31373572270337685	0.9465582942906204	2.0787570424048414	2.224238151656677	-0.25792771512714596	0.24058926044756318	2.372108453483658	3.2649860299647107	4.6528348805256705	3.388869277027424	5.6016287662222375	6.797100049977644	3.330400696929071	6.007510646911351	6.728065473735924
116	-0.033542059277249105	0.3502006223896779	-0.034589987160850974	0.22726423981031482	0.6882671100405519	0.9318087673503204	0.3573669186152523	0.5000907766113851	-0.4542598414873052	0.5263169990602764	0.6500539763250801	1.5156993827699066	1.7391698316533297	0.1618054505077708	0.5116237985091469	1.402541633879577	1.3363565172787952	2.2847177924646744	-0.17225514308831383	0.6964757424890043	1.7713863804916685	2.7157027652840124	2.486508601586549	0.6253143533177784	1.0567020151162025	2.7576191355700295	3.6154966263087602	4.619555938501537	3.7631761932729413	5.237092958579369	5.965352520186736	3.555590859019212	5.431108937856371	6.03565452959176
120	0.528627871132384	0.9043969489151951	0.4694701421328781	0.7974415997398884	1.5183198413661958	1.7624964669551535	0.9838833784058258	1.2806460825058152	0.1483463492224387	1.428197141856185	1.552266355410128	2.162549490237109	2.2904148043979227	0.6960826498577031	1.4436269962102337	2.2527089062082086	2.0695407338343603	2.715239041148831	0.2543688410058822	1.4888057671151502	2.5018579896703543	3.1124701421356646	2.4122765003335376	0.8849118925640911	1.7797795489198798	3.167329780211269	3.8125939272942917	4.16094683550292	4.181278218203053	5.066512095057408	5.309574590629037	3.6052267460398895	5.001733767279063	5.3264283999431745
124	0.957154927221325	1.25520944278427	0.8009714463992198	1.1143305273532118	2.0374162145673225	2.2995526732560774	1.2454999653841625	1.8289284659939717	0.5026208149617784	1.9404429148319928	2.185085052695471	2.4289872585005754	2.6692778996785678	0.8461578466986482	1.9230312060441659	2.730794661303038	2.42265414579989	2.829518072613844	0.22022934202381597	1.8342961026610227	2.930992595901957	3.141143314060342	2.0137700983703093	0.4452417779648466	2.121611828215833	3.3388752853018397	3.654368152928759	3.303050748115066	4.283083428059545	4.802137362753698	4.6603135944960465	3.273723832448143	4.557748783048455	4.574320304765648
128	1.2124564617062978	1.4211310112359026	0.9445853209488916	1.1247550220702396	2.1514871066133052	2.4640266833083495	1.1655961245672235	2.0817682690512913	0.5292935954081995	1.9732822129973724	2.4125838218812237	2.3354542196437063	2.8163654733123344	0.5430222736000089	1.8330036355469763	2.7296528747306033	2.3499140680111292	2.5435261662161532	-0.1913645113643471	1.6023880202844982	2.8838734553959213	2.719056361009188	1.3153272833993936	-0.4927463519053491	1.8735681724929008	3.026165716160325	2.980251304731448	2.1396543925623694	3.7639140987733977	4.142463673623316	3.8164257906879375	2.4803643164000357	3.9127704998410526	3.772005786909096
132	1.2773716417487015	1.4338738882102608	0.9086593366569665	0.8641401507494693	1.8625222397510135	2.2521841469169313	0.8065384009978965	2.028596396092886	0.2532718771262055	1.5654871424250885	2.1849183981090996	1.9561527918064892	2.658137791598173	-0.11964390396666978	1.2390966384121092	2.2766468467453054	1.8757331323949664	1.8649411154391813	-0.7928597311029274	0.8452507832167465	2.3295433462455435	1.8747692060820924	0.35408621937045304	-1.5701616962844411	1.0312949392983912	2.1663010065698005	1.7889510347976028	0.8184380510647461	2.557191365461437	2.9881691857234203	2.723828308857858	1.325754877557942	3.0076384468436985	2.9879627152344397
136	1.1671016186811594	1.3268418278573217	0.7252724152373446	0.444748311111997	1.287266251175014	1.7586168006365186	0.2557067268591328	1.7107000307761124	-0.19869716415306962	0.8878681041235523	1.5905371864215965	1.4029793703897024	2.146323198621582	-0.900804755797586	0.3825007071374585	1.5461126526897635	1.1087350817344044	0.8966120458853811	-1.386975165680048	-0.1948952371921867	1.432161804398055	0.7720095495759792	-0.8026708940267651	-2.4549462733276135	-0.1746292705895295	0.9539339518304399	0.28227257657309685	-0.49424499148515305	0.8969815350774109	1.5356495341630187	1.5478137692473584	0.05876280725067267	1.9768980691588975	2.356929773102059
140	0.9331339574142659	1.1377037734871323	0.44922542458602965	0.010234866265444008	0.6246192439521628	1.1570597857826233	-0.3822975745085768	1.215625759870293	-0.6495466811946775	0.18654322577108906	0.8438204505596827	0.805445847861922	1.316877838624666	-1.5104353389752136	-0.4116177250483353	0.802125690342381	0.2296766334933797	-0.18468169821364755	-1.8524426175077855	-1.1716546982747664	0.5035592304867529	-0.3300704649697985	-2.0396146722796673	-2.984819881532658	-1.3669164146244293	-0.22691954615044901	-1.1950370043146696	-1.656448598494261	-0.7751889209249162	0.19388893197698445	0.5969234093853998	-1.0291290257220114	1.087796446914833	2.008088822063242
144	0.6548159701980975	0.9147387719901282	0.15037842056931322	-0.32319530763089444	0.08215098807336185	0.640627919010164	-0.9941880677871576	0.6603463275449745	-0.9496550536021073	-0.31190740983415255	0.20548605867004036	0.2871201627157956	0.3232588163797423	-1.7461086467526934	-0.8706397988272364	0.2948712699121073	-0.5524466023802308	-1.1727868288947718	-2.1690289919449928	-1.7793889000790082	-0.12773376671012654	-1.1689194411329296	-3.1978483119335332	-3.1941955008923406	-2.1885051672040476	-0.9838323568300269	-2.2946464957477124	-2.584911578327852	-2.0121858069161793	-0.6283015592924447	0.14595322274074884	-1.7316847995906237	0.5877645596923372	1.9772030065207986
148	0.42044621599856447	0.7159812432332147	-0.10103839610339256	-0.5079553114464179	-0.20240531810679643	0.3481087973865669	-1.473008152103766	0.1624240722131715	-1.040019151922849	-0.48730289813033517	-0.12626907197543646	-0.05895659685150939	-0.5893370494268314	-1.5927193124613142	-0.8887186027977051	0.16053944785593785	-1.0648587915238312	-1.8891024541843322	-2.3806447922682583	-1.8863234472333408	-0.2660020285089362	-1.5814577301151742	-4.113423813924906	-3.235167018351764	-2.4630920824806313	-1.1125280828997548	-2.8130321431663314	-3.2655460752056062	-2.5661201412262478	-0.7426653485621145	0.2664202444979468	-2.0129935690601357	0.551433085003029	2.161028141287703
152	0.30048352404069895	0.5949392303704815	-0.25311714346875924	-0.5701628312974463	-0.2075846637014774	0.31165724914066184	-1.7423688129303483	-0.19520127724001327	-0.9687861179687841	-0.36435517576733223	-0.09909595524087274	-0.19268651257980512	-1.169784304526437	-1.2283962933997572	-0.5630465135663898	0.37307211662514583	-1.2320607869512963	-2.233033413017528	-2.530498259831199	-1.5891101320199872	0.06115345641432032	-1.568271871421964	-4.675984370823669	-3.252273551359111	-2.2661418857580338	-0.7013185006554885	-2.7731420923789822	-3.7370486165109043	-2.488566630756158	-0.28471222447991645	0.766522286387166	-2.0041520544950564	0.8189540484732638	2.347151988779211
156	0.32647901691024733	0.5817174896812068	-0.2842912964795754	-0.5762707576507385	-0.018515517888409633	0.4562839854164446	-1.776644940659056	-0.3846154501264277	-0.8511439540354553	-0.08305691161643518	0.1822580988573932	-0.13456523384452057	-1.2669653860529289	-0.9282090044428439	-0.13293446566874437	0.7726571540398288	-1.100211498343754	-2.211554760117655	-2.610296719636441	-1.1567128867509064	0.6230692251686922	-1.2825208869978468	-4.874166476341373	-3.2917487538198706	-1.867439622932568	-0.08096724728169186	-2.3943178593266325	-4.054825295701271	-2.0736606068708334	0.3614763012342717	1.2814893690179683	-1.9179696988319084	1.0696297856981871	2.311079496270798
160	0.4836802172370005	0.6710047704921551	-0.20329095371895556	-0.5833399877125414	0.23025077523272908	0.6506277902388841	-1.605543132543073	-0.42885523926224584	-0.7964737991251138	0.18051658525190392	0.5215294943993596	0.04707788664137459	-0.9035534239844635	-0.9153072214859159	0.14511321448405007	1.153619048067006	-0.8096772411884885	-1.9353411148799688	-2.568505995941293	-0.8912762977032044	1.1076261969258028	-0.9474164223592852	-4.797875869081596	-3.305041066408381	-1.5788428743554797	0.35463753253091107	-1.9666579912123392	-4.252893437138453	-1.6809543328760543	0.7756957392181617	1.467156287303782	-1.9309546898727328	0.9965163444154956	1.930950875175477
164	0.7196980100580898	0.8256782272473331	-0.03773284321437461	-0.6020468458234226	0.4269902695365772	0.7816796283059897	-1.2977619138377239	-0.37491241002793974	-0.844156799569301	0.30114826483987817	0.7374623399235175	0.2672036283422519	-0.2699591212609389	-1.2406992880967835	0.12303556470801894	1.3658075298158276	-0.5243174420470448	-1.5736043413486862	-2.3670778214773165	-0.9759514307177222	1.2814384666514587	-0.7414214592334374	-4.586931693893964	-3.223323337046217	-1.589117165368053	0.3613761356289795	-1.6945245223178063	-4.319818962634765	-1.5355457028720823	0.7354617696313273	1.191852804989518	-2.0876591152888597	0.4900671231294597	1.2607270447371972
168	0.9667866801648417	0.996337828504844	0.1826547379650496	-0.5927365407283681	0.5319401012341898	0.8130047896839631	-0.9276832914772524	-0.2554819577442523	-0.9436432099359503	0.2563203864778685	0.7542501668960554	0.46332228066768705	0.3642201414449345	-1.7565709308144133	-0.17452891126914233	1.3788250649926173	-0.3490605941542597	-1.2811979023057525	-2.043075794783746	-1.3869047129901013	1.1059142323228863	-0.7075650674121783	-4.348887909399752	-3.036638729058078	-1.8726738644049485	-0.02256035799052592	-1.5896984298624348	-4.199398507006181	-1.611214752897711	0.34533226402832734	0.6231057032112026	-2.2756967487099846	-0.27035370400835573	0.5243436680906798
172	1.166678187285744	1.145138022392618	0.43723168858763967	-0.49568530792019155	0.5801438674584648	0.7958734015398071	-0.5424109683647358	-0.06395385398215157	-0.9888282393285525	0.12112482606585898	0.6299709065744544	0.6244559868305352	0.7745640258306687	-2.196547741112575	-0.5747151956353178	1.2819603649197944	-0.27768090297209513	-1.1295305461975869	-1.7210813717304319	-1.9118237447153454	0.7505773882989135	-0.7324655633553225	-4.093007554210827	-2.813474886466605	-2.214942449699556	-0.49422779554517876	-1.468459960091018	-3.814002265837489	-1.6534229475238116	-0.006271942037155066	0.16266107518136128	-2.2773756923397785	-0.8711992480216858	0.03209116674308
176	1.2880424228573195	1.2594820229202723	0.7136327606303489	-0.27472057869215466	0.6422407014844246	0.8287590721187051	-0.14886270425882425	0.23810894727194823	-0.8845853783208358	0.015527738219038837	0.5113367425406333	0.7923345545791374	0.8831351973171119	-2.319216960773568	-0.8510754086941367	1.2252888648568825	-0.20107826539770643	-1.0763576003555784	-1.5508012732452476	-2.2627825679869744	0.49826854341591253	-0.6075495466151938	-3.723114004271916	-2.642679923061151	-2.335490936104795	-0.6433897598235035	-1.0537753078558305	-3.102014056956986	-1.3259679045578314	0.15946435888083846	0.2613053613264277	-1.869933004426517	-0.846385119208603	0.05667565003629388
180	1.333096143217813	1.3501131500489336	0.9993827317755072	0.054588284205658893	0.7723922709991158	0.9931304429729333	0.27521207859173163	0.6875330788419962	-0.6045552476878171	0.03891264264891879	0.5460836873572331	1.0353157494154979	0.7847329954361896	-2.035209650623308	-0.8350542166607643	1.3384841646733256	0.02841772131897633	-0.9881558393325389	-1.607892866843476	-2.2213106099312805	0.596304295941681	-0.1396811451961595	-3.0975875776285617	-2.541925423880107	-2.0373685308516225	-0.1628377731503518	-0.12692537871740128	-2.0539705701468645	-0.39741513032711334	1.170715805912635	1.2080420225160882	-0.9313657856314681	0.10100353483686757	0.7250702958874216
184	1.3296110596465949	1.4345065319083095	1.2716100183806798	0.4272812296093137	0.9744654869272233	1.302819844771304	0.7506597023131405	1.2760996786324061	-0.20846316165744272	0.22612424137721893	0.8020607808843845	1.4053864443582345	0.6821213347379227	-1.4502547942739445	-0.4885102200095349	1.6690742927372864	0.5085508214508654	-0.709377585050577	-1.8244616939257816	-1.7409397319708217	1.131523844723133	0.7441280465412097	-2.125868315097786	-2.4080717502831184	-1.3041257825350356	0.9975631807890428	1.3486770357413411	-0.7320809941882027	1.1295808525176503	3.0381400508468897	2.995847932881157	0.5001718985327196	1.9467934320889084	1.970829720289636
188	1.3153029647043868	1.517837401372602	1.4943406544150188	0.7608619909150067	1.2038140266542652	1.6945087866916253	1.2655878035063581	1.9279842328032062	0.18952065658403686	0.5426800833352173	1.2346683709443464	1.8999047231389927	0.7708077411264073	-0.8086795786467569	0.092928185824377	2.166667694343533	1.221074935691191	-0.14804282747084754	-2.0052120634950654	-0.9590657329187102	1.9903724143320924	1.9491299341582047	-0.8474898316920809	-2.062993998087339	-0.29974135680815195	2.6076521807637234	3.1922833838927738	0.7349933963338647	3.007849924122828	5.44013975677278	5.321940408621497	2.2319931927595342	4.335699547311467	3.560336819242825
192	1.3209342923192584	1.5848523338358518	1.6289007622601015	0.9975396369544159	1.3997003996795971	2.063684458290674	1.764909024550991	2.5175528462744055	0.48169711110568536	0.9144501066962097	1.7153947310053483	2.450856441032031	1.137444493283014	-0.37226322199294126	0.7389997821269723	2.714638703168169	2.0263903089860293	0.6714750511382456	-1.9337112854773455	-0.11852583259221527	2.920107595700557	3.2466216005371993	0.5582915530414381	-1.381646152822714	0.7209112029947851	4.269648541161092	5.0751991143836195	2.1823732797836164	4.854648577831081	7.860708693685113	7.7142743869564345	3.97677778193653	6.718779070103364	5.178381429949526
196	1.3566579784473265	1.6081764657426012	1.6523288446670767	1.130615231520471	1.523932810750523	2.3217039049658976	2.1675071661584298	2.9181024954553756	0.6199238880718361	1.2675495115702529	2.0989143795426695	2.947776310154016	1.7251437858894867	-0.2984164647674296	1.2876235214148957	3.185705176893391	2.7226252487107487	1.6162011582577411	-1.516866322502373	0.5518707619085096	3.65244673760463	4.369626034194805	1.8426521970002774	-0.4216707934223831	1.5328131875438982	5.599089608361216	6.656048281077173	3.454950562337269	6.314501746447553	9.803368543669285	9.715835546758935	5.443256364430927	8.572266557031424	6.534977419566442
200	1.409219619054062	1.5686991175146352	1.5741155107809894	1.2017819851097131	1.5823992450816693	2.440843099153626	2.404827111848317	3.060425273797827	0.632657407116988	1.5566217860021587	2.291489118512642	3.2853536522887756	2.3788907467862366	-0.5778210744574324	1.649306769975305	3.492641201737959	3.1404416481838178	2.5053753789589592	-0.8775762893454596	0.934804496789168	4.023601998660961	5.1228203644159755	2.800218575083448	0.5408375845605723	2.0284287878322007	6.379616244421582	7.714320640160664	4.4531764871698964	7.194142800287463	10.976539584103309	11.040858240862306	6.425291045179066	9.595964407535215	7.45206640269413
204	1.4500423633205013	1.4745614491426908	1.4397988283045546	1.2728180853179374	1.6183335740238418	2.4627056059648833	2.4588231978325954	2.9689474030876246	0.599711535847019	1.770506139099848	2.2863039912674323	3.4120485696477347	2.9404330179362277	-1.0549669239111716	1.8269840432770181	3.6134505180680767	3.2242760576859015	3.1922492900360484	-0.32251995720497195	1.0555191013389766	4.033690919228751	5.4546851974098844	3.3646294985699465	1.1163629265256318	2.235592121201986	6.621252043219469	8.22064588378588	5.159608351078465	7.511803608048679	11.370287866495419	11.640391320403317	6.860853654705598	9.803962682766905	7.901346663553214
208	1.4488874637262492	1.3647673095578339	1.3155045476125082	1.3870886529234139	1.6823712544880776	2.4672942099266866	2.376573079784642	2.7492871215072037	0.6007975324720847	1.9190515231318503	2.1528325026517785	3.3545384322349503	3.3339846050010773	-1.5116257629376622	1.8900902223550562	3.5861260800419714	3.0579233092350524	3.6231081394273605	-0.1910055721944159	1.0401166651214555	3.823685397984672	5.461486802617321	3.6342496780192257	1.007550952274904	2.2687449397980926	6.507718069812267	8.31809900091044	5.635262475091178	7.449748020436799	11.204345674836746	11.663979500885755	6.844131929283948	9.472454047129274	7.984469870435634
212	1.3891050780510743	1.2936879363776117	1.2595882383969939	1.543993588364059	1.8005348398525851	2.523809426611392	2.2528624477727623	2.536946290286721	0.6700336916219262	2.0160360285403693	1.9936344573231242	3.206630698691145	3.5914301781578524	-1.7661414101832555	1.925807113553637	3.4829194457810586	2.823044769789001	3.8413479231170804	-0.6599103791741879	1.03451931215402	3.5912675766873154	5.327625738044399	3.8116402529802933	0.20025967010958917	2.2535486164416842	6.2767829736545995	8.232723215298357	5.985880359795552	7.248804550942912	10.790818187172308	11.353301973288794	6.584393484657743	8.981592155668386	7.870005587735126
216	1.276262399312232	1.3034343686573868	1.2955349651052483	1.6997909502982842	1.9591883371479464	2.652528517701813	2.1890544836089108	2.4341359077032747	0.7819652537630322	2.0701146073528087	1.8948857736429974	3.088271610092268	3.805519571233051	-1.740098591225875	1.9954385707066309	3.379681817104941	2.713330262009363	3.9459905524762964	-1.6097308356651294	1.132152792933215	3.494121542691863	5.23693083394599	4.092524995007944	-0.9747905706590075	2.2701125087643663	6.104554160918049	8.164055803667525	6.312160476006686	7.10270784492139	10.38879487275763	10.92825123888831	6.326090796711261	8.635030724658604	7.715972880909666
220	1.135571953767478	1.3988141978233142	1.399387236876738	1.791396851785141	2.113224977879952	2.8174359727297977	2.247369045305553	2.4668121275609605	0.8730468131911239	2.0853474087517276	1.8936732959620375	3.093594304857272	4.047421922001701	-1.4704005681107155	2.114077324298088	3.33190249555504	2.848102323970732	4.032818307231443	-2.6464984350144007	1.344387289467687	3.5877404122369922	5.29860638234374	4.566316593085417	-1.9693099210609903	2.3395590723097337	6.0497937049711	8.209059694545113	6.665636045792957	7.099982243731983	10.118790600978388	10.516875240476251	6.256111129224369	8.542636849769806	7.609609107832261
224	1.0010378335474515	1.5410268267824991	1.510862585067885	1.771150822936111	2.211907381195256	2.9523763582075873	2.4255337653910085	2.587347024107225	0.8845173694213189	2.067666048551618	1.9747910449714072	3.2541265405512103	4.306895722005772	-1.072083112870948	2.258313173314421	3.3640262995663424	3.2285561480071268	4.15378188038185	-3.277975789377105	1.6211742121773753	3.8234622381951966	5.5205626348351124	5.18182419422306	-2.277770990342931	2.450173133386051	6.074910148541721	8.351336458101914	7.031703931221264	7.229131680356596	9.966784452070176	10.152044270633201	6.434809191669928	8.617212273775857	7.550243358623015
228	0.9015806890613131	1.6647164779594705	1.5633406599628563	1.6340885121096747	2.2272839489970098	3.0036003513796508	2.664315455385677	2.7168028286052097	0.8006800988962932	2.031150335905774	2.092181200467262	3.5333464056451978	4.491446960553497	-0.6784391386069301	2.3922920166651216	3.4713313491916633	3.754665603694819	4.314165104464226	-3.1532380501290493	1.900632615059152	4.097999085570295	5.835373386908945	5.792636856712888	-1.6887198643963652	2.5959663325571434	6.115662082490346	8.510535218686304	7.348698120636994	7.428773861249032	9.85771939649837	9.820581411362642	6.780803663300039	8.673515297925698	7.479689579199095
232	0.8515565373855489	1.710446472617878	1.5173565110997682	1.4246394598278138	2.170236343626515	2.9636366292515457	2.88219403492897	2.800134651743816	0.6618340594748121	1.9993518540448343	2.1995606366890748	3.852573861885735	4.4889526253852345	-0.3847860684216665	2.4964785512836674	3.6311516670102018	4.2886152159178925	4.499203670586404	-2.239395374366212	2.1551868861144623	4.322235573346437	6.157757266710237	6.250977023554959	-0.38781550428704953	2.8004252839910073	6.150280936925647	8.616562821568024	7.553845386506987	7.648097495796611	9.74597737712717	9.526199316768972	7.119969350004762	8.568801858248667	7.3418125920899255
236	0.850640115974441	1.65679513989811	1.3821740115555121	1.2226866452818483	2.088802570791344	2.879090778711219	3.018817893989546	2.8425950932259694	0.5478358254906268	2.002434487055545	2.2758786620853795	4.133146275575551	4.257966507651767	-0.21693971698348408	2.585341208606308	3.8189761542221476	4.727440822109769	4.705091941398373	-0.8402661063914104	2.408751720068999	4.472588527831334	6.439244730904335	6.493792040642105	1.142154571510563	3.111429445040514	6.227209075464332	8.665526368197332	7.631132106587736	7.883312205438346	9.668851828005488	9.32585713893006	7.278653126459593	8.303406694428979	7.137112122636042
240	0.8908189512649974	1.5336264333151604	1.2125350206279133	1.1130547495396603	2.049523348402111	2.8281662392737514	3.0628571432985234	2.9019489215062912	0.5401005135251408	2.0705268330750344	2.3336610735148104	4.331283081563341	3.8842635056655896	-0.13247927989890515	2.7045135429764473	4.020876874308711	5.045220362323078	4.952318179024918	0.5525922165270495	2.717712157063607	4.598686206651152	6.6906900236960105	6.573276503179462	2.3693041741633456	3.5718829541624046	6.438224776225514	8.72760770501569	7.632202129168042	8.175258615834066	9.734953855731662	9.318051314669983	7.175991993906288	8.026346186400463	6.940152627588883
244	0.9654386615220049	1.4088442290022143	1.0822999450061028	1.1530737847779775	2.1116003936860555	2.881661407824602	3.05123852913108	3.0458903235781767	0.6836405975247669	2.225673908336402	2.4094891487322987	4.450325954645355	3.562560072487334	-0.046918388337648644	2.9096040652247566	4.238297451762707	5.287371145250525	5.268349634220669	1.5013530216458493	3.131408206663046	4.788775908777423	6.965338689384425	6.618951303936948	2.975792638894927	4.188213814651607	6.858919603196808	8.906780220432463	7.657624702193456	8.577284791271683	10.059435819023753	9.591135000809127	6.872911912731794	7.948162058790242	6.867474538630532
248	1.0741534205973495	1.3559395040610178	1.0493916246622474	1.3521923984720288	2.30556201352716	3.0690314692259277	3.044018976155533	3.3040835773971264	0.9679229831099708	2.4742860731597665	2.5444965298306466	4.5288329010108646	3.5090927989101677	0.12734869090352735	3.2369339384370246	4.484279621246642	5.527699933401077	5.658376202602401	1.8244802905749045	3.6571569350414688	5.1152462830142	7.31741998732363	6.759878141502284	2.989079467856132	4.91706179331071	7.494834880979704	9.278688407359697	7.808010081605029	9.116108871332182	10.686652156551512	10.162960026831227	6.549811823520688	8.214644411327887	7.013040048059157
252	1.217648503090284	1.416738029717758	1.1281090946325723	1.668237562736042	2.6195952826165043	3.362274876688684	3.0874075811637853	3.6430878547242065	1.3316771950478725	2.7971341539333987	2.759672873205225	4.610803115647659	3.8478073976643707	0.44082054384514974	3.6750874426561104	4.768059718491592	5.813408360108932	6.090055927159487	1.6576232868305285	4.244604576838335	5.586002812587372	7.758623103580305	7.053992253613721	2.7176477840474123	5.672862992269194	8.261077860002159	9.83934686083919	8.127172449573635	9.764565443181315	11.542653054658873	10.945126505874512	6.422187312124159	8.81209085146987	7.3849730305185535
256	1.3872400487207612	1.5799087246106622	1.2840639320378964	2.023532147066976	2.9981961174608	3.6844177153071147	3.1865539470328494	3.983051051574012	1.6889064269340412	3.142366162949467	3.0372857970801257	4.716679084313454	4.540328014354645	0.882976112520608	4.15265511417986	5.076059805452004	6.131304248588548	6.505703432823945	1.345909234463539	4.797389972018614	6.127686961915552	8.23801896876399	7.464551906812998	2.5387098725118826	6.353019698315636	9.00722310653141	10.492938968869204	8.569889046966626	10.441044781072979	12.445999114084685	11.756163567425475	6.634064180790881	9.558243727393632	7.883396128777979
260	1.5562252959061138	1.785106296800718	1.452567096857523	2.333161825011432	3.3544196997828575	3.9381596942654764	3.3028721725997703	4.243275631681779	1.962371105961627	3.430114260596386	3.318504086699097	4.831207263192999	5.3953037125744565	1.3834125960708177	4.553099143930555	5.362172590068993	6.412743552229789	6.852871877534588	1.236509200788942	5.206364618508025	6.608870966437984	8.655877091488296	7.88935802375194	2.6723492078068	6.8668865984159515	9.572311377199425	11.083987208038572	9.014411903510329	11.031632395548684	13.171575513009618	12.380928008291942	7.182184678064236	10.185243580852115	8.335993745738307
264	1.6812403159609648	1.9511470745416006	1.5702004393034472	2.5355837281105957	3.5931005387188204	4.0402965443646615	3.374641648355459	4.390856731773039	2.1111016220198344	3.5728671460544508	3.5185084254122745	4.912035452838781	6.152658923827602	1.8388733817403478	4.755083072101015	5.554266915603289	6.570188505750735	7.110239010979036	1.488249178943643	5.388061032996795	6.891347867732855	8.902232147629006	8.217497804875372	3.0739233416195826	7.156310063413987	9.841135000177937	11.455733270332425	9.313665366499905	11.42310139633034	13.534298862618732	12.64800449992721	7.909781436023374	10.466367695132579	8.573730447103411
268	1.7155326561530104	2.013529057187446	1.6029249389232794	2.6124398642385738	3.6391775516182343	3.948190917537269	3.348780861982763	4.456909168434886	2.140768522579698	3.5075035006658895	3.5555944352978894	4.912556159014224	6.6065454316232985	2.157516950882139	4.683835494613661	5.577405438646676	6.543599589039302	7.293854218187572	2.0000276515055915	5.313601003582738	6.885799390574012	8.90166566508649	8.380738237202486	3.493969193220202	7.203940373352326	9.777264570346519	11.507701844725142	9.360728240221414	11.535255403005186	13.452936138519952	12.489730803427399	8.565649010966588	10.31613728779703	8.507349946477548
272	1.6262367922732361	1.949338192786524	1.5534027775645463	2.5859336787738796	3.4606945427304816	3.668647756850836	3.2038793482952594	4.506321895666088	2.0914711899404903	3.224222890342896	3.3827335749097363	4.804485785751919	6.693347437171967	2.29850506202215	4.347971905221157	5.383619771716504	6.329644664042377	7.4377727320759215	2.4941651758164856	5.016213881225658	6.584849340979834	8.642062165375714	8.372521379313076	3.658140173259201	7.029205781355745	9.419983840047394	11.225951166420382	9.135669685186604	11.338730783445211	12.964942899395572	11.956992119164525	8.9028653873735	9.813805555361682	8.163401583088122
276	1.4071220124004225	1.7782398417399292	1.4461259805407773	2.4957876142431754	3.0772659700901475	3.2472746290237096	2.953090660268772	4.581322181579026	2.0100831934723913	2.774428599028566	3.0065293236165185	4.587714660505757	6.495910151293495	2.286093944499774	3.8398842714636716	4.9716286533719165	5.978332981274568	7.555199604032865	2.693721526020662	4.574245918169157	6.058229431115574	8.173601129876337	8.228909471716676	3.4466192635301787	6.675874693228044	8.851179100577726	10.674064609281047	8.709099747603922	10.854829760802197	12.189774482468406	11.182911844629631	8.770452477246385	9.141816116140324	7.6602353856280265
280	1.0799213620577013	1.5423871239821285	1.3029803004746343	2.3696412980333443	2.550823205229712	2.746348612527196	2.629691355741649	4.6539440037528506	1.922535414610176	2.2507755699551555	2.485625737590365	4.285155762343863	6.1758408390522765	2.190212721063262	3.2965011513451032	4.387157429109039	5.563438878318169	7.617186527094137	2.4895141061871153	4.078927029801797	5.415947423612424	7.582797985005666	7.9942097462045	2.9640245362787643	6.197820647804155	8.154726961527993	9.955979322092572	8.203897455483439	10.142940495631771	11.266171426938952	10.318284962352156	8.159758547208648	8.480717637584828	7.1395864306437105
284	0.6839869005100375	1.278635021796171	1.1253124447067717	2.203557247320464	1.961471075827791	2.221204036826691	2.2650775852236116	4.623576629409355	1.819249386962623	1.745186562900346	1.9071417998800593	3.927096356967359	5.876019939845873	2.082245821464026	2.8356022763185758	3.703340521045472	5.144995199565067	7.565308074924092	2.0005302378690684	3.5989735035630015	4.758481013681791	6.955946427903012	7.698044280643653	2.462260716897403	5.645791993192034	7.389007072866767	9.172107673375857	7.736803512113178	9.282659507203187	10.298438999877847	9.473020529671789	7.196079235982037	7.922247389818804	6.694487554814352
288	0.2607688301178366	1.0000088189626473	0.8939533211072427	1.9654816339460222	1.3789877856724433	1.7039025978937992	1.8722783279832178	4.366216171685104	1.6618355470661705	1.3057407107765027	1.3505496944661664	3.53382753433661	5.649037823719728	1.989782328350306	2.4999132093255327	2.991395942764834	4.742862212604281	7.34726236395727	1.4958250484847573	3.15705799259377	4.138164986652968	6.347632392115859	7.352710228475986	2.172801012275435	5.057185160266503	6.58141611344944	8.3873338487581	7.370028000343884	8.355866411093407	9.33527562645511	8.689647652621295	6.084074481862089	7.446756344113787	6.333436473114834
292	-0.15750521381666252	0.6977394205596968	0.5880711063796431	1.6218680102408092	0.8430240729028493	1.200532194921218	1.4458869659158315	3.810495843803495	1.4089249336910366	0.9184847450908695	0.8575886466308783	3.1082887571059388	5.4516577583000965	1.8776757669725812	2.2414467278156223	2.2985110224866125	4.33553551532946	6.956710321028524	1.229629871124914	2.730141871235106	3.551166287039416	5.769442543722132	6.967684251359704	2.161877626682897	4.4525823480722755	5.743446335596849	7.62395999890931	7.0966076671719	7.433885078734907	8.38560483722682	7.957770327503776	5.0366659037265125	6.969851953075423	5.999196514241913
296	-0.5482221827970855	0.36193215755636293	0.21147589332116962	1.173209306615873	0.36161050109164466	0.7028619033234057	0.9782686208821599	2.9985337181679554	1.0487970087274694	0.5268712626506434	0.4239136565949736	2.6437644891747456	5.201354490499434	1.6730676847178658	1.9577500770731475	1.645463820117759	3.883860578267925	6.448283179215255	1.2858271566351902	2.274164194087389	2.9629330560263933	5.203065382218747	6.565714342706612	2.296902173918897	3.8411140344915724	4.894688117067149	6.879327756679219	6.863440973119475	6.572332365608604	7.455488186132756	7.25561235503339	4.213090885969414	6.4207272367494275	5.625330910785197
300	-0.8913512207414979	0.005754496422037407	-0.19194373439965073	0.6760559064962479	-0.07277359795078199	0.20747901446887979	0.48034110544046876	2.092584127864926	0.6207038148467529	0.07985910008056739	0.016208320815172286	2.1410212462729077	4.852231490282252	1.3192440238069854	1.5622178276674124	1.0426239941022466	3.364486209004268	5.917520508130986	1.5264543256367349	1.7618513062817336	2.3504555166029015	4.627926814792659	6.185031398416279	2.337328189670713	3.2328390993512937	4.079133023453621	6.153104766569396	6.614739878166331	5.810851559273102	6.577681047998665	6.588530523831868	3.678891411076072	5.801403031007162	5.192074285749915
304	-1.1627911299911755	-0.32422917999423573	-0.5462587461984965	0.23303541482263762	-0.4621914315475411	-0.26924273303719215	-0.007167013343955087	1.3182035651304131	0.2092073256455846	-0.4207900155887609	-0.3959872712628015	1.6245061118119075	4.440408218616928	0.8261108377580206	1.0472508642458993	0.5098693953992575	2.795175068473867	5.458715901897999	1.6691282945453165	1.2117648094100704	1.7348713831015603	4.047982682498332	5.866915688007286	2.088629002066196	2.6493878297672375	3.3624124442084784	5.467690454029881	6.329507334941161	5.173408018402023	5.813957676513795	6.000718101609897	3.398696175577442	5.1910085547040214	4.746950137551236
308	-1.3371902670478082	-0.5610253200671593	-0.7734438161395882	-0.049164380754081936	-0.7913960198448736	-0.6887726766362603	-0.4201115657213179	0.8691897966374464	-0.08847489185645253	-0.904685852627692	-0.8125621655929784	1.147133824313238	4.0689287082938375	0.28908502982585554	0.5022866713240112	0.08411122092230221	2.2392775955884328	5.124360548433083	1.456201549668171	0.6914105993934246	1.18439352213329	3.5037212283365715	5.6382031298383914	1.5275092086373065	2.1262686198910874	2.811400883252237	4.871085154632844	6.034747585319147	4.669273841513219	5.230761514808734	5.555246339123765	3.2654981530713276	4.699099052009206	4.3799548038525655
312	-1.401015039721444	-0.6486735923602119	-0.8300091603304232	-0.11249252380341272	-1.0329833004620361	-1.0029181216667886	-0.6930960995341277	0.825498519243789	-0.20656342752279663	-1.260761853849658	-1.1948406666152753	0.7791840414401896	3.8443105123735166	-0.14122809434043193	0.07370950263010165	-0.19180242668840625	1.7876291229891117	4.912753569597222	0.8171474912993276	0.29240107462491743	0.7867612818881304	3.063976995361736	5.5026545385668495	0.8206233361506289	1.7069508986292061	2.4698624548542845	4.423009861269497	5.790512547178457	4.298340786572049	4.867374407877077	5.2981834277854825	3.1551775852651436	4.402128685327344	4.171653737026181
316	-1.3674012388038084	-0.5748039469511643	-0.7309207301759343	0.016276257071528664	-1.167117711935208	-1.17590641678515	-0.7867834548159309	1.1255422802164454	-0.1456434872049555	-1.397134896565652	-1.4829546175709019	0.5844481572654076	3.805563917088652	-0.3267853251789747	-0.1147167009199133	-0.29354229495322814	1.5261071881864394	4.789034354516517	-0.07160162162584484	0.0872126666489727	0.6057664140665951	2.8007030416349594	5.447423444345943	0.23324669838667175	1.428555008142513	2.3421831071847006	4.171907414393704	5.656898961090017	4.0583352940139426	4.717970359334608	5.230914102698973	2.990252010425193	4.30646227703006	4.147810448664748
320	-1.283848997689379	-0.3857552995479121	-0.5472847805510695	0.2276111537431929	-1.2035397260797014	-1.205741283233567	-0.7075813394801609	1.602050061949475	0.020939735642851967	-1.3005657163208795	-1.6302581984367892	0.5928507432274694	3.8894052407295123	-0.2128955418456844	-0.037441052401903686	-0.2386254960234288	1.5016012153860674	4.719960677627922	-0.8639954902769645	0.08762723185350006	0.6439057572320213	2.7559962203061827	5.456715570024387	-0.011260239378990787	1.3039157357673774	2.3897652565701826	4.130749215187316	5.661606774341071	3.947958936260389	4.734583842721618	5.304215417821522	2.7842037607470504	4.356198299853707	4.2665772330328595
324	-1.220420715111788	-0.17212711231165953	-0.3765573492079755	0.37466311360179605	-1.1892425983921044	-1.1316118211785993	-0.5081415163562262	2.0630781598455497	0.17604927674191204	-1.0578646633142559	-1.6331875283015247	0.7837015966656002	3.9598822493711547	0.1381321396916475	0.20796723611300236	-0.08936540759889033	1.7021685795723716	4.695776450699236	-1.2203894822780046	0.23179614485391895	0.835365233696417	2.9189686701510644	5.521252618201291	0.16087423224363476	1.31391203071742	2.5444569523466156	4.265967358309058	5.7864050719080655	3.967808713431953	4.850909697683051	5.439311013793915	2.63858508397542	4.474603641656813	4.444304931863925
328	-1.2410415379662196	-0.030383359564126106	-0.3002292208244068	0.3407244673709546	-1.1938352554697425	-1.022080538076538	-0.268903821027855	2.3722195565412387	0.21010743028522644	-0.8235523679921413	-1.5400330981473127	1.0865651341661715	3.8839678666282498	0.5670533761966543	0.44329297430651304	0.0680635793278775	2.056679958872934	4.72405289410929	-0.98751288403097	0.407992212934381	1.0723640891657098	3.2214262404170957	5.634079918941819	0.651848016523645	1.4131741488063458	2.730078690311804	4.503017414168084	5.9745368806676975	4.114372243030178	5.009252535570626	5.560646519926782	2.6898953846729006	4.6092414739584875	4.599957454511713
332	-1.3750616277310008	-0.02198241086714627	-0.35251212031055396	0.09124854184000837	-1.281613823515945	-0.9519262885855393	-0.0732673628268547	2.484557622358687	0.06730465573961035	-0.7519850711910198	-1.4360980951290836	1.3977078164097867	3.605010261970612	0.8819270111705652	0.4948217856311882	0.15540555080278334	2.4507958827130922	4.801636683738849	-0.2848708324392633	0.5002642857318882	1.2469836441981654	3.552101126285713	5.775353417120295	1.2545258967197115	1.5423374137085115	2.8776202129190334	4.742450702137791	6.150622829167215	4.364836681789905	5.168933378520743	5.617148862008248	3.01913499069895	4.745316970288513	4.6869311214369
336	-1.6034202535201123	-0.15091083905742517	-0.5138025866887656	-0.31433194796355973	-1.4844536743832182	-0.9778015588868793	0.014260889926310274	2.4287300048543745	-0.23464116394883253	-0.9281905866076549	-1.4117338621736297	1.6079465110236384	3.1755652347498025	0.937756953256018	0.2758015387247496	0.12924899128229736	2.75565504332035	4.8882341261471645	0.5485445247152169	0.4344881464002	1.2886257139096187	3.7871038818111624	5.90007208288207	1.7532882646163415	1.6426074463380445	2.9327537939413335	4.884776103084606	6.245183452097418	4.664258468295901	5.2980651721705465	5.586397633753368	3.5740656762485683	4.883989798612714	4.697868335306992
340	-1.866839284951906	-0.36847397592020226	-0.7282305937500786	-0.7544061522510388	-1.7883173182159509	-1.1219998569770981	-0.03872358789203947	2.2594177665886095	-0.6186260565397734	-1.3329849209509428	-1.5278807839918982	1.634413715050748	2.7346711089708635	0.6909885985094804	-0.17754612818237725	-0.009390637254847744	2.862739555760559	4.912196623797847	1.1172322006628415	0.20230808803025208	1.180157896876955	3.82736276613945	5.944923862706575	2.0035190531691396	1.666344519222755	2.8585328983615117	4.858005988253513	6.214780314967147	4.925043093644563	5.3599605424976735	5.4654521804149265	4.156615723605896	5.007965552083886	4.646518218706902
344	-2.0947563595336365	-0.6022469386154284	-0.9342979765191456	-1.1042311163679681	-2.142267221764147	-1.3714839185420358	-0.23036581219685515	2.014879698434646	-0.9878344510887215	-1.8603435707806841	-1.7960916712236663	1.444827791380847	2.4408585963612284	0.20752464182434013	-0.7355453353430913	-0.2268856758111409	2.714113943876891	4.812084185848702	1.1607444257040456	-0.1486804630578836	0.9470702981879484	3.6289653686453605	5.85620640229824	1.9621365020803834	1.5801881511846638	2.6371083193001934	4.6380791547023295	6.052673801399376	5.044928061145837	5.308888898797272	5.25959538085532	4.49465798196873	5.065530287351146	4.545099246947579
348	-2.2392821255414246	-0.792371330644871	-1.0911841364967338	-1.2899402347421765	-2.483190053392413	-1.689196343925497	-0.5297785984015123	1.707402821044752	-1.2683631149693828	-2.373687499729061	-2.179355377416968	1.0670303079368058	2.396474116950583	-0.3732341518515586	-1.2490075795110487	-0.47873285291919965	2.3199417532522073	4.586027610644294	0.6690483076369873	-0.5482281432615479	0.6328273399588136	3.2166616835443596	5.623001084436099	1.667816634735701	1.366135951407711	2.275219434715828	4.25630711434541	5.79012917010423	4.9418887967270315	5.105834948046506	4.980728136838933	4.377334583674855	4.990360724247474	4.396581638679971
352	-2.293413394859712	-0.9130809284045311	-1.1872084110803456	-1.3106391396810666	-2.760111801808243	-2.0274345823598576	-0.8836130477530698	1.349313970973803	-1.4330401384412477	-2.7672612597217108	-2.6079118185957095	0.5826669916700816	2.6055023604413923	-0.8977727867348064	-1.6223618943261713	-0.7251256089976335	1.7590229466849927	4.315588940215025	-0.129439532430002	-0.9372937059579932	0.2795123450851622	2.6775200299372997	5.2952580318272915	1.2057044475631886	1.0262467835265296	1.8128861143117576	3.7916936778658585	5.489118085353955	4.592631328431576	4.747649180823396	4.656071174310224	3.7809288406280226	4.746241557535935	4.205565918794808
356	-2.2844023646853193	-0.9697498654677241	-1.2293001382308493	-1.2217040031105622	-2.9448976442372117	-2.335114950006501	-1.2227143018369544	0.9889633034532724	-1.4973940811498634	-2.9998774452763795	-2.9998729153233876	0.10651003542473349	2.9779815598641317	-1.252267953572031	-1.8453878117699818	-0.932766077547641	1.1595748633672158	4.1382503405040705	-0.8943639971087082	-1.2838643756876922	-0.07622332851715695	2.135494465204708	4.970211016504158	0.6821438056889463	0.5903258904811586	1.3262019123926287	3.3480756198275614	5.224830614249977	4.053974618213184	4.289037693638994	4.336120594521098	2.9115405009193305	4.367041099966713	3.9957902330604034
360	-2.248911136671288	-0.9794661377973188	-1.2254239289816025	-1.0956313582414872	-3.02754902075278	-2.559956305716297	-1.4724900685326863	0.7197418194718891	-1.4967093429924123	-3.090054027385131	-3.279442302053456	-0.24489110646407633	3.3687481795135272	-1.3927476370933916	-1.971897120265579	-1.068719265146897	0.6629959924171299	4.171502102810255	-1.348183509283847	-1.5760935505175115	-0.39587086339184907	1.7134479241026097	4.747168528969142	0.20694741554463142	0.12031526833198297	0.9140044427683494	3.0209014339470537	5.060262190440619	3.452669850215342	3.8373203180704865	4.08810328405109	2.124863619207989	3.9589939017476654	3.8147942923552645
364	-2.2058386746981267	-0.9492637491101449	-1.1730715006775003	-0.9840712522456835	-3.002971403169569	-2.650066130623069	-1.568835969778694	0.6470276100988952	-1.460034009108263	-3.081657878724689	-3.3891942415499186	-0.3867286135923144	3.633344402676663	-1.344490405502888	-2.0628085084332666	-1.0962778302170888	0.38115644358723305	4.434015262853039	-1.3974051440243813	-1.8013229324638156	-0.6307689531613372	1.4963744840989097	4.676989543550623	-0.11802379012112028	-0.29501289054773605	0.6697351915616446	2.8670229839418826	5.0220956675572435	2.9451658651380237	3.5165619761374036	3.973360051613738	1.7548736289540745	3.6582929995680193	3.717462530287161
368	-2.144043917011126	-0.8678699709915172	-1.0618257495774486	-0.9013056136263691	-2.8623590397092733	-2.561974518983296	-1.4786456786016784	0.8273156860444685	-1.3974281514172067	-3.007074348486969	-3.2982282555277544	-0.29203537032782134	3.677026024117891	-1.1782864302450224	-2.1345577186097833	-0.9832658742875119	0.3612070372521787	4.812559592494231	-1.1472994060160062	-1.931102270972824	-0.726906834197604	1.5067967138394418	4.734279143778295	-0.22393615487303872	-0.5611657486098955	0.646201191701171	2.886970274312053	5.086871611149804	2.6601176194740344	3.4133460435519294	4.015887250297871	1.9368908356402161	3.5630986600561645	3.7346517945412474
372	-2.033151383035121	-0.7172778826723848	-0.8871961213600512	-0.8338947871135206	-2.598351472016453	-2.277400726290521	-1.2168600528511857	1.2169797389775925	-1.3057175841743882	-2.872632257838243	-3.0091681404433523	-0.0007275407533419156	3.480342617784635	-0.9817407106408498	-2.147340053858883	-0.7225329261657394	0.5710726365930008	5.102998243799518	-0.8206915834687244	-1.9264975737569718	-0.6465685947306389	1.6997233586312794	4.827721583575335	-0.11365907610568902	-0.6117403491787707	0.8286643603383961	3.0251994056616662	5.184781538270769	2.6473100118556134	3.530435553220296	4.178876389443248	2.5200157101903065	3.676451912180864	3.8453659914205347
376	-1.848789925675882	-0.4940409945889243	-0.6640894992274184	-0.7628312687687688	-2.220379823800818	-1.820868964366371	-0.8495059587965184	1.6684138732748426	-1.183338043086272	-2.6697964600868045	-2.562056058137143	0.39334320922724075	3.1029562871792162	-0.8280718901708246	-2.0370345064231445	-0.3499337425933699	0.9130318141773602	5.111030088872012	-0.6277571304684408	-1.7618160203321156	-0.39427542586917425	1.979842061766211	4.8458037254059025	0.11962287097769778	-0.4402780521720962	1.1329402894979992	3.1898617663909534	5.223995672388071	2.8557355331799754	3.7756612205546523	4.367702473103471	3.128281585424602	3.896692504581353	3.975111236072818
380	-1.5952393968360552	-0.223871036798786	-0.4289315928120103	-0.6815489513355898	-1.7689716771286246	-1.2663587299799366	-0.4760986554523244	1.9874485680946625	-1.042238113632945	-2.400295728345353	-2.0311338850238574	0.7751013617019622	2.6682856015548526	-0.7545950989744997	-1.7684314206297445	0.05592934773152604	1.2621704308114339	4.762718188658886	-0.6650681478875148	-1.4511991702633815	-0.02913654960786238	2.2358486595924516	4.714218604583338	0.31413733879885947	-0.11292611034015601	1.4341084920915044	3.2854518807431172	5.127644525933337	3.1518974224621457	3.9960508245667032	4.4636759645298625	3.346697322025255	4.062697400326171	4.026879777278174
384	-1.309922572643386	0.04177620996418158	-0.227172403954109	-0.5987332448147904	-1.3152972426585028	-0.7227963190903369	-0.1949576283539478	2.0270185419403757	-0.9070447660433671	-2.093106502970419	-1.50991630172982	1.0491200659013362	2.330223554450003	-0.7549226861013582	-1.372570630422837	0.3990263034759691	1.5141072235026862	4.158495415678787	-0.8882341958508385	-1.0575462553026698	0.3491815021758813	2.378748172476294	4.430820930738301	0.3075493566377581	0.24948708650065224	1.615115519260543	3.24517702237007	4.865912901990874	3.3725478563990756	4.042531956956674	4.373535145207885	2.933560602410976	4.029603947956111	3.927680005647526
388	-1.0464968654913944	0.24754224655118626	-0.09298934764034272	-0.5268531428386775	-0.9402612423999334	-0.29921546502862645	-0.06586558355152841	1.7665846303206862	-0.8016188124444908	-1.7980560018919245	-1.0851210328361995	1.1727766961051855	2.223584169495853	-0.7846097330311053	-0.9418144202295691	0.6074637159269338	1.6225433308644095	3.5326533228374997	-1.1613466710333356	-0.6742748601102112	0.6394345744201287	2.3705162942164377	4.060312260866861	0.021901516188519408	0.5154710399011059	1.614013071753561	3.051321975633555	4.467764366313974	3.3870844755487757	3.834717740867585	4.070994366857958	1.9519439886402357	3.7365353013113944	3.6652893927540906
392	-0.8479870536375419	0.361352621596675	-0.03394553801787623	-0.46925818801659197	-0.7017551642820105	-0.06395196898526531	-0.08788063354954226	1.3301726546082506	-0.7340126019065619	-1.559920783872858	-0.8086561540214193	1.1673779458136404	2.407899373650863	-0.7806316594441947	-0.5848610982433688	0.6690366847312854	1.6104073483816221	3.1347184102069345	-1.3444892134099955	-0.38708430430911356	0.7843853215440926	2.233119720542945	3.6947040464579017	-0.48327922699028647	0.5946384057290596	1.448105689207349	2.7376625468752978	4.006509293931167	3.1444961945297822	3.395566454897478	3.6101786999153265	0.748255072135038	3.2318603910865527	3.294691315915713
396	-0.7252381425666853	0.390641718116584	-0.02917786121452287	-0.41519147052843297	-0.6063736661860336	-0.017323920459520012	-0.20381897636452642	0.9291588044549418	-0.6894797665354455	-1.3904064858618146	-0.6795951706894301	1.1019413443400579	2.830468170649165	-0.6868696195426763	-0.3687557270753442	0.6387718303765445	1.550234433074865	3.0977864187230306	-1.3634535039810116	-0.23571617841812612	0.7985088805065419	2.034660334218445	3.404036990154412	-1.0251442168102582	0.47384643435052776	1.2032939165252683	2.374507182801943	3.5663001447282574	2.6869013241641024	2.8395216393305307	3.1031501214835364	-0.21597787683317202	2.6446657114014744	2.9087865279190814
400	-0.6544433219599026	0.37717142605922355	-0.0424346587480626	-0.3467001608201466	-0.6025230869339756	-0.09289342141539952	-0.3299764982475474	0.757752178186347	-0.6375524385568082	-1.2576578823761717	-0.645905135431319	1.0571258041394855	3.3281390582934236	-0.47994696972788664	-0.2836727492799805	0.6118146165659734	1.5236738881742724	3.367177001081215	-1.230281230681375	-0.198348864412204	0.760788856016052	1.858812208250981	3.206548682700141	-1.383867021881438	0.21957103852625623	0.9934148763370834	2.0428669401089805	3.2071382918447706	2.1255729144790254	2.3208270014341763	2.6725671223875485	-0.5872020706610119	2.122086281187047	2.591286891116931
404	-0.5945385679493128	0.37333661223566883	-0.04197066639198004	-0.2523377829379663	-0.6006851777169667	-0.18742220056421136	-0.3943282355843119	0.8953117109582441	-0.5492426739177084	-1.100738284192949	-0.6258267744476187	1.0884671183761523	3.6782116797087694	-0.18041275396096734	-0.24959734019204713	0.6765003783312158	1.5824102123362802	3.7309200669505715	-1.0085781787203696	-0.20510283060742454	0.7765882591667751	1.773255820565684	3.07410811601792	-1.410926100029673	-0.05188433440341131	0.9116162038675187	1.810264582831865	2.9483296796747136	1.5959464271305956	1.9707713077379039	2.4055039821926774	-0.2782850258476908	1.7689757302444589	2.3815245568229217
408	-0.5125783072881701	0.4149174679770923	-0.015288899614059132	-0.13683025504375038	-0.514093159331312	-0.2069371039411113	-0.3658929159940101	1.2695658174886242	-0.41382428899234924	-0.8643645026318374	-0.5417069779070711	1.2048659294226056	3.6926133539430386	0.15634250601396452	-0.1627037223045904	0.8708390571542175	1.7268322662624211	3.9372234245077085	-0.7578442673622925	-0.17476977363807156	0.9263077354885988	1.8074799730442788	2.9631352349809608	-1.1031974526208832	-0.22349242809612863	0.995298740735098	1.7138088898304582	2.7746839453261396	1.210069176479781	1.8502740813270422	2.326918357696263	0.5052809702513877	1.6138715703272215	2.2661745491032885
412	-0.4026745249595256	0.504942773497786	0.02895812310417773	-0.02008220175798834	-0.30038776917910903	-0.10606704625530063	-0.26118078761916164	1.6966004328808024	-0.24583816466252142	-0.533308564270133	-0.3503875723575439	1.372089263312846	3.3140380298866425	0.4647584545799241	0.046071480843334546	1.167010781202751	1.9120514344578126	3.8341743849271843	-0.49826905005539185	-0.054024245453573434	1.2275541989804966	1.9483042906208605	2.8491415905544115	-0.5997576698419587	-0.22283481005198205	1.2194848029818879	1.7550086930787947	2.6588258676157235	1.0249385807863023	1.9381813954056346	2.4033474861501483	1.3815114463258618	1.6156046349743352	2.2017512265883292
416	-0.28848737405420166	0.6167318805382386	0.07023152691275507	0.07240619492131409	0.015923406888574958	0.09724631135945332	-0.12840901282792092	1.9736802528141777	-0.07953882197325604	-0.14678460322513814	-0.05764077961793118	1.5363308152510815	2.6591534547425817	0.6946302038774834	0.3739480068779088	1.4906556568657288	2.0753986783080958	3.4508654984132567	-0.21558867340493257	0.16089391667752215	1.6288180310133622	2.151762003234315	2.740114920373745	-0.10704273703490741	-0.04495143506502683	1.5173884591892872	1.904713268239462	2.5833146506890614	1.0346708271606564	2.154227012917423	2.568717711639001	1.9783114144922433	1.6964225726212416	2.149154896078422
420	-0.20644907601208376	0.7152147275033385	0.09199061966558841	0.12450059471883501	0.35434296637717483	0.3395841411123132	-0.017831863790432858	1.9808349559363725	0.0490206739558913	0.21842144374537573	0.29092538283329406	1.6561449724345416	1.9857610413960423	0.8292636850400995	0.752716956622369	1.7643694833078465	2.17142891335617	2.9766962453074406	0.1075985950495181	0.4317785490578742	2.0388498254798404	2.365921014534436	2.6636352471812175	0.2086925054287982	0.2569984191127991	1.8176346971397344	2.116854185481873	2.5495109493736505	1.1869591444565244	2.40297698367916	2.7580051352486206	2.0937228149958407	1.7824274256526964	2.098508352703485
424	-0.18293414963789	0.7803219537107237	0.09263930446362183	0.13779182697316164	0.6172136648807417	0.5502635822708437	0.04388806212788653	1.7321623520033584	0.11987062513366177	0.48647633072099933	0.6357737167519119	1.7244583324763003	1.5852426250488556	0.8856843091537852	1.0909762354962822	1.9493960092918101	2.19521378916587	2.6502025060499705	0.45228087787879145	0.7066488248150044	2.37424229976123	2.553122752419341	2.6387598447934604	0.2977752380005549	0.6037701949134625	2.0768301434534076	2.3446488321235437	2.568372481537333	1.4120482170693813	2.615902178835545	2.9316794798266144	1.757212157581288	1.832031841421012	2.070725912588082
428	-0.2182011002753586	0.818565664608888	0.08588165023101514	0.12979787555348693	0.7378436904398276	0.6892044526819231	0.0628352610670566	1.3575944866236729	0.13810631597936376	0.6221642478493523	0.9329745149898943	1.770515199005831	1.6448044735389182	0.8979276992061865	1.3261154856579227	2.0634417481777616	2.1838421766457525	2.623134367995753	0.7522858362277971	0.9497914290290091	2.5997812682317156	2.7025833061649145	2.6534516744377634	0.23398180246883069	0.9260085201725818	2.2929415644928617	2.554195397604011	2.641975157743106	1.649918075210578	2.7730839182458284	3.0817475241102046	1.1812143295982869	1.8420079900011712	2.0966980404369373
432	-0.28412747311382386	0.8575305917070137	0.09270591265399016	0.12486292390292922	0.7167972308181296	0.7673208694158504	0.07092400622342662	1.0314841244404307	0.1311076131133134	0.6527113898010367	1.1750482291118407	1.8447301341211906	2.1477255767003167	0.8973548389666967	1.4582378827471363	2.1693580095833225	2.199450487305808	2.879157535913199	0.9208091474173068	1.1585454911545436	2.7431931426407536	2.8315670418774697	2.6671080521956427	0.15329328140656603	1.1887412041215197	2.497465604198656	2.7330329349179925	2.750030510634965	1.8667629910067862	2.899697058032362	3.2227847494773862	0.6442145092911783	1.836900706421842	2.191185230444962
436	-0.33580401455020187	0.9285332537096035	0.13129726019134869	0.14376261794033324	0.6276067479500522	0.840048311019951	0.10953675927878607	0.8878373481269259	0.13588297332788796	0.6592382175967529	1.392975565254437	1.9953825423406835	2.8690061496778423	0.9012828446521224	1.5473279913936653	2.3424737394318917	2.302644723800639	3.2483696855547586	0.8926822520606166	1.35835611477269	2.8781309055141797	2.975156061290333	2.6355349951006746	0.1613799031474713	1.3947280610156985	2.7323400905288726	2.8896548675059583	2.8519198822496676	2.0556735940530872	3.0420463008370273	3.3750224028253233	0.36715173628616576	1.849334831337043	2.3386774004064423
440	-0.33005997455234454	1.047923085427979	0.20900617487113674	0.1957149500673907	0.5871461615043538	0.9784725283714217	0.21186211651717782	0.9630296206002001	0.18141998304816126	0.7412847261786679	1.6386856991403043	2.248183244751129	3.474297991563934	0.9134283638780497	1.6771290259933174	2.6346974306344055	2.52857374506555	3.5072195441388963	0.6568254811869815	1.5810731609480544	3.084714404901054	3.1689383903604056	2.540574544214328	0.2679189436823954	1.5678006371015594	3.0235145015674094	3.043293468421159	2.9041244910351	2.223146671404306	3.2358450807890167	3.548604956250595	0.4396933306083259	1.901264901129333	2.498731606850489
444	-0.24038752852783019	1.2088795869823572	0.32094052352937896	0.2759092443175868	0.7040582877503168	1.2342588870357734	0.3929612626644844	1.1930863827146752	0.2750016443938834	0.9718683933516271	1.957925553146923	2.5981957846846933	3.6773626711507323	0.933013973264636	1.9081797551615574	3.0540909690042493	2.8763785289622077	3.505869379728853	0.26729106835591665	1.8421552134733947	3.4093012723676837	3.432657471573241	2.405641072875315	0.3897789706879608	1.7304762558162092	3.3648242865485805	3.2090797343294932	2.880601160406014	2.3725614487828075	3.482862940577954	3.7356676961042345	0.812161324357876	1.991882557608309	2.6256725721824594
448	-0.06374128146767744	1.3879501784568222	0.4545571196523719	0.36876398231862473	1.0291343901400278	1.6160317618577171	0.6494606716924838	1.4592591487281394	0.39925110239317196	1.3647886480206095	2.367258542759819	3.0158319397124163	3.377424946840864	0.9643684005231201	2.246904367496057	3.5677604585215676	3.3143777763610043	3.247612229730865	-0.17308506325890982	2.1313743537496563	3.8445470236033885	3.7618219757470635	2.285446399640569	0.41459441080322534	1.890150780673995	3.7202248479376574	3.3867843065584444	2.78519701254508	2.4940757688495485	3.7473354244988486	3.9124162098334025	1.3407326902871555	2.0975534862965937	2.6904084614538317
452	0.18021483673849034	1.559331055518939	0.5955103620752773	0.4538564968571285	1.5301806888093947	2.0858590550211877	0.9635270809642396	1.6489410358758865	0.5203802572463468	1.868690843632534	2.8444371151634575	3.459110728113509	2.7099990776305662	1.0171165440628869	2.6457405023533505	4.120863904085565	3.7941160106234144	2.879009239557372	-0.5498775229876083	2.4207839904701394	4.336335648078904	4.128821839398725	2.235075229723799	0.2814072065401102	2.0392167516721513	4.0407347577119435	3.558866968706375	2.6481609277622784	2.566140883642577	3.972722043497673	4.048949708252726	1.8525437069850692	2.1827027742591025	2.691235535502647
456	0.456301002542485	1.707953925588954	0.73190980964884	0.5124139772829392	2.1045277065548644	2.5765595371044316	1.3083302941668764	1.702278132909192	0.6034395083450835	2.3904313980785106	3.3376698409689456	3.886662234983874	1.9858137319018907	1.097168800444942	3.0319003982289763	4.661119926128532	4.2670087706599436	2.6054117613815624	-0.7774340490740024	2.684975617305561	4.813813674217139	4.494658935643044	2.2802188338883864	0.026916041902296517	2.1690387671067115	4.289429176944891	3.7015337850576016	2.5106253560575205	2.5719706947240497	4.1127157107467625	4.124667634086948	2.202237838907047	2.2181959096217616	2.6510317258659923
460	0.7249879818731946	1.8354434920700522	0.8588932134877836	0.5357846008124961	2.6250226431374695	3.0220169944758535	1.6563333231115565	1.6285127360235934	0.6305026992137978	2.837442867744593	3.790554752316366	4.26918314809586	1.5459204873154928	1.2003201215956427	3.348001471649648	5.158714281409092	4.698556888161698	2.580342524689485	-0.8234499672126757	2.920895807521077	5.227175699388099	4.827089297505154	2.4068851410179257	-0.22956493438935263	2.288232320730337	4.463498581107459	3.8039827250760427	2.40665721285688	2.522321456262976	4.162168969136309	4.143517483740284	2.3116483629990983	2.2007124368418065	2.6057259970680247
464	0.9550521349636031	1.9575798462080987	0.9829317902543893	0.534391819081546	2.9984540863627367	3.385695448910437	1.988466138587699	1.4923983774652716	0.6133559926759733	3.1588220516560885	4.170061100921803	4.59656046660525	1.6093594987291162	1.3125909533739537	3.581095209617051	5.61357162965644	5.075743185579756	2.832334988118817	-0.7089619022589629	3.1530744949841982	5.572204098938129	5.1157784332814105	2.5749950343923174	-0.3498153975714672	2.4294953284913583	4.600704181499573	3.8835925957856916	2.3535447061245214	2.46674703928903	4.170376290282579	4.141252030407381	2.192044252583296	2.164351457853409	2.593472951063194
468	1.1343804569214262	2.095441812946823	1.1227385969425792	0.540183721609037	3.208440295701957	3.675346365232361	2.301718706041746	1.3807580436178029	0.5919739589050371	3.365962973679495	4.4836435204792044	4.880248057441742	2.182441944334224	1.4168546164026443	3.7654340172113328	6.050478919965708	5.406986699758095	3.2666566289442573	-0.4957860993742523	3.4205026540227523	5.88939999047127	5.377378450168542	2.745756142359624	-0.2544412904514238	2.6387267046110487	4.765439498313881	3.9861986536473637	2.3540501535109404	2.4838907655946234	4.227153767403634	4.179413784919186	1.9422906588153648	2.1746246759823786	2.6484000615965138
472	1.2751455274812507	2.2658228817000015	1.3048576083617403	0.5976272210291307	3.3186964904919463	3.935575475293119	2.610587351883632	1.3698871101125345	0.617560027470657	3.5201964289480516	4.773342597353986	5.148038851138193	3.0632467192557917	1.5029942951402406	3.956177701498428	6.502096636568403	5.713083729624922	3.7269787694293943	-0.2652330987909526	3.7482540512818074	6.23474787091649	5.643476948794803	2.9003891871657466	0.030413227079018616	2.946328632545366	5.015542494508603	4.1641278161772615	2.402417653694	2.646978133194342	4.421133030219548	4.321436871108464	1.7187170938967404	2.299002880014057	2.7936899591483932
476	1.4081739151687627	2.4739766058448738	1.5518810709872723	0.7426265459384638	3.4334533127882727	4.221571434806645	2.9378316328262186	1.5036122760957118	0.7250181418233748	3.692773332809212	5.0883531441966	5.430664048788891	3.9327430625805437	1.5700535734590915	4.188636769209865	6.985798341279791	6.012315258105275	4.077511777119823	-0.09419234073222657	4.1186685458147405	6.637071592740075	5.936131462368666	3.038645021396152	0.38101696871881074	3.3345947181434576	5.3637933595656335	4.4413852579516195	2.4880132612354604	2.977801553837365	4.788133609126945	4.598425376726274	1.6776305394731914	2.5665588314106866	3.032922260256426
480	1.5662873943838223	2.7100574901822987	1.8660228205298341	0.9781686042884794	3.6352636722335845	4.566045749580241	3.2958030617472565	1.7839153960011125	0.908837554544395	3.9188532730343133	5.449742780277587	5.743638500971119	4.487867820853061	1.618379588809492	4.448348510955279	7.484878997978718	6.305742247873477	4.259163845752993	-0.03074717141375536	4.462620723901423	7.0669832051190085	6.245036586253062	3.1623887935904427	0.6391501410559788	3.724333276882363	5.756368622551527	4.786931979491307	2.5946407252606853	3.4165356072950974	5.277660833385393	4.982455241021584	1.9071072291861768	2.9389014169879464	3.341299763826602
484	1.7618808701854676	2.9483067914911776	2.215546602377474	1.259424206414986	3.9307763477265008	4.953109251868381	3.665534010215631	2.171537155390809	1.1156277628388283	4.167831410375674	5.824704632358244	6.06973789589975	4.556959617553621	1.6376093584676676	4.667317378658051	7.941218356110019	6.567472918141625	4.292052258145543	-0.0769344640815961	4.677662360779149	7.434395771330053	6.517941935295488	3.2565846360955413	0.6944987160314409	3.9919488329236175	6.080952152158058	5.111814485995276	2.6963777474037265	3.8263168238355725	5.7563600394827015	5.381328092339967	2.37275647518002	3.309838763463529	3.659917345343337
488	1.9693763206351025	3.149181834853035	2.533846848766226	1.5000489912307458	4.234186161795059	5.312257276474314	3.9863645929779996	2.5931711131428137	1.2602038351666798	4.346806038372294	6.1265539968305225	6.352230055983645	4.152978886609463	1.6004712541226507	4.749213683535511	8.265424707525364	6.746177656307382	4.235399712359622	-0.1858085687237648	4.667591560023325	7.620271186662764	6.6731972525914935	3.2859244263657037	0.54168093067737	4.014872540827777	6.206785186355741	5.2974114284283	2.7569723059665603	4.039721001916163	6.05370615384428	5.663758263593452	2.9113755152630088	3.5399715811045454	3.902700891178122
492	2.1261885112487113	3.2664756692431762	2.7376999785921226	1.60399746489866	4.401962269159551	5.5396847585050955	4.169289578401778	2.9564511701327243	1.2625653711867184	4.340220440396977	6.246360763038049	6.508572085160453	3.4558174522886937	1.4727632962236468	4.614495742591462	8.366456010676046	6.78190468029555	4.138246048969657	-0.27453553607291664	4.38943289602224	7.531191806852267	6.633781893193937	3.2140216746246333	0.28370243239300363	3.7300624753237086	6.043714508056517	5.246780859098123	2.7394919326281255	3.931874026861913	6.034711345695215	5.710854992753108	3.291425696646004	3.5163776785762235	3.9818355936608207
496	2.155402416509426	3.2591545499531884	2.758620016762571	1.5085179767669197	4.3037662397443865	5.540455327350807	4.13229464441315	3.1682617584346238	1.0873723002636821	4.068679322460726	6.10422657379119	6.462836249246872	2.7391693522914156	1.2374860017050548	4.244623650324615	8.192381838141907	6.634040815770188	4.015832414024816	-0.2564455562315808	3.8856887719278603	7.151317101543048	6.368759616031023	3.0338101310427583	0.07984242568123356	3.177406064594398	5.593142018501965	4.935504900869126	2.6250121527200156	3.4869172485053403	5.667337403293888	5.473093019018682	3.3190264618045897	3.210335723401029	3.845611562556389
500	2.0031599947899195	3.107611409924421	2.5752155715774294	1.2177329032670727	3.8947453400507466	5.274279581105111	3.84395407659866	3.160268537171846	0.7661288957326416	3.5373055845597623	5.695744976922117	6.185091479898061	2.2692611160205445	0.9160401201962237	3.7024435903531563	7.763506392905134	6.308544143008004	3.861281623628276	-0.08637362696774908	3.2821626580341365	6.563864214537455	5.920351490332091	2.7872211862765415	0.06252622588583763	2.501948111893027	4.963325487957089	4.4340033419241145	2.429108136719875	2.822953693892014	5.0498418680487145	5.0036821239025615	2.941646806919369	2.70195316586194	3.5116367251427585
504	1.6747609334623699	2.8287944722280978	2.230990881055522	0.8091916421487294	3.2528088010678426	4.7852444527926865	3.354818574064687	2.9161453173444722	0.38978907367522475	2.849500172096475	5.110344397040247	5.720092758995654	2.2122867051536486	0.5723221883629173	3.1178471963365664	7.180485230436691	5.871103748757211	3.6748950388632613	0.2023306781905649	2.7483870913733677	5.928888782791004	5.401431070041896	2.5576724941528495	0.262108891540616	1.908001179646261	4.337466228978149	3.888631095605124	2.2057647649387917	2.15619468144578	4.38165282096864	4.449588287563477	2.2942895831356984	2.1573123877417864	3.0757396143505926
508	1.2460895745287919	2.479515546260577	1.8237057878226486	0.40446212785647107	2.557096236448616	4.196976174248625	2.7931046415381764	2.4843227800588648	0.07092069816564994	2.1751379911818884	4.506451595372792	5.184628950380529	2.5801577502911477	0.29319509789828807	2.6420807771733816	6.596966249976341	5.434777246105167	3.490927448995704	0.4932266461317366	2.433863156849471	5.423471437112715	4.959656702871137	2.435851806212736	0.5796893224385553	1.5806410272745237	3.90414403883378	3.467205754109306	2.0325126596633205	1.7153356031978804	3.887119760236015	3.9991450208784713	1.6542834001736166	1.7646416381152037	2.685643666162517
512	0.8420346954067206	2.1443624442320015	1.4701369963721842	0.1181481701132913	2.0157706686624994	3.6716861632152353	2.3221533239863694	1.9737907598253122	-0.10521058711668539	1.6853961902027914	4.051827897332374	4.729942309835387	3.2281393923319093	0.15416590830503576	2.3897366463407623	6.16318987243993	5.12272738117036	3.3773898993098244	0.6282680018775209	2.407475226999712	5.170710073767721	4.721352088452046	2.47512769074187	0.8288344719941556	1.6091886718176214	3.7805869483864543	3.2928304589105233	1.9802538106512797	1.6452999073450405	3.7256195451133682	3.8074467086030634	1.3196148839058415	1.657358165371237	2.486313336770758
516	0.5884523972913086	1.9099698018489324	1.2619591919508832	0.011333560542459997	1.7776482060373824	3.3488917266217655	2.076203341010532	1.5272179803436692	-0.11548490048100021	1.4842673502641208	3.855658044617206	4.482720363743254	3.9089021584048966	0.18701285076608867	2.394716972027041	5.965856537061684	5.0200590960597	3.402973643294304	0.48250922438869964	2.629336350478263	5.1920385229631405	4.74043606514947	2.66202353759056	0.8292124250457221	1.9501134107945155	3.9658872981078246	3.397031537062358	2.0805571026725134	1.946239704940343	3.9301257034257753	3.9337732692582406	1.4655188285066467	1.8610708666543971	2.560519688817292
520	0.5585962519847606	1.8336249543625465	1.2317925660504843	0.07072294485594567	1.8693308783065163	3.289012662213009	2.1027576870280833	1.2753912178263944	-0.004373570427432213	1.567690726136871	3.922213544479687	4.489577282060903	4.362242210818673	0.36551210191950156	2.5980906420915746	5.991662487161324	5.1345391143863885	3.5901503472284664	0.034836362959408014	2.96781348432828	5.404113755887174	4.974676119642298	2.917843811297703	0.5033398257898886	2.446127408527491	4.344732273576504	3.7114260102981294	2.3052949847192403	2.4756388601741732	4.400836933469033	4.319162834706734	2.055800432736849	2.288119548742707	2.892091505378225
