time	FP1	FPZ	FP2	F7	F3	FZ	F4	F8	FT7	FC3	FCZ	FC4	FT8	T7	C3	CZ	C4	T8	TP7	CP3	CPZ	CP4	TP8	P7	P3	PZ	P4	P8	PO3	POZ	PO4	O1	OZ	O2
-200	1.109580514013764	1.0227797005579882	1.2465918032644014	1.5485119780544945	1.7509995654720343	1.9272506188371628	1.674345727507913	0.7800558189724734	1.3258495297336064	2.2102951947674416	2.2033955995242414	1.810614342886524	1.8395160390186933	1.490982647946141	2.230628246397624	2.394817346248589	1.370345946666857	1.9431751917415983	0.4517209220448628	1.5564392765803172	1.6374999243401365	1.4258518182994844	1.359566804314311	0.10963658215737164	1.0240893338096866	1.0359294388365559	1.6121630627936931	0.3083129815423701	0.39710706372136956	0.6161059721650325	0.7876075486325148	0.6756471378434104	0.5989476427215061	0.5984457716137644
-196	1.1452877492599156	0.9351255274051178	1.1107273073763473	1.2457585303325454	1.5424325427213328	1.8362883283029656	1.7087545351755555	0.802468297839685	0.9991969440982114	2.0424361177376316	2.24900936512563	1.8366768313766306	1.3406286205776405	1.0244507763746922	1.9622033784916524	2.3126239718223185	1.3946856225087256	1.1010423870898252	0.9080794430694109	1.3615692819551293	1.531323309846854	1.3133412566404918	0.9880542134134535	0.38830304047775893	0.7735494951745082	0.8783885814424077	1.3695737088910969	0.1359404471064675	0.30848282497722873	0.41012298957275434	0.49303814644311034	0.3340790561347572	0.33120524799648976	0.3248902253054482
-192	1.0036585305623194	0.7671710233392635	0.9041704512656205	0.8292598703428435	1.1479133338556426	1.5943471153060202	1.6264224011365982	0.7655101995214352	0.5773869738306291	1.6428998667245742	2.075742954735449	1.6934466319244095	0.6513330919987305	0.5502023086961694	1.5295728406435098	2.0655767865482257	1.3098326888392917	0.057837709638481574	1.2131615846522104	1.0531649562948715	1.2894381252158562	1.1400268049067432	0.6557580812110387	0.8127315619930024	0.5773288593021199	0.6592437608287031	1.1370280952356644	0.09685566996916228	0.3818441917792375	0.2972369484549474	0.2470692389926042	0.12954282727913696	0.09942407880953284	0.1734525407941835
-188	0.7370867114530913	0.5764706716288105	0.7039275151600097	0.44976350551538097	0.6873262507251477	1.268433806077908	1.4510962926467588	0.6723867637824281	0.19343756090440123	1.1415605516222311	1.718831892442288	1.4086738789278763	0.0755906624673665	0.22565269413243016	1.0770857306943162	1.7139089064241388	1.1364512414849846	-0.7675831894568447	1.2489330737052675	0.743511436492565	0.967322943152532	0.9553187465390103	0.4854549157283847	1.1508892745524748	0.47142684340662444	0.4529262769707899	1.0078631614034492	0.23074938298617753	0.5697156772534702	0.3442270449053701	0.17532856718143003	0.16783848362509196	0.040908656911085535	0.2691765420793362
-184	0.4463841009790828	0.4186285127560834	0.5739816412739192	0.23782858192479384	0.29368138239146035	0.9485881304633216	1.2325057952280658	0.5656129107500042	-0.03599536409826839	0.705547986633427	1.2893075910441276	1.0540925237745242	-0.16097597737200947	0.16098830063228567	0.7470786552640762	1.353560205856881	0.9243012047319461	-1.0399218771428211	1.0583115789396533	0.5347092734188182	0.6422644837376299	0.807927785264103	0.5416368828449922	1.218150135779447	0.4446033526162692	0.328117846614209	1.0372559998073279	0.5168353902165699	0.7911106328064096	0.5570949301959486	0.3361606887436373	0.4445663381319572	0.22428840342161074	0.6331137998808809
-180	0.23403206408541063	0.32226261415180396	0.5355308042356832	0.24629165169998884	0.0639629362398763	0.715157745463077	1.0257056925626247	0.5051561581255433	-0.05652422443662431	0.4718511092670645	0.9297558045755049	0.7231144290787	-0.01548994980566922	0.35945880322300794	0.6268849953082892	1.079022643226047	0.739571569482859	-0.672296522350466	0.7912338952114939	0.4805304693964421	0.38952350518109846	0.7346611600447255	0.8044287542060427	0.9773589347958946	0.45880108955895427	0.3261698476185779	1.2214345901168577	0.8796861745558919	0.9743515228467006	0.878460047411313	0.6921728831935325	0.8465492703999	0.6066665038050758	1.1597390145585127
-176	0.1533049937192348	0.2771099500812332	0.5565722570672328	0.4245953549155486	0.022896118404278583	0.6066064223232939	0.8675518013985094	0.5248326049905379	0.10025143598040996	0.48900422330418614	0.7490616421861022	0.49707767241862927	0.36783060338612106	0.703746793877507	0.7170476895348434	0.9437981224073304	0.6410331113843241	0.13015393879931494	0.5903635010119168	0.5699199423705997	0.2593636804231268	0.7524257879333763	1.1797084778564833	0.5547760114968167	0.4792008685887944	0.4499006558026629	1.5015960893866298	1.219325896999318	1.0907272072910394	1.2148992984616047	1.127628919615474	1.2070076435132675	1.0508964035204478	1.6597486692485632
-172	0.18483845842901103	0.24517513749687517	0.5701492414384718	0.6436681135139019	0.11982154815939373	0.6076434835351225	0.7653227429140899	0.6011066421591095	0.3313416830280362	0.7002150398695476	0.7739968280324181	0.41738721622944747	0.7522834520420121	1.0060342524877788	0.9371317005339027	0.9420355534611274	0.6578077061257552	0.9761400198133154	0.5009908663498658	0.7391729932242522	0.26519951157370647	0.8564159252478833	1.541560288351892	0.16454634028852466	0.4961670922626946	0.6676991565059026	1.7910420849403337	1.4537619315636738	1.162132379458781	1.4802426062404688	1.5034679136464302	1.3842565978387062	1.396362301162024	1.9493991087333307
-168	0.2544477575553656	0.18927892994776055	0.5125495778494609	0.7605776767601459	0.2603932016474105	0.6646531803516361	0.7021232229625692	0.6595512015856783	0.509763477945759	0.9758509372868847	0.9440130567558479	0.4752414512556513	0.9452229118324441	1.0969144078216828	1.1649241418037224	1.0196164820677447	0.7780780176545299	1.4870197735436097	0.46005803230480424	0.9037268735003219	0.38443124197221445	1.0224342320377424	1.7862023070060808	-0.012681650897134874	0.5259039388730259	0.9273871159981112	2.0100662657533177	1.5515774449275532	1.238836523742966	1.6295449692592074	1.7189176039212586	1.322067972660024	1.5428041180759244	1.9393279503496392
-164	0.2796665721031291	0.09943357084918936	0.3593454351889314	0.6884123069548581	0.35540550857458064	0.7182738166794224	0.6526727063866752	0.6152208431923527	0.5410712347675019	1.1769638031807959	1.1483694285963124	0.6198545082654927	0.8908616877951935	0.9064480043413826	1.289136883341922	1.105424520562648	0.9521971916953594	1.4797654114556018	0.3571230760140919	0.9929116343225153	0.5671589956269296	1.2095745771386837	1.8679259968327073	0.06546592695873786	0.589234946670589	1.1695225209272444	2.108728880326606	1.5364795884440652	1.3582467998544479	1.6637242990450443	1.7449428991131195	1.0621683570747524	1.4952316246428718	1.6726514058798054
-160	0.22139172200096852	0.0029993099084767126	0.14144107663683786	0.4384926546470018	0.36299610046291747	0.7355947475934854	0.6007427558036744	0.43037092577041247	0.4037192453681886	1.2178139655837625	1.2832068172481903	0.7815443853673357	0.6755893213381242	0.49304759377928337	1.252538081821471	1.1454666824030797	1.1101469965562791	1.037744281056095	0.12207658558064886	0.9726527904748908	0.7488282900023957	1.3639639581575793	1.8005089714368179	0.27403956582499284	0.6826344115188538	1.3351168598798864	2.069061035654419	1.4621385299006793	1.5059193334705632	1.604937549353684	1.614627714848933	0.7113035303276969	1.3449832167046467	1.2922700610912745
-156	0.10883562984406334	-0.05006204160329414	-0.06919229758197815	0.111604161278762	0.3014754943388689	0.7222552877310766	0.5467735515141218	0.15170617363297756	0.15260966083620187	1.0948679419531313	1.295441743441055	0.8970862008333722	0.45265561227954826	0.004825112863368747	1.0654649707596666	1.1197499008517973	1.1845312088623736	0.4378542591007468	-0.226040407444554	0.847707686668185	0.8621311165977422	1.4247463905602709	1.628484841049909	0.3869546940093767	0.7613999228327464	1.3676987851897757	1.8900289487803816	1.3713315690703745	1.6020212133014766	1.4602150880186335	1.3806238139581075	0.3847621073545273	1.19938778574442	0.9564426517180574
-152	0.020530272223375473	-0.019867170551923424	-0.1977187986150353	-0.1578582968302593	0.22670432867986964	0.7071838957098021	0.5009009825457714	-0.1043444794762215	-0.11488414526782582	0.8701862670862855	1.1912838190519288	0.9261202192766088	0.3363691261858906	-0.4007320989981669	0.7866462449240044	1.0348316404918545	1.1300947637636063	-0.0199284348133721	-0.6008511170476025	0.6470660550946783	0.8486633875401007	1.335367199387311	1.388431545566813	0.2026776219257653	0.7487326841524173	1.2176206081165994	1.570335384218878	1.2648087708011106	1.5255857667552608	1.2008699148376627	1.0704851123485544	0.15639802774043263	1.1052571507205413	0.750923393260961
-148	0.03400649494287606	0.09377749240563724	-0.20727594144464273	-0.2736710303072771	0.1901144529549513	0.7119846326018257	0.4680038380727832	-0.21393065100540162	-0.31124153654672543	0.6243728383512834	1.0116146777361406	0.8563502409295067	0.33446335708097624	-0.6320232733028237	0.4856753635065299	0.9032258368576049	0.9351953840486181	-0.17645876065048513	-0.915802834105972	0.40365525978218375	0.6728389246165526	1.0619746419797216	1.0865555974230316	-0.33408522521547585	0.5695451483651983	0.85567199967832	1.1059408159943889	1.100903031430692	1.169948574927023	0.776438413090188	0.6720336658676702	0.03817770993011316	1.0151878569721144	0.6491603834928635
-144	0.17182832912931603	0.24154974459221004	-0.12228562651992897	-0.2292732441597195	0.202121227469353	0.7250272613340024	0.43308505306572975	-0.12631814149912393	-0.403157769615822	0.40890386597391887	0.7950475195838845	0.6967432481340808	0.35540863781842347	-0.6936382633816358	0.20817016012562783	0.7271408420324015	0.6217353328266315	-0.07915775457900788	-1.1370352477930192	0.13988390529601227	0.33611196194665643	0.6125602110655862	0.7083183509109479	-1.0769820186126688	0.19301609646225854	0.2936604313588747	0.5059393631559145	0.8264788368339347	0.5059368597608402	0.15769582947017297	0.15741495748353926	-0.006724076328586274	0.8184005001386324	0.5402788506218584
-140	0.379137962099333	0.34517589124315395	-0.017871886446653336	-0.108394168043649	0.22496080341762428	0.7015202623775437	0.3614535620623473	0.09280708408766035	-0.42243850124515187	0.2272170627340942	0.5574708566895978	0.4681617009740722	0.2807679169241858	-0.660407422305715	-0.03660656130012302	0.5013865815855305	0.23760996698947087	0.07658737133478413	-1.2834643093129698	-0.13303606178550753	-0.11216135294729619	0.04838630172314845	0.25129374798271653	-1.7281929210899183	-0.3377142838057854	-0.3969783772936244	-0.18248844100654613	0.42299717557922106	-0.37814766073121253	-0.6146063789109145	-0.4685623037905962	-0.03343207008146471	0.4199082244761801	0.30815306228084144
-136	0.5472343550217169	0.33780336294717733	0.019712381015122838	-0.0349015555394665	0.19859167883324472	0.5910132512429729	0.2163502866527884	0.2865909330761711	-0.4389109898453017	0.05130117746156241	0.29823678656620783	0.1977290804162331	0.04921180742475192	-0.6154437049586052	-0.26307842069008464	0.23155032039832468	-0.15544448753688458	0.08466277250133876	-1.3755058015427457	-0.4058557142501236	-0.578216968507031	-0.5237301574835557	-0.24471725461686664	-1.9758304307643764	-0.9083340741112484	-1.0878252955628314	-0.8627461173209819	-0.06134678035387091	-1.2868881193095136	-1.4119415247555027	-1.1329514951711888	-0.08666286595637201	-0.18262039078858452	-0.08772493131662085
-132	0.5725521430818801	0.20242376574430784	-0.059286694824022684	-0.10003625576273348	0.08333817103325895	0.3760629286808119	-0.014851166829224131	0.29401257559931865	-0.5124328123506406	-0.14130561018076662	0.02422517159425381	-0.08200629034795433	-0.29968652053509703	-0.597762881200297	-0.48311906931017934	-0.04780362534374684	-0.49570068591850475	-0.14394676648990187	-1.382944103564066	-0.6608981473449118	-0.9466798281610107	-0.9809847449330722	-0.6939491016033547	-1.6530771213756978	-1.3714461291973434	-1.6256138045276167	-1.4066504204521502	-0.5174011575033495	-1.98161875701319	-2.050388331004908	-1.700990076538848	-0.18765619349784757	-0.8736381508704476	-0.5782251939479891
-128	0.4203952540274102	-0.011993207007168947	-0.2361961597201293	-0.30459171456682577	-0.10523246202126273	0.09887552981446927	-0.29877555294897234	0.055208552489367374	-0.6493374092873995	-0.33501461063678967	-0.2278069550007857	-0.3298616698996775	-0.6413323863049857	-0.5885910376947061	-0.6817201954795971	-0.27028933099216085	-0.7319773417112	-0.5344586358881704	-1.2233077256788398	-0.865980622966197	-1.1160687179997633	-1.2241888015356852	-0.9934391950320903	-0.8384317734530791	-1.6018874604789384	-1.882529373184387	-1.6957988696198867	-0.8174479583128818	-2.2720348777628088	-2.359567397836	-2.023210997241737	-0.3325759760089287	-1.4600756131502113	-1.0140570376542906
-124	0.15132413766325425	-0.21125416404316497	-0.42902189384861705	-0.5524009452224481	-0.29557618424176374	-0.14851923249417323	-0.5583197460383457	-0.33436760221938633	-0.7915292362256103	-0.47505289196238043	-0.3957563330672023	-0.4997701632279477	-0.8343487956916286	-0.5392513261531697	-0.8148522356441119	-0.3634058525923914	-0.8344022610578571	-0.9040515399995938	-0.8254601934572952	-0.9812370513937694	-1.0390198204510679	-1.215795990735342	-1.0729746791452475	0.15970382054061902	-1.5473097523724102	-1.8091248228173475	-1.6737426477135982	-0.8770757891445442	-2.0979890770395127	-2.2616112175108056	-2.006906027495305	-0.5005754815814748	-1.7633345082585796	-1.2455352513337803
-120	-0.10650163862042196	-0.3042556635804306	-0.5349550829732513	-0.7013794166022951	-0.3962303688059042	-0.2691093974471663	-0.7031019312273102	-0.6630228741118558	-0.8465887882792863	-0.49902444951904557	-0.42430943143528294	-0.5540623054820781	-0.7980206588624194	-0.41773658885391635	-0.8310434797285992	-0.29023352192081053	-0.8023389557608489	-1.0802011462595706	-0.21822290067413017	-0.9738765334336846	-0.7458956818822058	-0.9962269042611971	-0.9375229454212206	0.9362066364493242	-1.2471048800453326	-1.4593603574147125	-1.3792856896862786	-0.7023677808194653	-1.5582817753549623	-1.814377184101694	-1.6690919357120955	-0.6624633057081172	-1.7094383196586924	-1.204646584330386
-116	-0.22462947609931558	-0.2521928542445609	-0.48829373594025727	-0.644426046174952	-0.34790307195564407	-0.2163142407439515	-0.6749061925060782	-0.7204248886992904	-0.742715178045021	-0.3806037893222709	-0.30401265544429484	-0.48128288862786456	-0.5533733949995034	-0.24133111475572588	-0.7030501943957758	-0.08112478235743548	-0.6655048115140367	-1.0010149453639157	0.4263281513417615	-0.8324432352029704	-0.3371767393182357	-0.6678062064476489	-0.6738226992760866	1.1771603792987688	-0.8103538731142704	-0.970852849416508	-0.9382611489449001	-0.3937238146854931	-0.8694880582791494	-1.1922358244358777	-1.1380164594528344	-0.7873339633136865	-1.3667088712518454	-0.9422699785284372
-112	-0.1469230350122795	-0.09266398078649653	-0.30307105107083293	-0.37679949307676414	-0.16284830827128927	-0.029223842472560695	-0.4863493728279483	-0.4317782808369734	-0.47815459845937114	-0.15817299445271762	-0.09176219231564406	-0.3111285857451613	-0.21110260433304498	-0.0735087839893273	-0.45176362877273657	0.16562224882748763	-0.4781082558481753	-0.7412648182273632	0.843361315982137	-0.5750032052781454	0.053080577269291385	-0.35430884271812707	-0.4145397831464266	0.8098738769111061	-0.3664795747087307	-0.5087017404110556	-0.5162172900518097	-0.10334322575465121	-0.2743231051194735	-0.6134542807349598	-0.6014646276547266	-0.8485107400452163	-0.9119617319924093	-0.6014131888464153
-108	0.07431173305823052	0.07522610555967943	-0.07544649373318	-0.01037945688875573	0.07293751817408106	0.17687642529653297	-0.22852317931175972	0.07256069016018184	-0.13517327572550036	0.07318083178402049	0.10571991625558577	-0.11485455156176955	0.08470842965912143	0.0136345605953015	-0.14643755518180965	0.3221376530143478	-0.30467247886029253	-0.4571168709181107	0.8109667876749483	-0.24580749807286192	0.31018683236008776	-0.15230441054991656	-0.27749052573716315	0.040816847131911735	-0.01124591004989393	-0.19565889189912097	-0.2504978471630402	0.035056572318974716	0.061237376028661895	-0.24468444226000063	-0.22337229493488714	-0.8289355018667948	-0.5406913147626627	-0.34079015168933124
-104	0.3010012797862332	0.13915760780009667	0.05871862903313475	0.2746698849419012	0.23850460290296835	0.2641960077768016	-0.03700124090508739	0.5038304912244408	0.1508002277381625	0.20460106380781093	0.1811202759938261	0.015921978239749102	0.2201621377870014	-0.01561332303813962	0.120056882197534	0.29143109844061404	-0.19982089051818294	-0.28398579287355047	0.29083228037839	0.09632759516952737	0.3831519176823079	-0.09613526588248396	-0.31104069869666184	-0.7442085128114533	0.22440744879808783	-0.06451740844649946	-0.19477792035040373	-0.031201396058700016	0.11180676491642264	-0.13229185309388214	-0.07323569040881714	-0.7286644559583032	-0.37249749804863946	-0.25395482714431766
-100	0.38209542535633145	0.03271621829951962	-0.005808241650698911	0.3208780280594898	0.23957818686079094	0.14455531501036098	-0.026308754392600255	0.5669948444356326	0.2560079091284224	0.16957454340559805	0.08296946415218988	0.008370425530996452	0.15449120065307617	-0.13981549406514404	0.2707113914807498	0.05863688871361228	-0.18784753930825465	-0.25490453774944855	-0.5178338276186817	0.3945742537550012	0.30066415591623474	-0.1510862108230728	-0.47338372349430463	-1.1726071804958724	0.37099754716665373	-0.05519667626392586	-0.30211201233881824	-0.2507134967672931	-0.012256201325705466	-0.1934292311553149	-0.10344346586574915	-0.5715090021962996	-0.39867699045614485	-0.3261934808601717
-96	0.23717440604887438	-0.22563134076849328	-0.28090250421174884	0.0801968497993344	0.05973910152730628	-0.1689197118785877	-0.22497346940460705	0.13773676718268937	0.13481079007921404	-0.01905157598513399	-0.15372474452784454	-0.15246291420113534	-0.07326220702509464	-0.2932197742211628	0.27799421478656594	-0.29645779654041066	-0.2517429881892544	-0.2926853291751336	-1.2550088135504625	0.6093494280689319	0.15158222577448008	-0.23654420614125526	-0.6568733437166153	-1.0665069791569992	0.48784756537291757	-0.05597918466501304	-0.453765838192654	-0.49548122161699587	-0.13423863019429844	-0.2688550644285518	-0.18403445137766572	-0.4019469310625894	-0.4981473969757124	-0.4509294021665664
-92	-0.09609010791360002	-0.5367075191298681	-0.6672301871619939	-0.3534753015653701	-0.2283099138932918	-0.5615423903592803	-0.5491815791569679	-0.6419963224414625	-0.15089252553036417	-0.27402073075729133	-0.4225626279175832	-0.40641420977025894	-0.36901572253519804	-0.403348057443787	0.17303439931097864	-0.6353055818730279	-0.33772638354864426	-0.27316221525843654	-1.5752938946052237	0.7263924461144912	0.03947882716821075	-0.2664774649567867	-0.7442842703147715	-0.5186427222508863	0.6213999374913272	0.033473879014378795	-0.5192156420950208	-0.6253144129224231	-0.10652536126898267	-0.209116652079949	-0.17529702142326228	-0.27008208564280006	-0.5119998442120854	-0.49472364658381335
-88	-0.4756911384970239	-0.764402983642883	-0.9916501020190293	-0.7819333056735133	-0.49617576473848757	-0.8690320231431243	-0.832077799126775	-1.4100989067715686	-0.4539328802092153	-0.4765358257183257	-0.599118171609778	-0.6350278838337204	-0.6203624590469861	-0.4268853653620374	0.028333136740318163	-0.8258213379990775	-0.3757457425644405	-0.1166740280424282	-1.3265136446840171	0.7572048287347565	0.03502181536057782	-0.18762859654738623	-0.6669276935905225	0.1724876459058344	0.7786608318696722	0.25152546103869583	-0.41708013310034	-0.5561608062053871	0.11680381715609893	0.050537850580173585	0.0005828442502952607	-0.21160809642294764	-0.33289837753170476	-0.3725543906819339
-84	-0.7258700114043539	-0.7987626770833547	-1.0856847735650619	-0.9954965089459635	-0.6224570258637498	-0.9572712754876329	-0.9009880400798076	-1.7622007087085247	-0.6089165791396659	-0.5363011346628155	-0.6057370885814397	-0.7122061830658964	-0.732242224751913	-0.36422571447920693	-0.0787796227135075	-0.8056174496337971	-0.31175225894419395	0.15053622386595766	-0.6296443923311992	0.7304142099059119	0.14619772099300019	-0.0013172321453961227	-0.4366095055047226	0.668961284855835	0.9260928011400814	0.5583570585458809	-0.15056572816504699	-0.298199503860995	0.4632199096905438	0.46055176737855463	0.3226285866698009	-0.23271848202600584	0.03642746424418634	-0.09391713863741281
-80	-0.7301536780042565	-0.6109197124315751	-0.8704835750536746	-0.8773108698629448	-0.5537146911946257	-0.791029689699009	-0.6696073395989243	-1.4730315171244588	-0.5136379586603116	-0.4383590508360751	-0.4542892265771053	-0.5691320285733031	-0.65487515761021	-0.24883846875784402	-0.10459594402131339	-0.6122667177954532	-0.13845765555710526	0.40438040988869034	0.1918106819316868	0.6766774637303964	0.31761738577760673	0.23821522235331444	-0.1372953798880808	0.7717231492585566	1.0113592122292783	0.8586534836071023	0.1965220267579342	0.052375625686732076	0.7873815278200972	0.8849508143970312	0.6852761489732743	-0.3071126632089138	0.4832829820828978	0.24291832683744244
-76	-0.4957790660261865	-0.2707554095108053	-0.40236991542317	-0.4629749346011354	-0.33076149141725736	-0.4542393076872319	-0.1941768075093616	-0.6339426620690348	-0.1808464820587416	-0.2504387789602169	-0.24222445426820277	-0.2389248603510574	-0.40145876902311145	-0.11969161748469202	-0.058481175304820006	-0.3638933291784561	0.0925305185366008	0.4922077941388408	0.7891761640651084	0.6139072164294644	0.4579935956358984	0.4466842401670915	0.11667124152529199	0.5122395740927668	0.9937157009785053	1.0488435003502767	0.49898925297639457	0.3613129845079995	0.9505071019970204	1.1692299813314253	0.9528108215117729	-0.3860748698500685	0.8412680008629104	0.5025862442678959
-72	-0.15608364304235856	0.0806996000755843	0.14550104700546315	0.07361162435304698	-0.06883031112459054	-0.11253114016254909	0.33884555015844375	0.3733609607329981	0.26500219039767575	-0.08894101507858045	-0.10529109809041248	0.14429813586996568	-0.055431861290454576	0.0005796981844384916	0.0040463129887643254	-0.20249290713207274	0.2845051281421672	0.32285699166800347	0.9646848415814337	0.5382262454749106	0.48002916453282435	0.5410361872364624	0.23152227641302867	0.10812822702049384	0.8636671878943706	1.0608984205163743	0.6421520693778674	0.5167129026718658	0.8878661371702797	1.2097601860020457	1.021926877302695	-0.42315426362013003	0.9699696873971008	0.5793063625968403
-68	0.0933902186777675	0.29215675518659995	0.5593731985274463	0.5031915294340618	0.09824963634242431	0.06321099384561082	0.6924797279040615	1.0635455819934554	0.646435259140613	-0.062163211248330234	-0.152546628924511	0.3978587378947342	0.24577638444836772	0.1090396863449367	0.010344151381363768	-0.22971367778001406	0.33293592845781844	-0.07694278638010185	0.7528861146038145	0.42566996705349097	0.33453500186381535	0.4673505413653719	0.16987566607024304	-0.17950004293898736	0.643590687080534	0.8833145476927883	0.563903926379319	0.4721377480030656	0.630858777360787	0.9924799774861418	0.8627064802323064	-0.39851173657892236	0.817470012031393	0.44370725638897845
-64	0.09248330420747729	0.26776188544380874	0.6824757439548624	0.6504832489756687	0.08107723275218595	-0.025777216935641667	0.6893542987585101	1.0968121262515065	0.8173851350174471	-0.2199752921272635	-0.41640531911621914	0.37243750597382447	0.35493531733545713	0.2132496977428844	-0.09354217326865812	-0.46591690065053143	0.1708966787315065	-0.5731344804598654	0.36834394838795304	0.24498273370402596	0.025814359942468706	0.21638640706743112	-0.04311401758633609	-0.1969456667696057	0.37200039531246776	0.554403482467911	0.27138993075515966	0.25442948873178806	0.27729692985142146	0.5873958453606876	0.5224317299050467	-0.3295658520484041	0.4393927443854825	0.15003068707257153
-60	-0.2016564900552126	0.008069863522539944	0.4858352529657362	0.47461086391784213	-0.12559874324082365	-0.3643843224385538	0.29785320087572426	0.4556582856594947	0.7306666355758984	-0.5330839143645417	-0.8404363372564592	0.02511679374790745	0.17561891630655907	0.3182082168174511	-0.3165194384212937	-0.8480514862583814	-0.1972687835481173	-0.9935741399475211	0.0608479453577148	-0.021820176337703005	-0.39319956203369477	-0.17501109794299663	-0.34106898221688653	0.026380484857116037	0.08535626509096893	0.13961610162771257	-0.16934472279708557	-0.06190422906743503	-0.06584668887918232	0.10936035933301867	0.09723739301450132	-0.2624557905723329	-0.030722368431010824	-0.19522845695796223
-56	-0.6882332546024049	-0.38965436717837243	0.07877668718475972	0.08359356948489607	-0.4429156471037151	-0.8339137413905113	-0.3488858631385418	-0.5439908490751635	0.45663791779622726	-0.908043501468702	-1.3064751592075707	-0.5522364364032835	-0.27786251832426717	0.4208275367125523	-0.615225730773212	-1.2617316214177055	-0.6894102079151683	-1.2115448682714045	-0.021326368620791982	-0.3594313552841582	-0.8389173128881935	-0.6335540397860805	-0.6480175240368257	0.3205866209519186	-0.18906378698298698	-0.2904911629972017	-0.6601698977968848	-0.3947983374164685	-0.3309896579968815	-0.3309433749903303	-0.30998349111494994	-0.2479405098854087	-0.4421164084239398	-0.48410948988758906
-52	-1.1673308581443866	-0.7721930722767792	-0.3466042867492674	-0.32428172148847256	-0.7465270738827174	-1.2669829098184486	-1.0127626631916162	-1.4170503580555927	0.14304992520455326	-1.2291076152287108	-1.6849062400239747	-1.1674845189182297	-0.8585116841575396	0.513155459062073	-0.9097245312610582	-1.5895624120634009	-1.173379537480922	-1.1959800690019249	0.11379085452437411	-0.712748585331983	-1.2213332622209954	-1.068744060679061	-0.9058158374804909	0.49677988761408326	-0.4291385997427926	-0.6741753799583322	-1.1028679581453966	-0.6866847855396946	-0.5073745237891929	-0.6640418155117185	-0.6260702594209114	-0.31595164457659686	-0.6890542489774684	-0.6522098167165182
-48	-1.431614872178977	-0.9922096108181232	-0.60727125252944	-0.5598609433344118	-0.9222875214179383	-1.5178099832360745	-1.458102699413127	-1.7568266347398542	-0.06173165499479449	-1.4048709833915183	-1.882263059632203	-1.6094793040648123	-1.3275606598714982	0.586056827019189	-1.1147893639075344	-1.7518334344503368	-1.5162605008944054	-1.0036505435399394	0.3445455721262456	-1.0017152999382581	-1.4665729962514829	-1.3960171902696459	-1.085992214322037	0.46509531022902173	-0.6115432366189961	-0.9640002226332721	-1.4248011076240366	-0.9140485502053718	-0.6252474173018646	-0.8736093022224491	-0.8246979692618319	-0.4587630915980059	-0.7473487835135163	-0.6986885649207039
-44	-1.360621925733461	-0.9646711325131699	-0.6098005756240978	-0.5305336104349759	-0.912064907632255	-1.5160564145912099	-1.552306528940605	-1.4322260582049606	-0.07995436320383914	-1.3984236681917317	-1.866320009287934	-1.736826415445257	-1.450820084723567	0.6299081428836644	-1.1726701230005963	-1.7244329408976902	-1.632747765233482	-0.7254499774736822	0.5349758253895808	-1.1533967227425552	-1.533056493703257	-1.5578274687536313	-1.184133526673436	0.2772390239391684	-0.712664363969128	-1.1291141481502374	-1.591520067011461	-1.076373693609627	-0.7222999316099007	-0.9845566724715088	-0.9220635867680825	-0.6330339892617282	-0.6735442263763991	-0.67608338423742
-40	-0.973246095107487	-0.6958848816468376	-0.3825105121014993	-0.27442642977093074	-0.7308730464602344	-1.2843422857282947	-1.3124711480382576	-0.6344796999171052	0.06443890167894789	-1.2319490878472692	-1.6641309219306755	-1.5331141909992538	-1.108450052323808	0.6296071990329533	-1.0742748948630951	-1.5337166747471225	-1.5121726951567402	-0.4226653267202719	0.6156737788868573	-1.136231896392765	-1.4196702206054355	-1.5372906884481208	-1.2054222791755345	0.07098955643135285	-0.7189454418150557	-1.1590670317950116	-1.6062473018146715	-1.175600525748935	-0.8154317716037999	-1.0380161974448738	-0.957490858998431	-0.7789258937243191	-0.5702263102439717	-0.6577151401126528
-36	-0.4150755096923152	-0.27533307602032014	-0.04810009884611111	0.06967590731672288	-0.45209300403893377	-0.9181388593381111	-0.8803225137419074	0.24276237128478137	0.26683413915022214	-0.9701161956135887	-1.3417267765502097	-1.104165193631013	-0.36778244283326417	0.5598042593173735	-0.8625825621761313	-1.238923427314829	-1.2140488593920966	-0.09900556479729908	0.5966915473178089	-0.980673787502064	-1.1657258242739272	-1.3607437576270744	-1.1531677216979064	-0.03844649334975887	-0.6435461624109993	-1.0697135898285297	-1.500486250903714	-1.2035119503153062	-0.8967857338198181	-1.0674499246349651	-0.970035431320122	-0.8432581403422913	-0.53426802023466	-0.6998280865166427
-32	0.11150909932116587	0.1634348924802041	0.24556262729158165	0.33868563089691517	-0.1700521852252997	-0.5409943447759358	-0.44307637102794617	0.8197378495500813	0.4032896448920546	-0.6913967115112271	-0.9775162314530598	-0.6206094010896671	0.5237927423604117	0.39303895731875294	-0.6162207111059355	-0.9109085179218873	-0.8356022217634457	0.2730522446891036	0.5243268595808955	-0.7707862834543423	-0.8395190217756819	-1.0862615081064524	-1.0269483301937647	-0.03935132165748722	-0.5330586419952208	-0.9013901926170919	-1.318951841839034	-1.1459180087721794	-0.9477190351400459	-1.082454201826392	-0.9784640049072404	-0.796140549557016	-0.6103230103342351	-0.8139127472355342
-28	0.4374361027163808	0.49396157139996166	0.3962070335875335	0.42418381464673593	0.03929317360136533	-0.2579178505584605	-0.14562034570167992	0.919010636870395	0.39582869310577695	-0.46128252032165595	-0.6417872293481184	-0.23847886859765155	1.2337126700724308	0.12106972157190325	-0.4197063733471578	-0.61535870873537	-0.4697942125857037	0.6957108360845329	0.4251855601066244	-0.6067510231911539	-0.5167804943388704	-0.7819025496768868	-0.8300757387184692	-0.02177193941639516	-0.45218059306421005	-0.7047188860266945	-1.1035554381165003	-0.9980214212969191	-0.9537438726187311	-1.0635049316258212	-0.9707944964694202	-0.6358638389745846	-0.7683512549074811	-0.9593706702806112
-24	0.4929054963064976	0.6386076195806029	0.38222396277246506	0.31285828272985367	0.14108458125733633	-0.12613160876377028	-0.04095586006433817	0.6246941669904563	0.2455582165478794	-0.3176143757430532	-0.3876394321668276	-0.040826540337243866	1.4891036711289856	-0.22440886440839766	-0.3333174577880625	-0.4033426036188038	-0.17645944610389833	1.1020089360070626	0.2866926782045458	-0.5572468028304528	-0.25643590027915153	-0.5040142523438194	-0.5805028066283959	-0.09550043171374528	-0.45131841187971083	-0.5190837966211106	-0.8828172065380381	-0.7793754319540801	-0.9086689330047512	-0.9694815849622674	-0.9086484290070002	-0.3800069978179641	-0.9154059267774147	-1.0601608726437857
-20	0.32117807784053154	0.585901735733875	0.25038695272171557	0.07393396627117846	0.14140316808285644	-0.14954945407303122	-0.09579610055340711	0.19401475738178764	0.020199485072158702	-0.2689443223838776	-0.24974882539636134	-0.024404423249737486	1.1988744705449104	-0.5699705467138863	-0.3744071116531321	-0.3067772082689648	0.022255312595206536	1.3603447641359552	0.0872359124603764	-0.6266581400308469	-0.08377426096507648	-0.2847484343015261	-0.3172034017183645	-0.2888076596120936	-0.5341812954767308	-0.35605031162013284	-0.6703190786603902	-0.5369217978272947	-0.8075279573079591	-0.7565582375498655	-0.7458574753050012	-0.04992653416902971	-0.9354553199038274	-1.038430449725017
-16	0.040981933371071276	0.38167160653072607	0.07091453653551184	-0.19223645280940363	0.06937652808793314	-0.2925500564341574	-0.2379441702318827	-0.11271357507858476	-0.19352956067337976	-0.30246886534618755	-0.24582184789105535	-0.13078995015978498	0.4930249142120036	-0.8272328951930844	-0.5172657357507617	-0.33649513040462764	0.12589353291197727	1.3347246613182546	-0.15988460142776634	-0.7565605025263613	0.010568966131050319	-0.13348284330045465	-0.09618481969390899	-0.5090062605404443	-0.6475414021355619	-0.20039431700179683	-0.4717344033728889	-0.33129036342901413	-0.6388432963454498	-0.40330624478558263	-0.4557874489243968	0.33460983549514195	-0.7431963067364332	-0.8514491298159348
-12	-0.21848478858145085	0.10202595565786027	-0.1092213613017534	-0.4117915023897392	-0.04575289029252415	-0.5024416434000359	-0.41137838259784404	-0.181587352890268	-0.34285664471847666	-0.39602681894451014	-0.37658965492536217	-0.2971474818833654	-0.3411955228774252	-0.937675116078948	-0.7108494621449444	-0.481889365886923	0.13424937393149206	0.9691065525382876	-0.391509412730711	-0.862817464080598	0.05451887087170291	-0.04904681431784961	0.025520773540078454	-0.5955408796533253	-0.705759165889333	-0.03146388001246693	-0.2958532862346249	-0.21278552657286798	-0.3896970143016016	0.06598720682888554	-0.05692553133301292	0.7449417691496288	-0.331143557189303	-0.5181524740488465
-8	-0.3732782294862587	-0.17569218531596426	-0.2838609509453836	-0.5659963474288763	-0.18708363128158076	-0.7275718432176841	-0.6016718133994428	-0.08857169724990396	-0.4339202035438916	-0.5267397151999562	-0.6227715595734354	-0.49134278173372187	-0.9910525654566645	-0.909110543816777	-0.9043247080859097	-0.7123283129827328	0.03881671642397559	0.3462406984170555	-0.5325613604451152	-0.8887451864692079	0.0702908856882209	-0.03232983491602898	0.012974538807595927	-0.43716293463006484	-0.6420299990656756	0.14705930613105317	-0.16135422844679911	-0.19884614596230957	-0.0689899398134766	0.5718587622509586	0.3782412102209513	1.1283668251159302	0.21481986289623825	-0.12027151852282829
-4	-0.4088377048183852	-0.3951988806283479	-0.4727115321145473	-0.6826757771422236	-0.34915435226025465	-0.9280159449989039	-0.8244638422177453	-0.02637092203694403	-0.5190432654627656	-0.6759756190399382	-0.9440155005462775	-0.7150356155462406	-1.2559694020032375	-0.8183584192595272	-1.0694988938985908	-0.983103749654132	-0.1677895482118549	-0.3254655889400124	-0.5655047879246546	-0.8445999601020872	0.05506658167645143	-0.09074156708457068	-0.12871566382335486	-0.07647792230609164	-0.4589450347757234	0.289474993213314	-0.09424412226724445	-0.26575019888539597	0.26734930209371516	0.994105694168286	0.7397632580199727	1.401152488031949	0.7400428038032634	0.22489750328503263
0	-0.3638891270510101	-0.5282505737319083	-0.685849664863855	-0.7982322553508377	-0.523935733902867	-1.0752884122402968	-1.0874431105814963	-0.1640430684716343	-0.6532269103723976	-0.8276395776833602	-1.280125376330372	-0.9748426651184098	-1.121750232725409	-0.7721110562857755	-1.2062622278275885	-1.242765900335218	-0.4695246207780653	-0.796926973238197	-0.5666938409802769	-0.8060270527516594	-0.017693787768514126	-0.22839817347082014	-0.3492207220320445	0.2798559360591025	-0.24293741522488357	0.3213273874753169	-0.11354225845280479	-0.35859981088699616	0.5146631585478599	1.212447521009604	0.9222707725127988	1.4646496735787264	1.0813113423703542	0.41192632809588076
4	-0.2883352331987966	-0.5663920030598963	-0.8927069283834913	-0.9163585878124546	-0.684245048225908	-1.1456443042440618	-1.353931065955737	-0.5253056870549258	-0.8467912056524325	-0.9617289280451955	-1.5561165770343182	-1.2441419331610286	-0.7347520571277785	-0.8433155992197098	-1.3290015425506605	-1.4392489158532453	-0.8071421364433021	-0.8934289194438327	-0.6707012040370804	-0.8691005088797983	-0.17359515980760973	-0.4269366253564148	-0.5634848461229613	0.36834663059696116	-0.12742912737144865	0.18277551187622082	-0.2115055466318705	-0.4133741249138197	0.5547007308306554	1.1596400708484353	0.87538254040004	1.251247760474631	1.1370071144007563	0.3944066752966383
8	-0.20635183103437824	-0.5102921115389373	-1.022715565960372	-0.9953590606354585	-0.7809779028248207	-1.1177368135842358	-1.5391300877812453	-0.963556406449395	-1.0475239727275707	-1.050984379975914	-1.696106787214019	-1.4487248622557125	-0.3044281892242974	-1.022456524174832	-1.4452570640314355	-1.5278856715727573	-1.0822714539859721	-0.5999469741932874	-0.9706551408102871	-1.0869959565375205	-0.406216679977972	-0.6340165718283697	-0.6793133599296435	0.0315055250326083	-0.22001454178574897	-0.12352683363959796	-0.34432336601108393	-0.38239818714870366	0.31632095495469276	0.858916816927055	0.6337057336066508	0.7725472430751404	0.9117868519650798	0.20561258442941785
12	-0.1054802906830325	-0.36473971513212977	-0.9989623402169677	-0.9704610084827439	-0.7583872060701807	-0.977615353977071	-1.5441387852783652	-1.2426538436033232	-1.1630177468500393	-1.0637035343017114	-1.6438578325729856	-1.490191932730547	0.00944388003498151	-1.2159856527145383	-1.5398607215150575	-1.4814617596416266	-1.1906940906980101	-0.06878251565018194	-1.4188544714390992	-1.4253584110512794	-0.6609356386663809	-0.772772965864335	-0.6329193695301145	-0.6617879254798724	-0.5338691459528302	-0.5122863041341527	-0.4437876034499328	-0.2535679333960574	-0.17190578536500611	0.42177182329502233	0.3061023346801993	0.14360287749273848	0.5136647211457482	-0.059365846066794264
16	0.04514615598843581	-0.14301173352850985	-0.7865595797707198	-0.7984583953725446	-0.5829271063392246	-0.7309500556610898	-1.3114633527069397	-1.1738814085886635	-1.1125397654101012	-0.975004551333211	-1.3857356274904287	-1.2990405526742175	0.1610024567353841	-1.2992311683277278	-1.5770900209663505	-1.3022861447833327	-1.072742578659078	0.4502960134104599	-1.808383460247503	-1.7668634608482416	-0.8501023628706351	-0.7747384886254858	-0.4203200031635712	-1.4206464254751021	-0.9662288402957973	-0.8442255237245535	-0.4500028777681946	-0.05748824760704576	-0.7723852972556946	0.00026092212581323127	0.023328937531222317	-0.43861547001725143	0.09980223302677496	-0.29442676827481706
20	0.2609812610712797	0.12396153776342796	-0.42551049482679704	-0.4967735397194307	-0.2717471115880744	-0.41551855101581214	-0.8689902998918868	-0.7292785626118736	-0.8790277220467206	-0.783448515344523	-0.9674471592319303	-0.8873652197368521	0.20791178889234005	-1.1961067884763976	-1.522798415154022	-1.0318654749567409	-0.7545951585791443	0.7289026361182244	-1.8644819212569912	-1.968111986913319	-0.8972774721379735	-0.6213809832143364	-0.10756175192855932	-1.8757178736059423	-1.3430409397548995	-0.9944507454560195	-0.34946238906367616	0.14037220144594065	-1.2895829645022947	-0.28583976554228574	-0.1298812177478337	-0.7703486065488616	-0.20192860015908645	-0.43940824159308495
24	0.5173341022781465	0.3834935715052978	-0.02541868941028744	-0.15024605355476248	0.09862701569928632	-0.10167823706227974	-0.333759128204733	-0.06774413568559091	-0.5292552696217057	-0.5222170935797524	-0.4922312187641784	-0.3655065586875515	0.24522736606672774	-0.9326452589329863	-1.3719882930448517	-0.7489351611302081	-0.35259225875525213	0.6663532836302722	-1.4094464743315043	-1.9374918888766137	-0.7853374461373307	-0.36766588595070016	0.18954731476134534	-1.7847726300001079	-1.508515711790424	-0.9220241880979855	-0.1930690700901689	0.26014476948861387	-1.5597491224963382	-0.40623709456875606	-0.15791863163178085	-0.73858618549792	-0.35160535485187533	-0.5091886507529965
28	0.7515897135832228	0.5700830206782935	0.2787578992958225	0.12198089032370357	0.4134720255426161	0.12518919972760595	0.12960398164452214	0.5397549854002501	-0.18832202208179122	-0.25584617192523273	-0.0950279680475454	0.0923912522844347	0.3294303706911717	-0.6291031225533604	-1.1635231942364586	-0.5504442439487018	-0.03279241166180169	0.32789531267350197	-0.5031939732244914	-1.6905009703870466	-0.5779137000751794	-0.1292385902718103	0.3490456631907812	-1.1792794436244733	-1.4110045397419992	-0.6981768590465991	-0.07876928130766507	0.23517920017470037	-1.531476016946383	-0.4269725371548013	-0.14400224351288649	-0.38608053229130784	-0.4038638462360486	-0.576461850141406
32	0.8919470287691684	0.6277508123761106	0.38871714374629046	0.22463685217408794	0.5656220302606318	0.19656959126434487	0.3775731911663177	0.843698678270714	0.020440369792829673	-0.05930747076796475	0.1037005630497581	0.3219586900688616	0.44475415236717025	-0.43229445705942504	-0.9691280698149971	-0.5168287741010166	0.06018467232290946	-0.09533922350177665	0.5375056849260401	-1.3482044901187549	-0.39540728826827887	-0.031690549025394865	0.29588514491717693	-0.3637287607546468	-1.1341067523933086	-0.4699540722425877	-0.10071641926370942	0.041167810455334033	-1.2897149291854944	-0.45834603789956546	-0.18681494844477284	0.09707240735817958	-0.4551641333532319	-0.7124148589267282
36	0.897045073628581	0.5365763293070487	0.2896167032559097	0.13729579712059317	0.5051960336327973	0.09376535540987549	0.3505909732073264	0.7354415040521548	0.037841562086170434	0.013451441157175214	0.04744561749638793	0.24653237995846766	0.5288001881599945	-0.42612990629373904	-0.8597685076941003	-0.6750407797936412	-0.1275654431937058	-0.3820654144177628	1.2707494465215854	-1.0756474706195174	-0.3532189121865161	-0.14457659386849206	0.03993345041921634	0.2392121547381494	-0.8513954856357724	-0.3760557761234569	-0.2908879213141473	-0.28525769638520126	-1.0063590978009844	-0.5745701179303009	-0.32324516691612315	0.459909497530399	-0.5651960358654976	-0.9231238341866703
40	0.7783569673913744	0.32569965637945436	0.05256517963251014	-0.0755206046581905	0.2645987563605321	-0.13998651469173404	0.0942378414278171	0.28847780750873936	-0.10491288426852573	-0.04714718076604133	-0.23109595419234905	-0.08591573663716	0.5220883475473627	-0.5837874397797405	-0.8703951217610512	-0.9823983286849963	-0.531887947170143	-0.3869518329864347	1.3473236526804881	-0.9970922444918614	-0.4992306517871254	-0.44058096297607996	-0.3246885529903598	0.31053331415929236	-0.7321377378098857	-0.46883720041160626	-0.5931723102852208	-0.6510071141972769	-0.8473610856596911	-0.7602420430062631	-0.4926943766552362	0.5173119293503461	-0.706924257877816	-1.1267460556192899
44	0.5923700913732142	0.06404783560556389	-0.20641611464360618	-0.2987215809432645	-0.0555437466589961	-0.4173598576975647	-0.26896706155580197	-0.289949803812396	-0.30767771523995785	-0.20284438082026462	-0.6232649072169958	-0.526448010069162	0.4087541093042988	-0.7909775952396069	-0.9822093223568908	-1.3422918285812537	-1.0003607247845125	-0.1066175324013145	0.6939246636990585	-1.134082195279723	-0.7874527553704239	-0.8058146814028609	-0.6609354598524471	-0.20002560267014716	-0.8497199394707218	-0.6907940489494246	-0.8904684163499584	-0.9365518069463471	-0.8886769391511123	-0.9220972633922956	-0.5731540307833024	0.24904349383419255	-0.7803902606334637	-1.1914563148934734
48	0.4063898612729297	-0.16982363121548552	-0.3888431479650275	-0.4288577724596424	-0.33640354786816146	-0.6511800272713337	-0.6031225904496129	-0.7688134889265473	-0.4598605621171619	-0.3904633810198663	-0.9962173675180571	-0.9010533667703166	0.21959568504680863	-0.9266493297069441	-1.1373428077592838	-1.6510449606218565	-1.3686019147651323	0.31964954653144817	-0.4415903676328027	-1.4038709366640016	-1.1094542713764486	-1.1031917305749992	-0.8554746486999669	-1.0557231876421724	-1.1485711307137232	-0.9253295636656595	-1.0778241130319295	-1.0448805067384561	-1.0916632386302287	-0.9662168001575829	-0.4761902975934351	-0.19088192235914156	-0.6875178200529722	-1.0186576817543085
52	0.2541007095120371	-0.328961401347263	-0.4670506405959417	-0.4342618275645592	-0.5061409460640359	-0.8067398646967286	-0.8291581252144689	-1.0101556752450123	-0.5063974844545015	-0.5631061182110146	-1.2630267111361153	-1.1033946247853024	-0.009233341529005196	-0.9516435837560834	-1.2817286220614927	-1.8564090681889942	-1.547253366378595	0.6668811423630704	-1.6133700568473475	-1.680220242072854	-1.3690623010402152	-1.25770580451045	-0.8789610244493853	-1.870069379853419	-1.4897516928253474	-1.0918896170705141	-1.1421524257433564	-0.9508293843105072	-1.3491736616403558	-0.8924794174549581	-0.24224620996349086	-0.563626943595747	-0.4230930198477779	-0.6236228331079683
56	0.11031493516726708	-0.42631333958757217	-0.4972891795000807	-0.3762183775939937	-0.583571730570843	-0.9302293634770497	-0.9637061929213374	-1.0281474564343285	-0.48111188290243573	-0.7244684677906439	-1.4315607511616575	-1.152556297253344	-0.2823114984060369	-0.9451136565188467	-1.4073271715872213	-1.9918541857974676	-1.570621724931656	0.7157405596782194	-2.3988668858044053	-1.8763806772541713	-1.551149245160568	-1.3104248013789954	-0.8053072074585245	-2.313276523471672	-1.7428162053929028	-1.2185037105313619	-1.1928249567433504	-0.723033545575944	-1.5641416271773259	-0.8333511331498968	-0.0614039039551633	-0.6774572116913794	-0.11405491800122358	-0.1556397672538369
60	-0.0968702358541925	-0.5316749201702536	-0.5849497303499261	-0.37709867859045887	-0.6727739555539115	-1.1318380804095955	-1.1054218979582846	-0.9654239987794272	-0.4875187563508443	-0.9330403781222047	-1.6010906655895927	-1.182893154018792	-0.6528652293888136	-1.056595799639481	-1.5641685684766964	-2.161437744405565	-1.5780376156065974	0.3438201537988382	-2.5907049113668137	-1.9972488829731785	-1.7363882020979748	-1.4020470345384797	-0.774810431431548	-2.2701299133205968	-1.8646119785915627	-1.4342181646376142	-1.4101227486294186	-0.4984785901835707	-1.7038255886929439	-0.9905116533066936	-0.18129366590503995	-0.4876734602059682	0.037193238641295076	0.17118784742049914
64	-0.44305541999536047	-0.7373806815603814	-0.8231219628533049	-0.5536565170614718	-0.9095792747421073	-1.5279889068172476	-1.3783141339788927	-1.0075856421780756	-0.6388034804428403	-1.2701171604514045	-1.90536987300465	-1.3710185254768044	-1.1799398630869171	-1.4030418360572692	-1.8317896081452565	-2.479164832531604	-1.7363332466156307	-0.4163629402138908	-2.2653500976588368	-2.1279594844498066	-2.0458381124342426	-1.6877859788243823	-0.915593860221917	-1.868504757932015	-1.9160087060237492	-1.873789305724459	-1.9290970515183532	-0.4163648177601965	-1.7918324425280598	-1.4896373711169568	-0.7373856883505299	-0.10714277598032973	-0.11434863478877395	0.2067994768166724
68	-0.9577440595287976	-1.1092905970223086	-1.2391259638972645	-0.9511101221866904	-1.3861135209373505	-2.170668358090756	-1.862083907194442	-1.2842296329499536	-0.9902831290992017	-1.7860723688807985	-2.43020533901813	-1.8373548938138835	-1.8591926050929772	-1.9751729915341636	-2.262781852731239	-2.993077508998992	-2.1432692950495804	-1.374719973908011	-1.7020392374935356	-2.3648889005081113	-2.543886416688266	-2.2274827900914786	-1.2636897532029228	-1.3749346698379499	-2.0049831816597057	-2.5485536987809745	-2.720691674039117	-0.5400921092702486	-1.8453533602853887	-2.2352859917471926	-1.6011753041849601	0.28862956093395437	-0.5206636773315382	-0.017138449431898756
72	-1.5962898690929244	-1.6487891632413822	-1.7789750054267328	-1.5149316749471378	-2.093763584572764	-3.0039064808344444	-2.545502179394758	-1.8080533697255703	-1.5034562311360837	-2.455641978739675	-3.151776305824268	-2.575101845915485	-2.579449647113004	-2.6166148119666808	-2.832425348760068	-3.6399602798114485	-2.765738003423677	-2.243041271268628	-1.21640491178483	-2.734468453179139	-3.1628596702829794	-2.917971126818622	-1.7273957685727048	-1.0325790617621902	-2.196007961450852	-3.272199622475795	-3.5479721933432566	-0.80883401428098	-1.8110169126563205	-2.869924538042223	-2.35290765168277	0.5989266022819536	-0.8936752654400675	-0.2570431822009124
76	-2.251490348853497	-2.28693675417477	-2.3359887540967024	-2.1150948947911243	-2.916812889364271	-3.8749077222266863	-3.3257536804155348	-2.4771339830799444	-2.0615744538709526	-3.170985690693982	-3.93358587225554	-3.443671217807031	-3.1422266880810445	-3.09887026958089	-3.4297451886368684	-4.262187470165525	-3.4471065911046317	-2.740399353737895	-1.0104832623718707	-3.155480376859838	-3.7045638467717534	-3.515442124074191	-2.1186044162666384	-0.9383670067937538	-2.449454062953296	-3.70641397494091	-4.041073788930571	-1.0508403751545004	-1.5571058949258023	-2.89416598542975	-2.4291453300181205	0.8822012521404843	-0.8023230413207341	-0.15159343144766957
80	-2.800401442133157	-2.91436909893465	-2.8056886125299645	-2.607790463539253	-3.680250158554941	-4.597348678425769	-4.052929391165042	-3.134469024373824	-2.5258793767099257	-3.779654970163099	-4.586325157030261	-4.229983795930425	-3.350853673104239	-3.2474596418406256	-3.899153937985783	-4.68181751976524	-3.9815730948058925	-2.7069384983383666	-1.11714184002159	-3.4713890464876602	-3.9299890895802947	-3.7460913563562377	-2.2407348099402227	-1.0269623968898962	-2.632331126242797	-3.5208377749242157	-3.868143787154652	-1.057978269766911	-0.9430035328898358	-1.9108416985905055	-1.3936243022065344	1.3289546932999854	0.1160832417060673	0.5973672255692769
84	-3.1589178959246453	-3.4287321480968234	-3.133644334510794	-2.89835786087693	-4.2247247589258805	-5.033136355090404	-4.5938162687667194	-3.643519869188448	-2.7986736226947704	-4.148427475945905	-4.95757292449505	-4.742650020069417	-3.123438827258118	-3.0418651027173675	-4.111419190516881	-4.791489112200749	-4.214463223307257	-2.180709594942846	-1.442924734287263	-3.5353934675601955	-3.6916823293939975	-3.4491293343246223	-1.988884682402255	-1.1511678666614515	-2.5967929297688013	-2.5857384139580883	-2.917654506946375	-0.6876061541363063	0.06949526799060653	0.12817245689456583	0.8023594001539552	2.1290574020037973	1.9341385315700168	2.048125977113525
88	-3.3108336841916075	-3.7714660072473727	-3.326616040413968	-2.969084970607419	-4.465132225207338	-5.144374834423812	-4.87759779652314	-3.934166659912765	-2.8559586929694514	-4.2154769791030375	-4.996673571368987	-4.88552235323531	-2.5589089329009482	-2.625075333643318	-4.021999825813444	-4.605391967590032	-4.109655846710298	-1.3955261672072259	-1.8535391045503051	-3.294762603070684	-3.0277323646396463	-2.6694610051468555	-1.406108733441799	-1.1918716400572196	-2.2755331935651335	-1.0815309258811523	-1.3870578969267875	0.06086473524104758	1.339015003638355	2.818569176233406	3.7201359178078772	3.3127548610971576	4.330199707542638	3.94600104289375
92	-3.2957055485486504	-3.9341254134986845	-3.4233503255243516	-2.859592668942942	-4.402044285150555	-4.986131178664891	-4.901996600172477	-4.001999368100269	-2.733833067667437	-4.000500192078663	-4.756878363997116	-4.674266326547	-1.904634470899268	-2.209120506431174	-3.6804101374211147	-4.236505497726704	-3.7467863465125637	-0.6848593336934122	-2.233395570838269	-2.818658344781765	-2.1535594408976237	-1.6418050486121039	-0.6623758656944525	-1.1216617794327857	-1.7287292436822532	0.5538743124329312	0.28446870970430144	1.0388368341920695	2.566987508014829	5.427018151886475	6.5730857683166635	4.673029887798902	6.680207712473696	5.8062276693616806
96	-3.1662807384658707	-3.934631099303682	-3.446579924464726	-2.6177635126778918	-4.086023797209417	-4.6478123547509975	-4.702838885831551	-3.870220174554805	-2.4826652941011353	-3.569691410588836	-4.3370323071652805	-4.194617260832949	-1.4338542186775345	-1.9354764174232673	-3.1852502742456137	-3.8126845263541216	-3.2539851583341597	-0.32946780240799617	-2.493993514439966	-2.2498459759175855	-1.3475644554447728	-0.6706230623479772	0.032208304770929085	-0.991010067345047	-1.1091654272685962	1.8265265180248773	1.6149808127636909	2.0148549029024823	3.426371088913942	7.200226288736459	8.553166367870663	5.827496037075317	8.315097787844287	7.117490273625523
100	-2.9437775537554205	-3.783074130997362	-3.3698425207888407	-2.256777280831726	-3.5633401780761846	-4.182451714446428	-4.311512459359839	-3.546087971317374	-2.1230299419207483	-2.9806313439455767	-3.802210559782055	-3.5346116930412954	-1.2958334651655299	-1.7804125502457961	-2.614001744346325	-3.383925190965077	-2.719215624619626	-0.41610187187043374	-2.551128857847349	-1.710340495559735	-0.7929816226011853	0.029063587934906064	0.5329845534219521	-0.8567185380286441	-0.5662856683738855	2.432698243674922	2.31007646931105	2.7801861692807535	3.731899013633891	7.709468822088197	9.186613059691775	6.398704035816261	8.819571472788875	7.56467912671401
104	-2.6031565600475344	-3.4648327739974993	-3.1257762830017284	-1.7503601268444984	-2.8456959652579354	-3.5746865182269816	-3.7344045544753435	-3.0088863296835657	-1.6362541872674758	-2.2481586876375435	-3.141220800098355	-2.739135735271847	-1.4251757824201485	-1.5696343143887999	-1.9762713859253114	-2.8852741645446067	-2.1390685981149957	-0.7830237726469259	-2.3172457159665334	-1.2242462604131037	-0.4724227178090173	0.4364421058602936	0.8244614580319604	-0.7162911873852642	-0.15341794452079902	2.4094576774799368	2.3971393047845972	3.2342791475654313	3.548452845197512	7.046560746521888	8.533446290405802	6.214916690394049	8.21654317688706	7.155626278930851
108	-2.1027767605143635	-2.9581921025929283	-2.6566214494389158	-1.0737721892903287	-1.9293999623223368	-2.774399035124832	-2.9720191880530136	-2.24328565031159	-0.999453303674743	-1.35921895160828	-2.295984977647409	-1.818335051714077	-1.5746011694253932	-1.1021749945469876	-1.225853201632191	-2.188803667264329	-1.44225465887239	-1.0958957644450433	-1.7460391477370607	-0.7131971698874301	-0.18741507780917868	0.7097909432610507	1.0034629081186603	-0.5067350255570123	0.1960458899555093	2.095670456363604	2.1830820982174957	3.402885905257416	3.161633006696599	5.757510170705383	7.122243386406492	5.407695756610552	6.93426559604857	6.1868376575669926
112	-1.4384911024014844	-2.275759214377551	-1.97562646367047	-0.2611744695268314	-0.8496984221940121	-1.7746957495705324	-2.063896889244117	-1.2945525613525406	-0.2396157526880658	-0.3277440062831216	-1.2450791565931105	-0.79981219566591	-1.4591405354853357	-0.30641537827376936	-0.3260575226657823	-1.2176798551333565	-0.5742514118954914	-1.023826954164048	-0.9007760859635214	-0.07184998672941623	0.3011418871429033	1.0588412258117903	1.1923747032578538	-0.16650715428275012	0.6028950795210797	1.919438357275466	2.0556933827951025	3.383744231263996	2.913867466245487	4.543580043765379	5.656677231812013	4.34714506959092	5.57451914333536	5.074476229253609
116	-0.684791205584606	-1.4991458616553892	-1.1976324289602165	0.5638607130119659	0.270659237416703	-0.6802156550399753	-1.1254785032466967	-0.30166938824783374	0.534122465692486	0.748596249120871	-0.08462263622376445	0.2167403394472138	-0.9303864813202809	0.6715962869854126	0.6734846813364188	-0.051292043049773646	0.41183945432633995	-0.42773494016419844	0.019120551597481016	0.7233225684977301	1.0933033200317277	1.5810086687225702	1.4356249534600511	0.28739669846453286	1.126524207131996	2.1326274817982505	2.2392902317730936	3.256881467225773	2.9931833668478456	3.8896787068390513	4.653515327148709	3.4455525788099712	4.606701839260309	4.146891106626054
120	0.011096551055012218	-0.7757080177749545	-0.5114610182246763	1.2152106731251253	1.2240744798272947	0.29024195597802493	-0.3411574653118322	0.5272552953759617	1.1511492700123287	1.6785408216059028	0.9575881933831034	1.0508451435260702	-0.081222027335141	1.5094341001548046	1.606536622759681	1.0543103191459837	1.3233237233129815	0.5384531603569976	0.7312402110711238	1.5464938839967843	2.0441985078699005	2.1647744124116675	1.6443332392185137	0.7267825585135612	1.6789648490477644	2.6499288015218534	2.647344105712339	3.0177805347544937	3.301484576472902	3.824352970004471	4.208805073602305	2.937161915039213	4.151301850328297	3.510479202944143
124	0.4875200378507037	-0.2674972408216742	-0.09956892554655193	1.5246192178380233	1.7881591274891164	0.8851830340924898	0.09776580309026224	0.9958549712787377	1.4523913823651688	2.2374787274136536	1.6017831523508448	1.4998480043690705	0.783215401579395	1.8702086163032625	2.239130729744077	1.7614750817648612	1.8881410312665325	1.4790134392590142	1.0025514338930563	2.1499626582223788	2.8071229386982184	2.526184790908984	1.6263470608657922	0.9609706377562774	2.0334844537892853	3.0918376367708866	2.921488992944384	2.5780177051305353	3.488244286313269	3.943635215339299	4.014772881861964	2.764455788308506	3.9704694647680085	3.056155197056899
128	0.6516876800296041	-0.07280313950277421	-0.044044911750216964	1.4347398244873715	1.8337384416059122	0.949504313455851	0.08489445575499575	1.0202167008391174	1.3783980573185244	2.2747490348604487	1.6558694797670854	1.4408144914489631	1.301205870204151	1.595910306715953	2.3798541962619537	1.8206683351325634	1.884530658732313	1.945226545191009	0.7887422422522391	2.2822582664088724	3.0131726188878316	2.3653476178531445	1.1897455423834493	0.8448848106987495	1.9352599333539897	3.0124208851098224	2.640009396563377	1.8324526502120637	3.1413638512454543	3.681219806913699	3.6043367294863504	2.6367099218555206	3.6587073710574516	2.586160653260611
132	0.539573846885235	-0.16550551313098977	-0.27362313797532095	1.047039267757481	1.4104088509236181	0.5273888097799214	-0.3310193113075824	0.6863594037846872	1.0179109547664478	1.8095321609587143	1.1370836467644547	0.9171751118391711	1.2490245072301223	0.8171315172545682	1.9924678752185256	1.2220125167511409	1.2706454960213596	1.6622488456719995	0.28143244910710885	1.8339465810249425	2.48883485165697	1.5552443226648773	0.2610020034876092	0.37716182971143897	1.2551659313936938	2.1807804052606605	1.5792370994750289	0.7498194556378632	2.0319132753569726	2.667664044320704	2.6721997193580806	2.223139042009794	2.914350502285527	1.973560209059903
136	0.3133858136371063	-0.3905321945820857	-0.5847891554373066	0.5913308247895344	0.754099426749799	-0.12736791340141887	-0.941675541407593	0.2270994925725716	0.5837940558952939	1.0556794378330177	0.2995778016633012	0.15428703984407474	0.6674169285136037	-0.08914854355000319	1.2439925639215985	0.2374978208506091	0.23918956457783658	0.6743130070827711	-0.18075196399352766	0.925768551873322	1.3857825959503929	0.2522091561148658	-1.0508298847370463	-0.2753119461738006	0.09606058126276897	0.7522301058850728	-0.12167579649961043	-0.5711653218153925	0.2754055850705064	0.9729872917405258	1.2831492391614827	1.364397164714713	1.7321519807951937	1.2550582854055012
140	0.18977504920729593	-0.5276570306807336	-0.7329922895998728	0.32460981525481036	0.1992302978969171	-0.6526175720903972	-1.4549096786005709	-0.08285847285331772	0.32111561217296464	0.3496316960567332	-0.4606522012047476	-0.5180521594319427	-0.15092655978244499	-0.6781824214025306	0.4518795896088543	-0.6818289739560376	-0.8424788096138207	-0.6695635301851249	-0.3004150085017026	-0.1199991178463119	0.13958376610800358	-1.142644640898669	-2.4819409784596536	-0.8555279948569062	-1.2195291488374889	-0.7754542211981417	-1.9898103425332796	-1.9191819380942896	-1.6893565612102486	-0.9047322250412102	-0.1495538499155723	0.1805358524532789	0.4108493019698311	0.6061377510026082
144	0.33366423761049013	-0.39611834187633166	-0.5506735430165738	0.40751182930102653	0.03301383174071234	-0.7452442627211002	-1.6194984871983908	-0.0632331295205084	0.39131614467051473	0.008490791522881012	-0.7814502100288284	-0.8049441555681142	-0.8103344420001227	-0.6586045010151009	-0.05024313541482575	-1.1084116669326698	-1.584050770574936	-1.8857784223628906	-7.975180758749864e-05	-0.9178088880254677	-0.7295792680440063	-2.1579010432121017	-3.72247933401595	-1.152572032879525	-2.2834033908414058	-1.8018609239862	-3.4307095917868993	-3.0552287024608495	-3.2972571766575256	-2.2957327307913564	-1.0962785454728243	-0.9861846541301488	-0.6210112556037282	0.22093118671427422
148	0.7792089561816428	0.058403320463069015	-0.025752624431798463	0.8310273864745504	0.3695972552504809	-0.3020088665012949	-1.3318691220035646	0.28791916297699244	0.79949915207234	0.1936535234330384	-0.49589383476941173	-0.5730506167248781	-1.0054956649189482	-0.03333767122554002	-0.056712780004604904	-0.8320571759197348	-1.7361068681753453	-2.5863008433847687	0.5287622796060131	-1.1920589178506311	-0.8644494392504278	-2.4667365488715762	-4.545104492156306	-1.1122863264611562	-2.783913843755595	-1.9227919530006417	-4.006223668474124	-3.8142540358563846	-4.118663300606014	-2.708405011014718	-1.2093274562820688	-1.756239171362431	-1.0498162481505553	0.18043468847018931
152	1.4176335298986027	0.7390251737055824	0.6985757333284289	1.4309990369907124	1.1080912323631662	0.5411937819168507	-0.6711940152388391	0.8048824051562828	1.4019921982654246	0.8492529966847302	0.3049372724940387	0.10057894860146264	-0.659487365011285	0.9127856469950594	0.42906418334397844	0.05607997984436404	-1.2836320367829444	-2.6468770437170583	0.9430413222345281	-0.8945445991819216	-0.2336564952196291	-2.02751993621096	-4.884925353114747	-0.860623953553757	-2.6397812299837526	-1.1236184807065321	-3.628551473993085	-4.164604653334261	-4.04629706314834	-2.075337881570578	-0.5123525248943309	-1.9158859204558218	-0.8442397096299742	0.3950022449057303
156	2.059364313648261	1.4500095807659577	1.4019004071127024	1.981895084145671	1.9968811223158427	1.4928617439725855	0.15563043912695312	1.2576467959122715	1.989061708196791	1.7461112693570568	1.3393593992749977	0.9837220286328262	0.06146044268588031	1.7671124890534844	1.2177838056335824	1.2316658465760115	-0.4235410083567787	-2.2304496708823276	0.9694389676413606	-0.20400966652384264	0.8765521623415145	-1.076457140112102	-4.832138526160619	-0.6179799421920394	-2.0128817507468195	0.23642048180017514	-2.569432252118764	-4.19288824930167	-3.308467379799999	-0.7621350269149053	0.6252855642744246	-1.5185801944539175	-0.2507680946217695	0.6569387896164134
160	2.5344045098213366	1.9977545687781761	1.8998987626745303	2.3177022875443605	2.767400734590133	2.264645809177949	0.9274116731116967	1.488616224345243	2.396092408806405	2.6050305300745413	2.2907879294732743	1.8165810062320553	0.858068583229398	2.198925966433109	2.0440466352353965	2.315597528333366	0.556254564311382	-1.6625366168962485	0.591054557261698	0.5860207066045464	2.031936878796244	0.017848513975379798	-4.548406112631369	-0.5591073022077745	-1.1985691755551415	1.6326892334724605	-1.2883698907748886	-4.025499810545819	-2.3096687735418158	0.6560270769722308	1.7070848898703228	-0.8317521193485446	0.3710275879075447	0.7696842531798725
164	2.7726635862919338	2.2829070033609695	2.1293666309001114	2.4101219116396364	3.2608592427894605	2.7133612564245677	1.515181776035984	1.501053687120543	2.578995459720962	3.2279848970930414	2.959880106128706	2.4381353793576057	1.4583448134795933	2.110221142209435	2.696024887907547	3.0593669337278673	1.423082467300922	-1.2391837804025507	0.07337766867231366	1.2211781709356813	2.8780839370542153	0.9487691497690474	-4.163391579606855	-0.7065455299658694	-0.4641086447442234	2.6500034265369234	-0.1857265676339221	-3.738791694738315	-1.3991894686658726	1.711836095302663	2.3858070313299318	-0.17113453106588217	0.7681795339263168	0.6714699847434524
168	2.821608297853541	2.334388727016391	2.1608047430796486	2.362584346528334	3.4809999378055583	2.888591997483007	1.9238910626475247	1.4486125671052392	2.613714211540654	3.5669863133971793	3.3311486160098243	2.843420498344735	1.740847344771653	1.65192472517652	3.0948538702074853	3.4374034317968545	2.092000002347602	-1.07636213030857	-0.19128361296042995	1.5956317146069763	3.2994193947459385	1.606822963472459	-3.7113106157061355	-0.9178837514591166	0.07147832196785764	3.170202485663611	0.5818149432751686	-3.315475693914995	-0.7014774066380585	2.2770147266119305	2.639122717869937	0.2827882461560692	0.938176629558822	0.4791647481741517
172	2.794595234490956	2.2693667354508196	2.1360580867242813	2.327541583860461	3.5506954103468793	2.9654490872852994	2.2506616058746327	1.528817530586823	2.625615113305041	3.7012421991360966	3.5273897558799634	3.1457626740187723	1.763741727190657	1.1093029947883906	3.288583031934553	3.605720987753119	2.621798508700419	-1.0775353881333665	0.06396406127754359	1.7633639529530243	3.4300823125068667	2.089158529729044	-3.138947478952361	-0.9785773133366723	0.45460292582176615	3.3792507563150136	1.1311231823019643	-2.671637766768557	-0.09466826891839526	2.586800568725304	2.752536051476418	0.5793086871779807	1.114752885865024	0.4262182403770732
176	2.7882752348120885	2.209510320807021	2.1729490702126837	2.4018084942259335	3.6080522446136882	3.1118626515976477	2.593875163205123	1.8506522131925425	2.697150223598065	3.749585142205571	3.6930775549153774	3.475495329665159	1.6950185256124575	0.7325255256278153	3.378473034911948	3.765971412687271	3.129462472643911	-1.0249153349748985	0.7904484848092715	1.85944640166979	3.526350489296284	2.5920233661059164	-2.373112910954877	-0.739860294381422	0.8151617029590044	3.6087653545819807	1.7283836559527181	-1.7347637371133677	0.664536891689973	3.060500614068633	3.1320116440852286	0.9532043313755865	1.6124852855025353	0.7326974254229135
180	2.822778456236817	2.206869596631559	2.295728200838365	2.5679454738632406	3.711979618237405	3.3766100321395522	2.973374597671784	2.3615992009619737	2.8149409223057993	3.781911602008598	3.8884940049224865	3.882400741311772	1.7012715296707668	0.6124662741456574	3.435476056008264	4.02673911031686	3.6851818468512056	-0.7247228008092584	1.6282995898144148	1.9931201884493006	3.790929784740346	3.262525788653173	-1.397237893391564	-0.21133951789426783	1.2500905959038833	4.120889653292043	2.5988039904784457	-0.5207393156255672	1.7558157399670158	4.036787499726304	4.0655879871719005	1.6796295600446214	2.6316065721827364	1.4862359724667922
184	2.8394296097592298	2.2222888413588646	2.430019134108322	2.715106480419185	3.814074506666774	3.6646151450140936	3.3118514931032226	2.878005974179046	2.8874413894231683	3.785075893382445	4.060194958926239	4.3014955412027565	1.866922254617224	0.6639038903640565	3.461446753345648	4.346006382460006	4.255515564664791	-0.11665129632108437	2.107721561832445	2.182683462354244	4.257048596124544	4.10228871263466	-0.286722361317569	0.44294279701934175	1.7514821246749175	4.965857970097912	3.7863767051467385	0.8430874922447302	3.167695514310687	5.579884991863072	5.571134553194979	2.9088272974960048	4.135943879175666	2.5991766387166404
188	2.7511234213988076	2.1639337485038777	2.459650987137146	2.721515648646412	3.8067769908160582	3.807848920744992	3.485985270281985	3.197739831480316	2.817867987194039	3.697292556964672	4.0970983401807235	4.5983695867789045	2.175508493652877	0.7106450182138809	3.41250061127257	4.579696166873658	4.724430072300477	0.7071314436225321	1.928693766492821	2.365851873146671	4.79194020015127	4.973701464493392	0.8175163248402666	1.000409123755948	2.219608539699372	5.982989296112666	5.13750408782861	2.1651625578574647	4.6953635097212745	7.456775646456655	7.404742699047742	4.575372207533989	5.869324192487289	3.8597822091880922
192	2.509829514842489	1.957634324853286	2.3069376887251027	2.544327967895647	3.611269941749119	3.681872120144474	3.411283484429329	3.224688283408127	2.583056920205703	3.479422798908783	3.9263431926778787	4.659845340407873	2.550128215073386	0.6111593231029672	3.2594175256452735	4.5937423590073845	4.971148478354818	1.570552941171759	1.1494493455476265	2.4666850504586204	5.201540933827821	5.692429528169501	1.778127665798745	1.308969613585123	2.5430777008699956	6.922747117684097	6.401988013316514	3.279616347615761	6.0539035644272765	9.278003669202246	9.204887366896612	6.421198351860542	7.490398388070984	5.039385782870036
196	2.1457512324517616	1.6020851094805146	1.9852745482866139	2.257252210640097	3.2438931383248497	3.2910628235695274	3.1042830865685667	3.0258257312673846	2.263973945623737	3.1673109451435675	3.5784776120437036	4.469582069556455	2.9137811587200697	0.3443747750170729	3.034904233899493	4.3609804997012525	4.9509444111756045	2.315613979215282	0.16338139731165324	2.465314858887983	5.358979688465727	6.140155776733925	2.5285983021791356	1.369076606154925	2.6854870251564424	7.599568824654486	7.377591114491048	4.125011433677144	7.031661015877134	10.704253169690666	10.674158069363818	8.105804422894186	8.738417603364862	5.990391239300765
200	1.7507971480988882	1.17293965520359	1.5907245834242971	2.0081813284716996	2.8152515817135844	2.767765753433816	2.679484122186979	2.780254595412783	2.0037147948220877	2.8639798092059134	3.1748752513836247	4.118951787085998	3.222913495509776	0.008110986070718265	2.8282866406558935	3.978067626446213	4.724820125094902	2.8710291313164116	-0.5322685228260731	2.4172699390416335	5.271494852108235	6.324042304284793	3.09612750225383	1.3149491515338934	2.7148766449095114	7.976668337709969	8.005732516103386	4.76368998278485	7.586468200603089	11.59352204256755	11.69150730995932	9.342630362764664	9.535048460728563	6.6823696921435305
204	1.42207848666686	0.7782815079112793	1.242328163825093	1.9244825791407822	2.4652526316389944	2.2914714755378327	2.2868471087892543	2.6582868032097355	1.9185748051841405	2.676768057740712	2.8496644424970614	3.7517132664372586	3.463421336012782	-0.258282064739441	2.7300193240857573	3.597844114756649	4.424488056456195	3.254089585671543	-0.6288590415336215	2.410742992036628	5.05251072561644	6.353419764690358	3.5713424592449456	1.3146899905390643	2.756693117811137	8.141883829541376	8.369125345080928	5.332534299738549	7.8355340759813386	12.016176193416955	12.305200545714582	9.99612519601465	9.97427270278369	7.1676177797550675
208	1.2042405574912012	0.4971658276880295	1.0126343939963836	2.028378243093559	2.278912776915366	1.9841901013823082	2.031880135174561	2.7109923294285956	2.020134682323356	2.6440803937912576	2.6630871228692468	3.482153168469761	3.6271757987951423	-0.3694606414050006	2.7656519343168386	3.329345933137789	4.180228222783341	3.5212170988826084	-0.18297864450510248	2.4956476625375963	4.830211627209184	6.358741744199627	4.048196305544668	1.457446094647939	2.904394380865962	8.209086397425905	8.608182885370919	5.956922992925303	7.957908133442149	12.152518241717743	12.63512989668823	10.103651974917977	10.222402546822751	7.511202316393703
212	1.0687094899851786	0.3413183084453525	0.8917446710006669	2.2167899552643493	2.23755239875441	1.848306055170817	1.9275098990412811	2.8421838211780575	2.1992907468582135	2.7035233906199383	2.566123717504925	3.339038125190955	3.698705902298018	-0.3448575726385346	2.867943756492048	3.1741499820678287	4.0585193531565436	3.714692821660731	0.4295858729960579	2.6383538179542754	4.661370265635957	6.4106836157115525	4.572015750785871	1.6992601113332548	3.1515951077046083	8.2236175329483	8.81927201905428	6.678020937271698	8.078597048390124	12.15429684431335	12.7634248411275	9.828969930628572	10.400063488451837	7.735366324921982
216	0.9445568299287609	0.26476532153993637	0.8080949762922759	2.3229019583228583	2.238166088175468	1.7849756434197004	1.908618087718129	2.886065237388068	2.287627691215262	2.7276332309521334	2.4433417258563015	3.2713730252641366	3.670394172938346	-0.28344502973519103	2.912009947100396	3.042989484733572	4.048615922242827	3.84309910757616	0.7582561354566505	2.7382306983478624	4.5114049797597	6.493186934289873	5.126131044797021	1.903237695657128	3.393839350714827	8.140218714189134	9.003386474766193	7.435210686031365	8.20783994509751	12.062931984009357	12.688538519295086	9.382658934746122	10.518774959709736	7.812871913257793
220	0.777032254164586	0.20945131725835667	0.6885544044276439	2.221846098058591	2.1669459288246418	1.6752555328034675	1.8939878892763677	2.7370552947558595	2.160614485054006	2.6065006190295703	2.204496854938331	3.2064537921058984	3.5724670796797287	-0.2841171317079814	2.7943379808447553	2.837760679709733	4.099234093806923	3.9064001938421216	0.5651653990781604	2.6977584293918175	4.308685768693147	6.541415198023088	5.657546505949222	1.9423654030397244	3.500892153484095	7.883670310143254	9.092024780206465	8.108036974463257	8.267779329406626	11.827618569076122	12.364234893099715	8.951057411482784	10.502905819124802	7.706519107435
224	0.5733692035503982	0.15275485775050812	0.5162795769054427	1.9156551312718342	1.9800097892361854	1.468207594025676	1.8511185599320878	2.4454920230157895	1.8211197807109525	2.325656646578843	1.8614796353072347	3.117237083194186	3.4857926280705573	-0.3667282750884281	2.507710450516784	2.5406362946261596	4.174303997944782	3.9356501003081896	-0.020509812929107973	2.501115792635485	4.029565324146394	6.51232431674888	6.118206962397251	1.799002523648568	3.413452139819362	7.444138984959018	9.024482704266152	8.587697007431919	8.180130937904284	11.397891015839791	11.786328285977245	8.65896699626565	10.272833798221303	7.421244602540014
228	0.40414142506606676	0.12387059597689151	0.3477392485898925	1.5440568884966506	1.7389100746120545	1.2182645766971267	1.8196213199450824	2.2114474717573303	1.4117367231965716	1.9878517339109054	1.5364187917065477	3.051199905321363	3.5145356566387354	-0.4443543542133487	2.162570947909174	2.2473187389854896	4.286200035717692	4.002870549586106	-0.5716471061578956	2.247081512499882	3.749802818367741	6.4354305104854985	6.491869910062241	1.5966855247239446	3.2006790557160594	6.935107213630674	8.81910512604933	8.834804512606372	7.952423552462344	10.818316432342138	11.058750124667231	8.564083077743003	9.829583143212473	7.030211907757013
232	0.3595252027971201	0.17872002675710355	0.277729063524952	1.3122068610439908	1.5786849220472237	1.0505374643505165	1.879234666848101	2.2740669193073613	1.145082232445249	1.7624179080335378	1.3928040230872065	3.1015903871429917	3.7275109196966056	-0.36840438749760274	1.9372866104805255	2.118877643957599	4.484058368805794	4.18924139872494	-0.6184662564875341	2.1091654247438387	3.621443977749433	6.407588942562628	6.790474874518297	1.5383865794441944	3.037754289586877	6.566605551353043	8.588355996382893	8.891386963330214	7.703577975850628	10.255499813890067	10.3871917462358	8.669605233238304	9.286980605519913	6.656033975962464
236	0.4890132534078468	0.3521131566217572	0.37497877979972954	1.3748654092408956	1.628064032258857	1.079723117009679	2.0861027188084145	2.760042898839057	1.1889167994045846	1.7901563599212076	1.53255068868897	3.3409581100036125	4.103045453202817	-0.02139608184061624	1.9833497951023864	2.2821290435393253	4.808239447851817	4.529792297370747	0.06396906061711151	2.2420747223513904	3.7866878413916805	6.536037428566451	7.029406052961685	1.7863138869008186	3.112986079939538	6.544005854297065	8.487526872186777	8.845772720891668	7.610360603191692	9.935770963378944	9.998667691735772	8.938321091019334	8.831911064737701	6.417081816684168
240	0.7680476288477619	0.6241331084706021	0.6330144985429358	1.7484216645920072	1.9345122526918148	1.340966221284796	2.4256770549566866	3.589100351808754	1.5743745525665291	2.105060095240654	1.9298744152935512	3.765773048429959	4.523708808921751	0.6039285644542308	2.3447279870916056	2.746846430519103	5.249015794852978	4.97532747919876	1.3158191409268385	2.6940848759342955	4.2876486670006555	6.871965867812308	7.206719380303317	2.362851136917675	3.523339501068412	6.957405072766272	8.633961655752612	8.779863335376922	7.8106956284732485	10.034255002436938	10.037116025378934	9.307914710386493	8.640383698583078	6.374741538165579
244	1.1144076557633564	0.9278066730916259	0.9715332364349012	2.3041067065239984	2.440634721316017	1.7788369610697814	2.8186132836704285	4.499770153128918	2.1813056413890948	2.6209156447042354	2.4480702815236843	4.293108452448297	4.8422236320311525	1.3883261645551161	2.939833395211301	3.3963317785344618	5.743696675104273	5.40805529182693	2.678016655836314	3.3796596441771407	5.033690916703994	7.381171207865799	7.3077130133185975	3.1301345746167013	4.2218236816626975	7.7319836421302295	9.049297309916392	8.733489968184433	8.325091340980677	10.58350751112101	10.497462246140499	9.704354261692709	8.797311760625837	6.512394411810958
248	1.4396383726012245	1.190795657012451	1.2842318979264493	2.840682499389245	3.0197503490500575	2.2938167990945337	3.1731152454371405	5.181043134959895	2.8034949231891897	3.185196391646873	2.9264340326810445	4.809832083956195	4.979454504792588	2.137806886997576	3.611344328345611	4.05567406584073	6.213771327542936	5.711233124618609	3.647198667854697	4.126104821278143	5.846052155039942	7.96785543337431	7.330831032364234	3.8583028219085023	5.044162260671697	8.666668870025504	9.655645346105237	8.704494454341624	9.040458656374255	11.453210801771899	11.233751268634574	10.052474950205879	9.260823226435564	6.754327280157656
252	1.7025656657148627	1.383557792985124	1.50345205881096	3.1957003989598305	3.5477969556880593	2.811348431164967	3.4483213337620873	5.4391364913944535	3.257580510497934	3.666798105518836	3.2820093548881615	5.243164049262283	4.996029364369881	2.677827113066407	4.213391293378323	4.595724094231873	6.6184806656629895	5.852136597163252	3.9465584655302823	4.767165648822218	6.553783877038492	8.534856774716207	7.314237576137818	4.34681938981269	5.798439964913569	9.538337683437543	10.324521992365705	8.677718140627489	9.766418432373413	12.411934821262975	12.0337629014414	10.290508244282636	9.886174177005142	7.0107030691527035
256	1.9273425291991744	1.5389773806817164	1.6390576321227637	3.328504792392842	3.9645519156496483	3.3223419105572054	3.682623138666748	5.299202905627147	3.4724557312078677	4.021216859201651	3.5571899324252088	5.603108391920406	5.08158062605574	2.937303535674842	4.681323993307746	5.003334509615109	6.984414083013022	5.917023643813393	3.6549663451422143	5.225543962636848	7.079050523051188	9.036625839306295	7.3371262365109375	4.523919570945145	6.361360057028709	10.206037495594536	10.941592188866835	8.655128457151807	10.329161617903308	13.230524029706489	12.71184441218058	10.383954975614088	10.489042255622206	7.2187852677240265
260	2.1714901869308445	1.7248110727631907	1.7629054740265695	3.3258230602218783	4.285089481979041	3.863584031840847	3.960985650552451	4.980304228606361	3.5081531912923007	4.292647827754635	3.8772156140665626	5.963276848042318	5.447675214364839	2.972278587466421	5.0413818232092344	5.368656621729869	7.382736664252228	6.067414268433693	3.1303520123602926	5.533545480108731	7.455508690130507	9.485650038612071	7.482687454405149	4.4658698922892155	6.7226157018685795	10.651445361901631	11.443031282144279	8.661910988872965	10.645350429360867	13.765244449193853	13.16591164125878	10.328484509140369	10.911909075843633	7.355940800214656
264	2.4690291819224286	1.9883825728759348	1.950522179447353	3.3328418647543283	4.561161506581098	4.455170620160467	4.34258459902138	4.765739428885634	3.500016918882423	4.557702053007069	4.34491728639342	6.39308212573524	6.182184203751837	2.9206280634574218	5.360773549850357	5.799610600134002	7.866547087835411	6.43921230597766	2.782957546837233	5.784550175367339	7.772282103942548	9.911325429688222	7.783226947207151	4.3350882420761945	6.957372647839596	10.940339060818241	11.808491677034569	8.724892594243736	10.73939606816151	13.982727969152572	13.376909222207995	10.144685719626388	11.067314120006937	7.425074558585032
268	2.7868769098491883	2.3096065462928275	2.2170367184930964	3.4520509155855565	4.821454512820894	5.041686522152557	4.796966063786042	4.84207628934964	3.563740721288064	4.849554049645701	4.94151257221016	6.88520382096492	7.1493477640846415	2.9142963812682074	5.673905358294395	6.319540007848406	8.407968499890083	7.037579995506965	2.836883299340854	6.049050792680496	8.082646349527362	10.302177403188722	8.181700685825126	4.276662338903393	7.1502365885452885	11.1376733498708	12.024429290930296	8.839969612690988	10.699578258203447	13.92527290643142	13.365178074471501	9.868419622301433	10.947269412058068	7.428376179060095
272	3.0275580806587628	2.5973312789190537	2.4923815664307303	3.6752843764019514	5.033924566910923	5.485339627721894	5.196225153201594	5.204229341718983	3.722084274431376	5.115554319817621	5.502229676659963	7.329925041765935	8.010147074502886	3.0038669033504135	5.936524376186033	6.818954450557232	8.88046453141199	7.697308520910402	3.2211918749544304	6.311184390346309	8.341344812314151	10.57645032119742	8.539282777207474	4.3344483266115015	7.323206406223816	11.238396616218061	12.053276031580122	8.955923057832804	10.606102916642575	13.65116402040473	13.143976178362502	9.54034516786851	10.604405376363657	7.351046066798059
276	3.082195989456362	2.7371456553971107	2.654595368358826	3.8882462880194257	5.116708742574716	5.625421509845028	5.376136766211716	5.675689682935886	3.894593228997664	5.237535940298222	5.79076145617441	7.56021068571577	8.374684312657225	3.1377401272708387	6.040008052835162	7.099322301106696	9.107019401445463	8.146228769715952	3.642271032674267	6.4681844547997756	8.415821054191548	10.609764072334015	8.696468331315012	4.438322056055056	7.415592651718102	11.162829370925452	11.839295357376718	8.991369224735498	10.478042576084547	13.195183720652649	12.707880941731602	9.198657966277574	10.123590443800742	7.169152241726291
280	2.8993515895121162	2.6608779363208694	2.6010363036289377	3.9409761329332924	4.989885317601946	5.371209607868443	5.231068597937841	6.019924625456669	3.9514560599698214	5.101752745145435	5.632310853089352	7.443660717290547	8.012906054293282	3.2034220614616973	5.876777634088344	6.98670433187809	8.951616264630786	8.146396616395217	3.7762331867244727	6.392868025851747	8.166729906443978	10.30780598898994	8.558056809752847	4.460108745758351	7.326236229519389	10.818334552154104	11.350571603727815	8.880154587259941	10.269248936474982	12.571448294370985	12.061805694644525	8.875731445791615	9.596067404361126	6.87467477970122
284	2.5268912251570783	2.395426982553813	2.3161890448266234	3.7432274723913	4.6355585934904315	4.771821963660315	4.78601788266134	6.075560077586711	3.799173583929127	4.6759657741745455	5.026865946475864	6.968462926437084	7.010481339874699	3.105884782578927	5.417493329675415	6.448546393325919	8.404046991110922	7.638548354890545	3.4658968361133433	6.020487293301928	7.548995952620305	9.680907225008742	8.15483377305116	4.301781643496955	6.9891328635186865	10.185584042582212	10.629135104999952	8.619227387601336	9.91324708343093	11.808868378388599	11.264882059266426	8.596136071436492	9.100509620578109	6.497933371350643
288	2.096649164628345	2.0550351090998653	1.8901091766320468	3.323630086136839	4.123894204218295	4.013002862335183	4.195986737147851	5.83252809959313	3.442209711920828	4.042433728502332	4.169691075287972	6.2672004541475435	5.768733010032517	2.830640308862842	4.747854220800907	5.636565194204099	7.603774528379219	6.801474554055955	2.808267586293595	5.402823911377491	6.664677126270232	8.867608047984977	7.642086009758322	3.96336935950029	6.4296617345601215	9.36488912125339	9.80673024562613	8.284384706561967	9.381323790706524	10.981609316756524	10.446997616140957	8.37415597708727	8.689544655795384	6.107730373220821
292	1.7557731822507536	1.7768373444519052	1.472752448178325	2.8177130151180143	3.585177174099543	3.3340630447134036	3.6665930655413264	5.411026464152192	2.9845824166284722	3.364012232870211	3.360072842697662	5.558552727970398	4.827708232134939	2.453558438782167	4.038825978572476	4.822585570557296	6.782762510340991	5.9845442620816405	2.0867576546435527	4.694138038227787	5.728918537934553	8.083954790686168	7.229794007167667	3.5438342004948176	5.76382873987278	8.545680978180089	9.063937164310582	8.000547388858177	8.714364983491507	10.202585194577862	9.773817037701415	8.20899484469176	8.380106904806619	5.784497246442911
296	1.5871682126981077	1.6404275852748225	1.1921913593709876	2.3950958191482767	3.143981448818802	2.909619562432359	3.3431448852056107	4.972685801348984	2.5740840370038702	2.803530447557386	2.848158352336679	5.039692389161986	4.597838390186007	2.094589704947265	3.46679042894556	4.260880936355347	6.157212241839788	5.540089116414231	1.6042907197502145	4.076349724968216	4.9660320156602165	7.52306507118553	7.0796456158231225	3.1828269878137436	5.140600191489005	7.914033869789493	8.550025918354667	7.880653838288076	8.009410837932478	9.578286146776625	9.373859381850858	8.079423884020361	8.150863626881986	5.58147762796745
300	1.5661294420755663	1.6192595917827342	1.0831271382642071	2.1668422167429946	2.853422634549951	2.762579434095714	3.2325200952932613	4.62190579201123	2.3208649099881575	2.443174594432773	2.705460064733091	4.788877951929021	5.140449510947394	1.8432320309831884	3.1277959267801982	4.053866853015703	5.82632444818057	5.6431612825968696	1.5212920865750612	3.666456451695846	4.494167793371335	7.25942609861507	7.224850636361056	2.98317646227106	4.661976325662502	7.550844650277991	8.306406953820819	7.96457240954837	7.368131618970498	9.149615264680204	9.266866660563371	7.944537142722734	7.950845698309833	5.495627389384152
304	1.5791040619082262	1.5968711335873065	1.069760081451337	2.126786465043588	2.6690030030575578	2.758773081489968	3.206334821235227	4.361002434210475	2.2386202755675098	2.249942297023299	2.7933790613220295	4.734799849953738	6.11798141842199	1.700735683915589	2.99425529677678	4.10009573854962	5.734840378587326	6.198050483313829	1.783208008078704	3.459972611274785	4.26722716207785	7.214121800328574	7.555736045834489	2.956387750790843	4.3302836308822705	7.384839516114594	8.240870454962845	8.19402120428767	6.8415736979366475	8.85952565817384	9.339303946757438	7.750771502953156	7.718532065931281	5.466052518395589
308	1.4932807646242987	1.4399452173117535	1.0135288212936249	2.1596760695290316	2.477724069061731	2.685673706903408	3.0838177126273165	4.12071846875268	2.241632694306852	2.104984278132691	2.846379511322494	4.70883463624366	6.95000360641533	1.5765060146583159	2.937449209426305	4.154926289558648	5.718124375211561	6.882436258105696	2.16646313120318	3.3420395766756865	4.108405579684646	7.201801758703184	7.877715567726647	3.0202023906748927	4.054751385941936	7.230841141564437	8.17143152081199	8.438578584346493	6.40688131622164	8.573575951864544	9.38782689585368	7.443778972905483	7.406083088296066	5.4031667572933735
312	1.233408805594133	1.0819293233258251	0.7950990179968405	2.1067635959840336	2.164034599562583	2.368945115784125	2.742068999043128	3.8303441904635878	2.1950054113282613	1.8760598850568002	2.620154851020243	4.545963275876062	7.096936207973072	1.3409978117464472	2.799915068233018	3.969112863056346	5.600574002430955	7.306505184799918	2.405984872465511	3.156955949442172	3.814643611813653	7.032537919408855	8.009040812298647	3.046402923521951	3.7115220929852644	6.892182809594761	7.918116549527721	8.558056809752847	5.988886341233275	8.14622114032144	9.211104369749568	6.9838146987066745	6.997322541690148	5.231147276068746
316	0.8219841101874155	0.5684199318839694	0.3845172216720859	1.8531175805035178	1.6770967202759306	1.7643738940515488	2.1903738920223277	3.478441944876836	1.9901405522645017	1.4926001987919715	2.024699921264467	4.178069104136448	6.333769782287577	0.9080032683335802	2.479347461162735	3.4304964455777207	5.294179426178159	7.212316018015017	2.325580352633723	2.7977607179576953	3.2754511750493727	6.615760786519466	7.869514445463417	2.9296309874001456	3.2228643812826054	6.273878081694161	7.398620109951872	8.471815087863654	5.516817078966883	7.5036649514530165	8.709242798751022	6.36701057733915	6.516146643399385	4.926454531629281
320	0.35843229203327787	0.033469352786677585	-0.1431332823000612	1.3866671288766266	1.0591270896874114	0.9734925007083665	1.5612201651256807	3.1190738599229473	1.6011097390758726	0.9789659952242713	1.1662303179860325	3.6630933192275306	4.869296061619783	0.29616796895592207	1.9755320499133842	2.6251161032202415	4.838225829306871	6.603361113088858	1.905023331600801	2.2619514408223247	2.5341415341292515	6.004095539192923	7.511134605517409	2.6371836595709994	2.6053044730212376	5.436614499671085	6.6706738303566535	8.196063974668256	4.976250159097553	6.690571768081075	7.932698706625914	5.642345891058401	6.017487987584403	4.5294055824364206
324	-0.046499341608903545	-0.3791243126357139	-0.6533281786636153	0.7992893437232603	0.42103043092285547	0.1806072439163784	1.0270025704203734	2.8239960599172145	1.093127367120795	0.4318265307967973	0.2808533601822556	3.138929120721816	3.245606891067105	-0.36963972355977615	1.3790885175218592	1.7870432093324489	4.363202560852869	5.735782608809557	1.2647494045750642	1.645629878657684	1.7597516730701768	5.356257425136418	7.078405839214925	2.218638414503457	1.9607387731639294	4.563379753035458	5.899075970061099	7.830705622929564	4.425446022304606	5.853970512869071	7.056180936164348	4.91259335231247	5.5664658405908005	4.12485312374102
328	-0.3361070743657972	-0.5978379234478798	-1.026687857896754	0.23679876267728708	-0.1151695174051287	-0.4438871730087787	0.6994677168352406	2.6231510572962478	0.5848404750363286	-0.03748417263699952	-0.39250761171424425	2.739383929012065	2.0788228459325073	-0.9192027426400211	0.8177009800293146	1.172625181098549	4.009451379189852	4.986206995772854	0.5915564283694397	1.0875366898735574	1.1531521052810147	4.848339545406825	6.729376775917672	1.772838707262599	1.4209762775784565	3.863548745891229	5.272334085504554	7.508876304741861	3.9674501318898896	5.175704942987289	6.2970962365427665	4.310708511913138	5.219880567723168	3.8067178630085903
332	-0.5340061174261782	-0.6592325551555136	-1.217787501121549	-0.17163895027218157	-0.4738106119591082	-0.8191547969163605	0.572243569836657	2.478727096021479	0.18880163085476548	-0.3605256667571491	-0.7272547465082797	2.5232417519759847	1.7707987979049562	-1.2279801337709861	0.3923679878342104	0.9305483079304375	3.8490281007862888	4.662836063056572	0.0556472650255484	0.6959972364019555	0.8412533381203328	4.5832376364386915	6.560844404822179	1.3994400465918757	1.0771226855739837	3.466971388646641	4.912322508807295	7.3351459317979195	3.6905951406760393	4.785055625278515	5.817431912039691	3.957706679842346	5.011730181438394	3.6407403854002993
336	-0.715110717398468	-0.6757570488080986	-1.2639003960170272	-0.3650307944141555	-0.649349568634903	-0.9669838523292609	0.5435137734995859	2.3152432383257153	-0.03454940757373228	-0.5329419361010452	-0.7476923446851342	2.4613935885274	2.3351561964205816	-1.28421592388169	0.14242714607518997	1.0433272096995312	3.860411157398174	4.859912860044353	-0.24054345427816895	0.5055378066650765	0.8241178968603423	4.5534963492823355	6.576920969570408	1.1605051726605213	0.9400429105866723	3.3733689699834284	4.829919326031944	7.345990162422396	3.619152775210052	4.705507266562119	5.665197834970432	3.9173967739382594	4.95083378495518	3.6450505164624154
340	-0.9408370232670099	-0.7549431304944645	-1.242528197012454	-0.35907703547418546	-0.6858309490054428	-0.9633160209176228	0.5020053970060262	2.0871612972969524	-0.08750848450024609	-0.5906128868450274	-0.5778632745458268	2.485069745465304	3.4204707059332335	-1.1909916370839775	0.05457314462592417	1.3677331174650798	3.9661881823538914	5.4303994041667565	-0.2737781994583126	0.4841712999040651	1.0013521884432033	4.673638332011232	6.710803491815395	1.0655699941434957	0.9527849530960056	3.48055314138945	4.946134554772953	7.5090746689991725	3.7049443628230385	4.861090170984983	5.77948568792285	4.1599039926405625	5.025945650762855	3.793117990453815
344	-1.2026210992967425	-0.9213986969572918	-1.209360954092348	-0.21497887318693634	-0.6300228222199227	-0.8687747694969232	0.4166120280237783	1.8343988610683561	-0.0106861078841897	-0.5617551789405912	-0.3424901357586781	2.5556588108388416	4.503689754559452	-1.0995404692545667	0.10217905018757933	1.7408666566765116	4.1019339457898525	6.078515037448635	-0.08087520280922984	0.5795545563370583	1.2539498774340565	4.853091704513479	6.8776912515563975	1.084815380218563	1.0417907211703905	3.666575184147939	5.156381594037052	7.754027823898303	3.863104333660906	5.13111923829639	6.044766410824858	4.561208236622484	5.211208330348823	4.031555165602551
348	-1.4118829929944812	-1.0930144759238754	-1.1592960328396604	0.006112259331559806	-0.4914112376680736	-0.6861498934588307	0.3690034439784053	1.6806327062136583	0.15490415653219866	-0.42977800856800624	-0.08583473392511476	2.704907648886707	5.145174490336099	-1.114483234452741	0.2839308373912063	2.0835874028052435	4.2675089728376365	6.513169749028239	0.2709296338870439	0.7704861740686559	1.5270724258014952	5.060124384502246	7.0231156171865505	1.1780143946469543	1.1724655598602436	3.872305383442363	5.395783887591555	8.012672404086354	4.028635491690245	5.419925676013269	6.359502776302198	4.947519289876879	5.4712719779161025	4.30252455578756
352	-1.4468084537217325	-1.1290723056897107	-1.0375218365223549	0.2715084843933186	-0.23735399484312922	-0.3723021736282036	0.5026447760289176	1.7649112895274868	0.39097684523098747	-0.13504028286218106	0.2413645678625216	3.013344995520087	5.172506796175295	-1.2273756234652002	0.631936786963473	2.4373350081895824	4.524201381704931	6.580625994280292	0.7014987451008342	1.0857939692740146	1.8602288914444258	5.33431385600847	7.139912110421941	1.3204926219025879	1.370717164393581	4.131474961340269	5.664561257365838	8.244316080259322	4.196089257136606	5.699196801101634	6.678131563492122	5.1713461745351585	5.76575945352147	4.55943392556129
356	-1.2275325028898532	-0.9199783182758803	-0.7901532630044444	0.5769675955510483	0.17491815940086525	0.10807524594200288	0.9198444462440528	2.1479253714691	0.6997539383387293	0.3847665777028742	0.7248561960039289	3.5405673891322156	4.716474521173101	-1.3161625828891672	1.1851953238127841	2.9168116972713785	4.9407877797315205	6.311414702693139	1.1268609733741268	1.5803064067995996	2.3496527612490934	5.743253216548264	7.2505926902816595	1.5103369913115825	1.7000980334273916	4.534594047541729	6.003792270761071	8.438103654538121	4.418880928327041	6.003789886575286	7.009770375673613	5.185132967255478	6.056549533811466	4.774511802062948
360	-0.7767464498936095	-0.46654742838369595	-0.42195984614649157	0.9205104685430915	0.7478300314142178	0.7241989355876501	1.5900269706636074	2.7479071547748477	1.0780829163988908	1.1369155616666125	1.3990530932389706	4.251686562294088	4.097904671813209	-1.218851086400236	1.9425330113004096	3.610257378046231	5.522308335666887	5.870226845225488	1.4671149216804125	2.2810265960323433	3.0654261034818564	6.312509997642767	7.373459797362807	1.7547508433861474	2.2069919053623295	5.149797903410364	6.4412588910555	8.598296143757697	4.764892566094803	6.387827857102265	7.382873993353443	5.072668062754268	6.320040686863256	4.940254675789995
364	-0.22870355786755583	0.09837309991318423	-0.023953873603662985	1.269720908773938	1.4073939287892012	1.3570812906334526	2.3268480242156055	3.3487815772384986	1.4858866892492901	2.033262962929859	2.1864955370058747	4.990428911960925	3.6401507762556697	-0.8432579615283574	2.8242657113294976	4.490729320632213	6.170415862717096	5.452069268766587	1.656754012693319	3.1371416966388046	3.9761915106519994	6.976888162164103	7.499302845140788	2.049276108336207	2.8683676647246203	5.951988682024675	6.9461364570720665	8.727165200133994	5.257349477845853	6.872889501385415	7.804860095345892	5.015892016144684	6.5573029352571455	5.0672030320979
368	0.22372907343645065	0.5643148407993631	0.2547093921429466	1.5525011977099499	2.0119759985670993	1.8362616254221735	2.8596429752630055	3.6909959223064974	1.8388562156026957	2.8996341155276384	2.9098544047321813	5.529145703661099	3.5123615176213976	-0.24119371114870433	3.675564756650267	5.40013550348633	6.71013687346991	5.183752523685965	1.663116570088449	4.0122842687395845	4.934390055596062	7.591351013090761	7.595045070546035	2.365055316675904	3.5802712350097563	6.810277444811318	7.427097301805023	8.819555260325536	5.842606529743465	7.424032669396989	8.245973566217051	5.208135114871963	6.794375879299707	5.179568754470454
372	0.41744029416548595	0.7449878435399239	0.27749839355025363	1.6806904035096553	2.4062702595039753	2.017829174669265	2.96466564383635	3.60013054892446	2.0346343465933887	3.5369279295314193	3.3724462900846346	5.675432667708264	3.6761157419851793	0.39807975191700334	4.316142071317144	6.118638023187178	6.972887021579723	5.084415899791257	1.5011198482760768	4.72897576091815	5.7338003967479105	7.998380640816772	7.628975372126628	2.648514740932772	4.195791710750639	7.542132835419615	7.774951438347429	8.870564438358372	6.404699786228369	7.964192370334242	8.653595902529212	5.748795494824066	7.067312699594495	5.30674074740499
376	0.29536408111386603	0.5701362476259435	-0.006717407593307577	1.5947184522420335	2.493996852300065	1.8584225130844234	2.5814316207560712	3.080189220281131	2.0008008429556656	3.8056437873124493	3.460115900840463	5.375868783729482	3.9441084762176204	0.838019428521564	4.614013183388578	6.47818992886509	6.8880400483747515	5.096131311901572	1.2393321959676666	5.144051061994209	6.207015975539728	8.111223200346325	7.595413665668395	2.8404486107637372	4.591892230838227	8.000899294680043	7.920921782522347	8.885766960597822	6.818594915340855	8.411629655581525	8.980391479707063	6.572179777718365	7.391642551833502	5.467398629689797
380	-0.06619977934335967	0.12075889080076496	-0.5273482786215765	1.306198474447222	2.291921371395462	1.4442607127918856	1.8519654227229185	2.322318071224113	1.7408820346748248	3.6919236089954395	3.2071132578940285	4.75850819339974	4.10616921341832	0.9220046973791931	4.547091472589522	6.455648405942266	6.529653055871388	5.147493826267743	0.9859997605225223	5.214726434893163	6.307835562992703	7.962675551337827	7.518814544768039	2.9071640894923916	4.7259945750125905	8.145223596988998	7.873105029255622	8.881604172217218	7.008899671024933	8.71400067990356	9.204273200638397	7.455515365850705	7.734418372653868	5.652212605511029
384	-0.49549338096449935	-0.4115808297733125	-1.1153907747717997	0.9100653506190234	1.9313744257801815	0.9558297371573796	1.0577144596098011	1.6182942349583893	1.3495050634644703	3.3187432205333325	2.7859222818608758	4.084147919833781	4.045107831278783	0.6632931811752297	4.218574990112061	6.189568980802284	6.087217315563871	5.204409586164328	0.8551870562896517	5.019299017631443	6.131765826956523	7.688375453611179	7.433421593018303	2.86045908205721	4.6509957196111245	8.051304796872117	7.707554797740002	8.871412254823516	6.9799980941020525	8.859139420076671	9.326712584789716	8.108560541661642	8.009453753276608	5.816480145074321
388	-0.8072848299625341	-0.8173993209228679	-1.5767900903945982	0.5537278042164431	1.601621027717465	0.5851141199598016	0.48594888922071355	1.2235239713295392	0.982080099487344	2.8932173179058998	2.4241535602400743	3.6271719840978864	3.785204877833413	0.24311304031027084	3.8157448672277425	5.908188804968511	5.772679314343843	5.280635343570753	0.9291505194093389	4.72013424635307	5.862853989103966	7.452674370069304	7.352667313131856	2.759726994222545	4.481676567206583	7.862173537431414	7.519658546535927	8.847131706789117	6.801218015665489	8.859456993623231	9.352757430305015	8.302793481845079	8.103298166796998	5.889599308402897
392	-0.886697826530987	-0.9642394160721518	-1.7778161719259353	0.37442102933765203	1.461938496713318	0.44869351273739705	0.29676738306459244	1.2386386363228112	0.789308903608688	2.6127078467208076	2.2927989901829187	3.5464720636473372	3.458178273052997	-0.08605857171742301	3.5287282377796605	5.808237061141275	5.712542042614571	5.406702027975366	1.2289801804985028	4.4861440545305085	5.675780758832873	7.358372669715352	7.250224571996457	2.6907124451414184	4.330387581382496	7.70394323311289	7.365495663166606	8.771050431041262	6.5568513704694675	8.725634552860027	9.270983672576904	7.974725703132354	7.925282935160261	5.802242741240637
396	-0.733731506402511	-0.8457787015541892	-1.6986329512625116	0.4355342377156894	1.5676282604693041	0.5424197898521403	0.4607200014880084	1.571310277786363	0.8479759671736417	2.5766048366343464	2.42744039876327	3.8155429266917533	3.2178220667659168	-0.13929347658751914	3.468567601029696	5.953500255812362	5.88644598428366	5.586864934167227	1.6986767010716661	4.4161329157912546	5.649899468462426	7.3946189693674915	7.070348244935952	2.720114224241991	4.250034798382242	7.621132354568305	7.232110005239212	8.589429833660454	6.295321925481573	8.4549159790196	9.054244018583102	7.253497582242099	7.459910373926768	5.522751794222896
400	-0.44940572863602	-0.5655444846179748	-1.4306369983792608	0.6953771692839227	1.8477075053294938	0.7578527312218292	0.7947733978232545	1.9954502532169773	1.1236631841900007	2.7476534774073245	2.7222714355402555	4.246859062916627	3.1592285553324304	0.10210120652169921	3.6241285709433386	6.248329146822142	6.145550235491057	5.77492664786478	2.2148582879413454	4.501149643024117	5.740729794313424	7.451814155838077	6.763024313064165	2.8552253174219864	4.215228546944241	7.566362361878217	7.053888779950652	8.264024713632413	6.009438022699942	8.042851427752835	8.683003403675668	6.393664820741093	6.790754301092298	5.0828432908474745
404	-0.1766255344461456	-0.27265360882585227	-1.1246112556674044	1.024433133399883	2.145735735244159	0.9467720365462454	1.0698217126538792	2.269448513023245	1.4847881756488532	2.9811308308675333	2.995581142491816	4.593948352659208	3.2806432164333588	0.4890590297749187	3.8777692220058384	6.499173147958841	6.298129065824827	5.887893185055153	2.621951573427816	4.643633353907056	5.821388706768471	7.393110256602745	6.322026713622157	3.0294179839896382	4.15079115773315	7.44652698544127	6.76373861512535	7.804255465830817	5.660062775626708	7.509892444723426	8.176284769395927	5.648693547292375	6.0774459685426425	4.575242984664442
408	-0.027290023794414895	-0.08634331055537675	-0.9172793007579755	1.2662039963224903	2.3042180480001577	0.9996272300277586	1.130841967588624	2.2544634285273872	1.7647393897323886	3.108323804636978	3.091024152581046	4.6776275516666885	3.499430886016471	0.8023668507345334	4.072860230653296	6.5298433138970315	6.215964778465133	5.847808823126327	2.7855462957625816	4.721345412731848	5.768830761649702	7.140978318304992	5.800977692263119	3.1255988995793245	3.988797654571588	7.195086461021164	6.347279055782522	7.278474312525718	5.224936948935988	6.92147539298638	7.607398013935256	5.158102499336662	5.493794904189804	4.120382775394153
412	-0.031066805045846694	-0.04772802430262073	-0.8734348990322767	1.3123365607506945	2.2482898178557185	0.8973160363430458	0.9661178564475057	1.9743863294344042	1.8425421668262998	3.0304174346707087	2.959941141284802	4.470605362095375	3.7004032041583566	0.8917878843680199	4.097294797089407	6.285637362822918	5.902161106466884	5.618216977239927	2.655997746437561	4.659154880204538	5.543140397381869	6.727114660444867	5.291671739569501	3.038861743884008	3.718672266154468	6.824992162639156	5.863944992519181	6.790343744300122	4.73698137994701	6.380548937900672	7.087310773121885	4.90432404233579	5.154894815781528	3.814806451702768
416	-0.1280924674614792	-0.11678989947157901	-0.9681313013429349	1.1549935311720565	2.026225561748286	0.7140320521446911	0.6961531025476497	1.5915420015206831	1.7020965771616647	2.774973385480438	2.6847445897029947	4.100985993521738	3.7880711459841354	0.7736051659125879	3.9422593017227774	5.870821461160267	5.486474976992709	5.21817682856121	2.3069350661207393	4.472481716308167	5.217636095225172	6.279646857619537	4.877261149490298	2.7446482112253365	3.4032354268934966	6.4328842000671225	5.423043714182887	6.430128558136824	4.2855782400649645	5.992130264412341	6.721665842251837	4.7598857759463105	5.070326315476245	3.6880574133264896
420	-0.20748525805540424	-0.20880487508507728	-1.1127656670132295	0.8884606935004131	1.784945960306677	0.573848186474604	0.49498876804310493	1.3135616746163148	1.4387406074438842	2.4848611292091167	2.434268706851499	3.776460161211204	3.7157378102902947	0.622732220507983	3.7070350553379017	5.499048219148465	5.15256498943243	4.70795105699174	1.9194587420639277	4.259309757923035	4.943769442474236	5.955358490213189	4.587288844924557	2.3298635423964686	3.149915687237657	6.151880725587379	5.127999769615301	6.226142867581282	3.974377383688196	5.816558823205225	6.563103182434884	4.5939707640055865	5.1475930083964	3.6906971838276372
424	-0.16791880088372402	-0.2448163622397167	-1.2070816724818918	0.6588775498921277	1.6939066605716244	0.5867698773828368	0.49185341472422345	1.28139853153956	1.209110853003502	2.345070833007488	2.377771848397338	3.6739816572890294	3.4863033206657037	0.6604872925295124	3.5474655538639452	5.385749326459663	5.039779650361717	4.160585392937914	1.7133364634171613	4.1478719606580015	4.872387873745766	5.857234940045887	4.3819942363730515	1.9681856582540755	3.0552325171581054	6.0827212180105255	5.0222101084749236	6.124889835152595	3.862390985274035	5.839762672939122	6.587441904602438	4.367072571219075	5.243695722692338	3.721062173985348
428	0.033215973442377124	-0.18631446314501868	-1.1863006323427083	0.5907566532478628	1.8593469811225558	0.7995145896752979	0.709308622476746	1.500830288912489	1.152312395047539	2.4877500471247966	2.6051022940666697	3.855855216781625	3.1388966957951405	1.0078033183402457	3.597743978953679	5.642247662604059	5.175798879907218	3.6414739993663425	1.8471209956263848	4.231656540677179	5.077567087705278	5.9857139436277595	4.179120053230474	1.8393533183388673	3.1561367432064475	6.244926436869795	5.070332037522128	6.015707000803011	3.926454057316881	5.981127247014584	6.709809286343051	4.154769886971152	5.237295137533937	3.678241005193925
432	0.3641900112970766	-0.039981938797618695	-1.0420767042553007	0.7278403025370747	2.273462766629443	1.1830354899101563	1.065879938295545	1.8473341418355633	1.3222129311557518	2.9254181311180574	3.0919644754546485	4.252428520910379	2.7404858996818904	1.5907578428159979	3.9063277145942576	6.227015956415747	5.474699006563456	3.2061703124160625	2.331389421298866	4.526297081009942	5.524179921508109	6.249173625427187	3.9092481037622995	2.030953163741355	3.41440581413336	6.574357016177223	5.18505476596173	5.790081009551373	4.069689740396408	6.136572345499076	6.832365972434992	4.089467515157264	5.083353506605463	3.514587155051691
436	0.739951668301632	0.1609689589251049	-0.8128604272346814	1.0174337599815806	2.8234858441592254	1.6575784641377707	1.4336953126949645	2.133861774779143	1.665230627624005	3.5470802694410897	3.7232708836965687	4.7139868617250364	2.3812189042052854	2.1612260287078575	4.417594898514614	6.976764184503284	5.796964630749813	2.9117660448945912	3.0017797871142275	4.969533907741219	6.093980773798748	6.524546606757084	3.5674450307422125	2.4784648355851293	3.7421638871126133	6.965301972923336	5.28265093423339	5.405564294518766	4.174870957324455	6.233059867380712	6.8962192361287595	4.253316391696711	4.822360503419192	3.258379927991643
440	1.0665653917087314	0.3832452883581128	-0.554267464668877	1.345856186329823	3.353548995134177	2.1375184005175916	1.7134189562453221	2.2085993234185737	2.0546867795566772	4.178039063395557	4.356619347063337	5.097683893684761	2.163561815521418	2.43067406994346	5.006472574945321	7.695463637949972	6.033493980433396	2.8208475041695484	3.5784811883223813	5.46011255793085	6.651232225791482	6.729606611427346	3.227997056440545	2.9819188042694744	4.051850308678753	7.329418640705202	5.332866655236978	4.918792712190617	4.170786370237599	6.263096316737251	6.907256585801821	4.5942034605382025	4.5452365760487945	2.995982877796588
444	1.2859203782993835	0.6107769593076984	-0.3084626786073455	1.6032016236836282	3.7446873093474533	2.570738309091785	1.8840868425484358	2.031657452222243	2.360886806249417	4.669688213002651	4.8901095266856425	5.340993867740873	2.1771070902217167	2.2400658074089526	5.544162736246475	8.250999429851822	6.164749606780474	2.980740062817372	3.7963278197761556	5.910216793397229	7.109110814265576	6.864684087587772	3.010174505263199	3.2996215737005063	4.299881447426314	7.636224250587331	5.37309311463859	4.465515602281565	4.071461667271817	6.279751761794077	6.922296029733576	4.925335394821803	4.337255466954756	2.823735229992336
448	1.3978534901612498	0.8453127124425117	-0.08806310571848082	1.7408037141717876	3.969929923524864	2.9531676694696274	2.00322818250337	1.6939324097781023	2.5179986890161996	4.969992148249095	5.300489412276731	5.4840445380034835	2.4603018698564503	1.6683822828131913	5.957562908389996	8.628681161076003	6.263976081291914	3.3878896150883686	3.5413885027165684	6.281371577616403	7.461151581046436	7.002356511556589	3.013851158162242	3.271309844340834	4.499631393516232	7.91436002640488	5.48026321934848	4.197926033865367	3.9658944506651794	6.357471926850538	7.006522637797292	5.017397391049331	4.2347321403398235	2.797782890885496
452	1.4490637742650496	1.0923503609734648	0.1179054600003787	1.7882714226395897	4.094683159980522	3.3125984585096617	2.1604838316729884	1.370123978970274	2.550145858048195	5.135392652897417	5.633780942044381	5.63168667325084	2.9635143205207752	1.0129413579162017	6.249172194915716	8.915060020826598	6.444340212764029	3.961695184242066	2.9218180105827134	6.583788378305511	7.761891345454377	7.232491474964812	3.2599489606567493	2.9034032748351386	4.696591365400548	8.214943865062484	5.716483578554327	4.210314263204207	3.961959113608465	6.541569693261956	7.188117485971621	4.734041678874109	4.218302239258258	2.908437006283001
456	1.4995048008253204	1.344265695992652	0.3233975163877844	1.8238223745075348	4.225829590618647	3.674727430602576	2.4155635772753117	1.233541485533068	2.5452468330971847	5.280671106357529	5.958546623444885	5.881096825056443	3.5401148706702235	0.6466014964944719	6.470400317068351	9.22628114278254	6.781927091641928	4.5486755256250735	2.2337365094055235	6.844600660209279	8.072575548771537	7.5960221098807255	3.6684305575258227	2.369341129043013	4.922837721793441	8.561746575673707	6.080162509826067	4.489451873888612	4.117092122173701	6.815418703038083	7.436622600853239	4.126346577716742	4.240571011327279	3.090033761805959
460	1.584325667195946	1.572294231259831	0.5233682976860379	1.9151545714662743	4.439069736717231	4.031428803755947	2.7552258898790503	1.3730841840409251	2.5920934611679955	5.496229634713442	6.310015185637346	6.256153090894185	3.983164300398799	0.8246555903595036	6.667108995770928	9.624630903739694	7.259120445997434	4.965491759161337	1.8260987950950491	7.067733746804125	8.406506517166724	8.04673097486218	4.08711813848473	1.9234495114401435	5.1596031058697385	8.92002866400253	6.49132822305189	4.916343199715112	4.397920120579669	7.103897076790947	7.676502685239055	3.4294354829033975	4.264208782874045	3.2577233232264553
464	1.692106481094663	1.7322342352047762	0.6849341971270612	2.068265194439387	4.726459968077822	4.329987038170617	3.0917048376226623	1.750396724096298	2.719456665802489	5.781708225911623	6.656338674905786	6.6833376715722395	4.104477872022444	1.54419838992299	6.832808477316688	10.070699666346389	7.758861045321647	5.068295466024585	1.9295948695102603	7.212419491678086	8.706728913259322	8.461755731199597	4.35730217787216	1.7696250632430026	5.331946836361126	9.201865172995552	6.818953496882918	5.317355142519793	4.690341937620915	7.308239918377081	7.825286368640268	2.9519364759302555	4.283724774035709	3.3485162173606287
468	1.7728755429329772	1.7831619932930538	0.7595302443401525	2.217951292160221	4.995769011282159	4.492525089365472	3.3045058166996495	2.219153875470173	2.875575058352664	6.037673458114494	6.908054811202637	7.023328286558572	3.8271982573202856	2.539621585156065	6.902246934630386	10.43910882221556	8.115013102070154	4.815771567583777	2.542394154805437	7.2085909661445395	8.872227646361985	8.697011925673992	4.3832511791189015	1.9617084215226872	5.342912660460637	9.307934737547088	6.938069326049954	5.539055810295014	4.855976569313324	7.353306274922235	7.834415416011018	2.916850082662517	4.317934025353147	3.3450422202533105
472	1.7707370474931248	1.7088623003730374	0.7089143377525523	2.2644884529161393	5.1219248642351305	4.456537712289584	3.302054158456938	2.5944528514208276	2.9582407399829425	6.120946391864211	6.965476018485641	7.140859109015741	3.237544051579405	3.411223164528969	6.791121942540345	10.588100406617226	8.192006090462192	4.290884483948052	3.426919451644491	7.002403241597975	8.81806276002413	8.657991387442431	4.16898583313277	2.386943811112218	5.130225645464173	9.182613349618864	6.787329179793573	5.509786591924087	4.8050279495994275	7.223023396375435	7.711359958252856	3.3427052413468576	4.382275570295681	3.272446862541699
476	1.6609682994868782	1.530214186619674	0.531181930154561	2.1364276355209557	5.020630346973785	4.214178551524529	3.069813720581985	2.7363431384618813	2.878565781001363	5.931672558113566	6.777659399086786	6.974944097075017	2.5618891651321936	3.817576160329198	6.457732661155509	10.442678425172858	7.951756457279702	3.668028822221051	4.222017277548439	6.602879030723132	8.533317544373412	8.348101594828831	3.807213535233291	2.838658564076362	4.711555945898654	8.850811935966837	6.398440821705598	5.261022554466218	4.543239105198125	6.96652172237094	7.513197403058588	4.033128251383492	4.464305389577101	3.176178685752282
480	1.4714245759053715	1.3032578197000078	0.2736290686374611	1.8437763405979029	4.703653800532863	3.830468406542986	2.6831321648566018	2.61098169621247	2.6219336920344287	5.483515248759215	6.38282488165103	6.575172884552849	2.0759229607622163	3.632451048263025	5.9493651239868655	10.046457265284548	7.476099949081205	3.1420454899613848	4.614132392677828	6.101186260078163	8.105035761397103	7.871634463463436	3.4297599705887354	3.1339046875985157	4.193106640719575	8.417889573778611	5.88509367410641	4.902358519574639	4.170584191283031	6.676111681295073	7.318725090622337	4.682395446399523	4.523964393637902	3.097255460548712
484	1.2733775345123868	1.1002912493582622	0.020403252863034658	1.484746094769748	4.2819485556258865	3.42674159138493	2.2769370021553392	2.2994120062947623	2.2659428062449867	4.913467871658407	5.904801830642346	6.084766372576895	1.9787018249145365	2.9835250302328262	5.400178895667617	9.551680540764696	6.933660489696338	2.850933783008993	4.474477279810208	5.644823536926169	7.690915088309357	7.390387039599123	3.146591893834794	3.2045881667291387	3.731890430565065	8.030075052968197	5.3972906930076725	4.566676128301794	3.8338563345434657	6.449576838422194	7.194984417869567	5.0347623697957715	4.519361484561389	3.0571050566736417
488	1.144925710648464	0.9809218620329929	-0.14190036022599506	1.1996401518097617	3.9137449165713805	3.1335487286608155	1.9863903472339919	1.9520479391404615	1.9436248491806485	4.423315990724291	5.504185662677974	5.677720055550389	2.2917828502013533	2.164220804472391	4.977958189793925	9.151587463161553	6.5075635745734	2.829699270733504	3.8953156372905178	5.376392350927867	7.451936226150269	7.055372697183234	3.0037782116392115	3.108113281032163	3.468696108643507	7.813674430193022	5.062776075932319	4.353625286554539	3.6595759299389257	6.355145915198696	7.174983006482077	5.011454569561649	4.441520679704207	3.0587809008619153
492	1.129506704339737	0.9676405166990935	-0.16210769075950252	1.1000024052504098	3.727475633746988	3.0359370631815534	1.8900175046886136	1.716072674233312	1.7750548079497528	4.185107220573757	5.3091144427725325	5.483439908488409	2.8470303940417976	1.4771470986265192	4.807455527565711	8.992033935732355	6.320445998446704	3.015945665374361	3.1182582299659	5.369203553948947	7.480473499485202	6.946991902931723	2.9773480817010585	2.9626908227506377	3.466653576681501	7.8233232300649025	4.941418635290231	4.296059597612965	3.701498022270827	6.411976321244177	7.252908688353205	4.7353863596568475	4.332146633654666	3.097025863457617
496	1.2094705074291685	1.0350918743702868	-0.05075043427051859	1.2071807354012583	3.7589495087133002	3.1353285233493153	1.9777753303184868	1.6645743804866848	1.802106733540633	4.258846272206431	5.357795224967741	5.531988129953971	3.3648691092413388	1.094066974738662	4.909262167933674	9.105804420369429	6.388120635116663	3.2915773308619296	2.39981006970095	5.591122136304916	7.757710437261808	7.048057538357709	2.9979581757194573	2.853219501921069	3.683293571709489	8.021133402600148	5.008370863667335	4.358067501509145	3.923298825849017	6.587757570800372	7.391709309035482	4.443077076184652	4.265905369478648	3.164036504386454
500	1.3102047410310402	1.119604584728202	0.12047796666006721	1.4363896810505887	3.9364192386424293	3.3479878817906736	2.1582698767530406	1.764617915466643	1.9643974254602952	4.566081989204173	5.582689748020542	5.745726570881619	3.5854117779807866	1.0022022698848436	5.189424024831314	9.403112387758446	6.620954019996344	3.5372109323840983	1.8921481323153755	5.917949184735129	8.162493685141197	7.2594628150761595	2.9893708153590586	2.7697415281938422	3.992045154029331	8.296248415028108	5.170962797460931	4.459288585848312	4.221971978018524	6.811919195142866	7.536992530867163	4.341942776208058	4.30515288219694	3.2472412504227197
504	1.3373165096851238	1.1474482984182792	0.24845784839843055	1.6374479490900236	4.122454156004157	3.542529812451846	2.3008260668838436	1.897099370935077	2.1303493922806864	4.932723986569506	5.844934448743936	5.9792461244302215	3.390775433562528	1.0543074581230416	5.485762105442995	9.7210721724171	6.868525010887401	3.6723165419367882	1.6018303592293877	6.1903409801594655	8.52664087050111	7.447735290797106	2.899334184955886	2.6188924246470875	4.241499413271956	8.514105775317914	5.309960828726206	4.51134918981233	4.475739944601942	6.999142152281257	7.6323170469228785	4.497533786862592	4.4555883295099985	3.324733010480978
508	1.2249225347110178	1.0674296590557926	0.24204805432243537	1.668132539352213	4.186235894124374	3.597199430920386	2.289859527528597	1.9128388118133075	2.164288992185842	5.174618707943645	5.998781665915323	6.084356292621876	2.854944937173671	1.0784603330086557	5.644464955384105	9.902828191550496	6.983601075660339	3.66647647885644	1.4313344919306614	6.284605010378015	8.707403160999318	7.500514011519566	2.7112257412169467	2.2973098696881316	4.321798313673469	8.572296120935158	5.326766477487487	4.4506034738707285	4.592197406618706	7.07627580763461	7.633356551925137	4.809154975193256	4.652155387576946	3.365293971148225
512	0.9689908599230707	0.873869118868369	0.05995099231365752	1.4615064822490766	4.065738190876355	3.4499735745110898	2.068724627040156	1.701027746674251	1.9929009625663703	5.178516374864956	5.953202709426395	5.970083221621325	2.1952257100947947	0.9744792556001317	5.5851750232828214	9.864818548091774	6.877228719514108	3.5279605299568915	1.2647768227115916	6.160762771310804	8.641598679659111	7.3659801297181176	2.4375932155100974	1.7764990284890143	4.206353653778171	8.43818185583187	5.177689062397563	4.257423866967103	4.537956226335731	7.006196958019061	7.52012537011263	5.083279596846128	4.7892184136591185	3.3392672454448933
516	0.6299425943682575	0.6084635838405166	-0.27492946316924266	1.0537344190696178	3.7882845306118926	3.1180734555675627	1.6551294284994225	1.2399095265555036	1.6364524323154983	4.938676821637485	5.701106057078259	5.631331906406033	1.656447644819947	0.7496750931885817	5.323076711566626	9.620162939578611	6.543618185688425	3.284545413307662	1.051866767134941	5.8668660969429585	8.35806176936423	7.0623774350195525	2.1068212932800305	1.1480770082097826	3.9517805476551593	8.153522470869413	4.884256827420634	3.959283818739121	4.342372883323672	6.802189809791454	7.306207161576793	5.1607055533767205	4.781717288342364	3.2383129514950664
520	0.30213785095226314	0.33946248803263385	-0.6899908167584594	0.5602493868034323	3.4409885319617532	2.6789257458761333	1.1251443596089297	0.6074907764355936	1.1911327808824492	4.5353784446649925	5.30353878589574	5.137240873717946	1.3934853041752693	0.4840931880172841	4.940870272559682	9.25105569411159	6.049417957291385	2.971276514180987	0.8367840030524236	5.501144395290633	7.947291830978718	6.658344251988125	1.7537840560503313	0.5960756525248998	3.659206857979408	7.806924323398541	4.5174999123004635	3.6197485832377225	4.078241814807189	6.525320990300051	7.039152127613591	5.01078699754185	4.620300281303614	3.089513770886251
524	0.06679221225802832	0.12919823792739926	-1.0966734858481089	0.11681384563755706	3.1134076039863254	2.2265255394988026	0.5770138487552773	-0.05071483912180666	0.7771217207361679	4.076144684990706	4.84316157071897	4.59061573776894	1.4109713995595878	0.259943812429261	4.533553588865157	8.851946808400495	5.49768875641386	2.630053990399547	0.7228375058997727	5.156656252239483	7.509219150657743	6.237099154937653	1.4164280855657085	0.311509131598769	3.4205751332706162	7.489796142741694	4.1640767946014625	3.31630920526543	3.8303329847903984	6.262045844480381	6.786735994370265	4.741280543754515	4.383294571300189	2.950518839062497
528	-0.04559816781094877	0.006102746337145414	-1.426125165199734	-0.18106102897706894	2.8490316795897233	1.8281983090973166	0.09309286600689502	-0.581064043962184	0.48334714648283655	3.6392328647284464	4.37816332665372	4.082531441871554	1.5863810737611912	0.10783810886336269	4.162757863025203	8.479084947159263	4.9864354007710565	2.311921829108637	0.807859776364586	4.881740557743149	7.109804135491853	5.863536343075633	1.1350595922422821	0.40030017394089257	3.2791695511996526	7.257917385850325	3.890672912311395	3.1142198960832737	3.664778461740366	6.0885920370874995	6.611348135468595	4.525182712574035	4.194107521912117	2.883643858304826
