time	FP1	FPZ	FP2	F7	F3	FZ	F4	F8	FT7	FC3	FCZ	FC4	FT8	T7	C3	CZ	C4	T8	TP7	CP3	CPZ	CP4	TP8	P7	P3	PZ	P4	P8	PO3	POZ	PO4	O1	OZ	O2
-200	0.2474119507980362	0.16144460398921162	0.417687623638357	0.35478827267716745	0.5674139246919903	0.9255754924293819	0.43679574021685313	0.2240749144857255	0.5989015087265666	0.8665087201175736	1.0320947144199681	0.9299631095295102	1.156071302356164	1.029396054529931	0.8606712200369445	1.3295712437439853	1.0512373420877021	-0.020231077396455046	-0.2655725174397691	0.5482916222080735	1.167016980085792	0.9263687706446947	-0.28547951507017283	-0.2820051305326649	0.2848467521628349	1.0156941388235583	0.9940589045222554	-0.15011534056910006	0.2256840014720194	0.410692005312666	0.6992290002335179	0.1829523588568229	0.41611698164784616	0.1982813025475217
-196	0.49862971776001713	0.40589862959425355	0.5475410805229567	0.5711216316108825	0.8527371861862789	1.174799320115887	0.7665042857844893	0.41994240773987246	0.6870201808749989	1.0785605880209148	1.3174959387894263	1.2214063375153055	1.1889963120005143	0.9885089372472968	0.9069148875227295	1.4984183273630975	1.2299313514174268	-0.30722919028915546	-0.19149698268702595	0.47698518513415283	1.2860431638673109	1.0374224159751206	-0.3885057558741282	-0.342822819082652	0.16101273853658188	0.9536125039819778	0.9782468055822272	-0.3417251399472398	0.12801760402783033	0.32711332953834554	0.5360216484841693	0.1003276777714658	0.33207911169133547	0.03644725298620181
-192	0.6895459872956238	0.6622633321254007	0.5992838725218352	0.8034669140557306	1.1093683214788994	1.3307329382677247	1.0560824844399712	0.5794573411616751	0.7774743418137688	1.335845347846492	1.5532977541807171	1.4207090103519584	1.2751579252473326	0.866907832817982	1.0389531824583773	1.660119767765998	1.2905167308649885	-0.3037418119391193	0.14508749507989444	0.5450107441493403	1.429734703268929	1.1336179943073843	-0.22912047745554587	-0.21273603981666817	0.19711403498950988	0.9691362356513108	1.0576238605499713	-0.341068266961151	0.17202871994454497	0.36257246045124597	0.47822525976557395	0.09662849431675503	0.3708226969416466	-0.0009049424529511086
-188	0.8816655255945957	0.9257457232944306	0.6792092306154838	1.0491030189729735	1.346844550546993	1.4467016421985648	1.3098884787866605	0.747126219770487	0.8834480024921034	1.6140663583058557	1.7444699958626655	1.5485345086101627	1.470741983515127	0.7059676033315863	1.2393898932636636	1.7927662088907537	1.28135561619543	0.09244859195256386	0.6616413576587398	0.7154449802455244	1.5467025002529715	1.2034945457590758	0.1637074198165903	0.06803730858075908	0.36068060903085153	1.0106666062587368	1.1618444890252428	-0.1625236864755009	0.3040518156958134	0.452910928774799	0.4869893776996082	0.15215623340337905	0.4703038024949243	0.06770180148674608
-184	1.0879504653165437	1.1456617088002923	0.841032264493419	1.2649117676270225	1.54841255750726	1.559561487075059	1.5109282693862616	0.9363803243837612	0.99168890464268	1.849026556115043	1.8885073614123973	1.6357204872795046	1.768155927962288	0.5666236267089088	1.4472678863225013	1.8740620565782626	1.279864307986915	0.7934598902696556	1.1897765367986544	0.9147480107100451	1.5976735313132469	1.255867597270218	0.6737411005175952	0.3993273069313249	0.5818243012043747	1.0322318051026054	1.2379655806757068	0.13632434572133537	0.45580497268991654	0.5369522558006979	0.5274813161883793	0.23880286454467137	0.5679556713069861	0.20174297639456334
-180	1.2535490958035986	1.2453122107535939	1.0481359932185792	1.377830978729563	1.661940332031421	1.652090783716445	1.6132489402094696	1.1123633356620115	1.0584851476648012	1.9507282923084661	1.9568802068894915	1.6930743413140823	2.0784327931380817	0.48681002732393186	1.5694377382708269	1.8727654171390924	1.3392159905000303	1.5428891142991594	1.5468149146127341	1.0489249202948343	1.5543701609468084	1.296963569227618	1.133689400671645	0.6591578109311539	0.7680681924501574	0.9986798142014457	1.2594891754776272	0.4663185465483363	0.5594227299871295	0.5711131677513457	0.5729180559952324	0.3200538150336166	0.6162323340116372	0.34724831493443953
-176	1.2898510661938176	1.1658925980695878	1.198914405656809	1.321515795232219	1.621709938723264	1.6565451580185533	1.5615432222995478	1.2088261812207735	1.0280610296996224	1.8408077908770042	1.899882431001903	1.697368617540728	2.2622835579021747	0.4534956503385693	1.5154892167929592	1.7506306127218063	1.4473013841327804	2.030275101304102	1.6116696555454884	1.0323320601148644	1.3956212962200474	1.305560943168314	1.3880697453739397	0.7501084189550047	0.8296706059489537	0.8821460582395616	1.2113689153604719	0.7275826912630059	0.5586751089295994	0.5291202054969857	0.5931741580292041	0.3530284157422949	0.5842458591015507	0.44454547650633847
-172	1.1406215400508104	0.9101773477462736	1.1979310482297874	1.0807055207623866	1.3931784594647403	1.5010436735402461	1.3298945393364308	1.1694651812591152	0.86674606581247	1.4985985718084434	1.6775709348285663	1.6046134192962136	2.198028320485058	0.4121041883554415	1.2438336579390286	1.4808533154292955	1.524069305386714	2.0409624525039254	1.3677996362484812	0.8222075680001142	1.1107836933701623	1.2270060746685258	1.35490786687185	0.6344582422450402	0.7109815460374331	0.660857437372633	1.0692833635036272	0.8350119569677252	0.4202691604017062	0.39564755459076184	0.5430440292952969	0.29831558390640195	0.4532148230554191	0.43809130677242003
-168	0.8364400246482933	0.5585018978323194	1.0281760666637485	0.7167139631295886	1.0139719222217662	1.1713899344433425	0.9561907624898726	0.9888734196491781	0.5941400512953507	0.9910956000100838	1.2998957601152954	1.383382793748505	1.851298565958855	0.3097666494178045	0.7958149293834301	1.0748202773614128	1.4616324864678139	1.5626026352531108	0.8973665214770431	0.44425177461994925	0.7119396906997785	0.9956738923683672	1.0570121976868305	0.3448318830367013	0.41635092987799893	0.3264464429719598	0.795717535394113	0.7422237377500887	0.14556048773731534	0.16478030341983857	0.36617043521938364	0.13708931173045136	0.21643680279446148	0.29047325180149186
-164	0.4978417145557536	0.24249122975638268	0.7756252865282152	0.3543212702865314	0.6005819424724764	0.745694158578729	0.5461095557730004	0.7263914924401772	0.2896675460177747	0.4641930747233346	0.8472676851815639	1.0471384498861367	1.3057182994301237	0.14309784733883169	0.29446446821254235	0.5978407844708217	1.185519692288833	0.7913245538759685	0.33588912998272624	-0.007038089894615279	0.24509668288338762	0.5752820954103453	0.605924545188785	-0.03270089245527044	0.0156854800483935	-0.1038051990033971	0.3600309482067624	0.45625609044276016	-0.22300167325460948	-0.15324945709160556	0.018975881811750653	-0.11423813522821996	-0.1132016104581929	-0.0024049312281239606
-160	0.2811281077916541	0.08878361411328722	0.5882488474299146	0.13078117337586398	0.30733144205700946	0.37365949059560194	0.23704403578991856	0.4827563154429922	0.06453915669120697	0.09022519714702398	0.4514144945668462	0.6639919264241675	0.7325963359456297	-0.024986991595720712	-0.09969736610513802	0.15752908547683478	0.7039893251764857	0.03558869650915383	-0.18564142239907544	-0.4000552584561288	-0.2124745542406987	-0.005741195738721618	0.14761476181431263	-0.3945500244669612	-0.37843057417692466	-0.579852400746249	-0.22847244085802276	0.037290464992549156	-0.6086857303510337	-0.5235437737598135	-0.4966431247569914	-0.4030808796242559	-0.49519538754369713	-0.40248945253796525
-156	0.2935697726944002	0.15791495104497524	0.5907439574585576	0.13071550395864848	0.2535749071394785	0.20541062899226753	0.13598477806090728	0.35099676162793275	0.010110814098818428	-0.007092248630498868	0.23980006515040714	0.3345960668222336	0.31255239169363863	-0.09502344554513449	-0.25788372689941275	-0.13584624196563785	0.11823509603689615	-0.43099033723735447	-0.5809493050212811	-0.6182707532531644	-0.5731268510653534	-0.6455632431897506	-0.20108483680977632	-0.6571850760080035	-0.6542009694748577	-1.0246090863108157	-0.895102141027743	-0.41658228530611047	-0.9217305160139186	-0.8841871596900969	-1.1105731697653471	-0.6566611511817506	-0.8608452655992492	-0.8322420695273614
-152	0.5278938995384729	0.4105461229449465	0.8052934387856161	0.3417665353729318	0.4576114106545635	0.30738240402816375	0.2640026801119607	0.36917111184373513	0.14941491148895167	0.18629823578051954	0.27059227159846694	0.14813519976885497	0.151896789286488	0.007550896592000491	-0.14325353467059193	-0.2195174688518996	-0.41332709684921065	-0.4889045941406956	-0.817380068622654	-0.6090634449840217	-0.7709358911123508	-1.196456786949635	-0.3935734917717491	-0.7807958702401362	-0.7451463322899815	-1.3537660802994154	-1.5052264890814433	-0.7960664013791026	-1.0884494754013434	-1.1571469277730648	-1.6898984866391782	-0.8092457035614042	-1.127008554474218	-1.192761775820048
-148	0.8554191567758211	0.719502685637654	1.126607176797314	0.6557233317032224	0.8156965354352237	0.61438464963291	0.538744686673858	0.5012980090836179	0.41917833580042585	0.5610004649303507	0.4952692376983874	0.14030179345947746	0.2387842976978707	0.2774597697405367	0.17010189549891688	-0.11094877840878889	-0.738607166332828	-0.20639792032583443	-0.9000645853206339	-0.4042986621185873	-0.7878415564673121	-1.5170868596874851	-0.45154484992464083	-0.7719156126560504	-0.6541039331134084	-1.5015505514381362	-1.9039148044200669	-1.0103940938235119	-1.0760192843926875	-1.2709650961258383	-2.0768148846643832	-0.8270544388870775	-1.221879956021495	-1.393182154952707
-144	1.087422845002324	0.9246351099511347	1.370115872738605	0.9199888086933343	1.1466510266917764	0.9534755325086297	0.8118983486657909	0.6596108062303032	0.6973481756723791	0.9328024363808621	0.7775659541525574	0.2800232164942423	0.462727187895752	0.6195952280613743	0.5347521291583035	0.10125146035618486	-0.7687139491700237	0.22205519620144948	-0.8450121262196684	-0.09842929219190436	-0.6553527100229447	-1.5219327172954897	-0.4241559196730515	-0.6650684459107379	-0.44170632846892044	-1.437440630144615	-1.9702094743576695	-1.0094143126751678	-0.8980842210029716	-1.1836625307716102	-2.143410677266631	-0.7151607852999529	-1.1096847029325683	-1.378687497472823
-140	1.0748794051688808	0.9073963142373649	1.369686361669438	1.014759657205129	1.2840360370642119	1.1325855226531918	0.9458974575956641	0.7561840395909104	0.8634096362249464	1.1329529256826596	0.9631945466518772	0.49210643644065616	0.6857831460804537	0.8924639202473555	0.805482385509077	0.30599215549461023	-0.5035114275617637	0.5949712976692896	-0.6619192345119811	0.20343831130162948	-0.43131840120136994	-1.2072817056692529	-0.3384361556568376	-0.4968433665606088	-0.18729399097362318	-1.1697157591851184	-1.664064403147274	-0.7930029014593164	-0.6007113441559571	-0.8970010257962032	-1.8414245797395827	-0.5055851923575533	-0.8037910441132008	-1.1477695674528074
-136	0.7931368330957886	0.6494529826933272	1.0701421472233827	0.9142650938792941	1.1663756341096279	1.0464664671226356	0.8896036721657403	0.7538661937753818	0.8586450793522101	1.0928404303615706	0.9637479161725748	0.7022577506454877	0.8212432244547279	0.9809128021270099	0.910833714092883	0.4316061128209744	-0.01891811187259311	0.8048177937215094	-0.35610714464878274	0.43757510074764605	-0.16616472559938003	-0.6449680312085263	-0.17669416919443118	-0.28749895023238686	0.05379808308012482	-0.7376019936058736	-1.044227120624078	-0.40788495437637845	-0.2388356321980539	-0.456754444876469	-1.2252365319789018	-0.2367602133733759	-0.3627901664157384	-0.7533458452278063
-132	0.35777836947709807	0.24158364473384045	0.5602273926895657	0.695575593145879	0.8715060927322148	0.7366673331735105	0.705970345145239	0.6837451440714389	0.7103660088723918	0.8750441052278598	0.804850576276053	0.8734448530079291	0.8699699618309418	0.8526355006625489	0.8794659949986475	0.4827269303531921	0.5684624896002316	0.8682846405041726	0.05394168929547766	0.603098569777829	0.11838895052583419	0.046756747992006485	0.10168112043696348	-0.04077007238704235	0.27050837806115735	-0.20029565641378144	-0.24896292325582084	0.06475668384176556	0.14187973701895484	0.0601225680085006	-0.43717053422225455	0.06098222344618384	0.1280934509381155	-0.2874187819853664
-128	-0.031993660995054234	-0.1565736230234976	0.03071998610787097	0.4924621569597776	0.5758219942813577	0.3722068658014484	0.5374166951916152	0.621813116887867	0.5089699017072231	0.6344060285763489	0.6113479121985603	1.0139518950611723	0.8983573294846429	0.5675327763533724	0.8084803203197758	0.530090092274322	1.139225480064406	0.8839516021345393	0.519246934533449	0.7425022106497762	0.42469316613737806	0.7384839635323883	0.5103273974885553	0.24117545722628794	0.483392118187206	0.3702516546438177	0.5487543330642966	0.5277083502797556	0.5081625567957787	0.5645691142133329	0.3385227910077999	0.3650171449505364	0.5807784781097861	0.14421248399563968
-124	-0.19353391181243737	-0.38890695473709846	-0.3208899489884147	0.41773512854012307	0.4558558750564262	0.15695448180148958	0.523738680947737	0.6368656738414401	0.35050010592659575	0.5266087637957153	0.5327744470496493	1.151274916603198	0.9732845997079148	0.235369741322405	0.7907915691437325	0.6548139436401802	1.5924605090943529	0.9456504559483385	0.9572048163088761	0.8926439262741228	0.7497100215103318	1.3137738671511794	0.9890285705391367	0.5371718989161407	0.7069373708996335	0.8907712675492976	1.1884323328530735	0.886661765720989	0.8276333788003192	0.9723605489022948	0.9327746010118223	0.6466858966712606	0.9223006344397559	0.44789981728957184
-120	-0.05251380415413376	-0.37293675447720265	-0.3862129738116644	0.49744710200601444	0.5857288822644628	0.21366406923231673	0.7163304072414274	0.7411184292201645	0.27860560942880586	0.6143373831497223	0.6494692547613098	1.2902705636826877	1.0982114048887208	-0.050494838378496144	0.8457893707855771	0.8798471070963791	1.8497273875265425	1.0699264976191298	1.2679007021363828	1.0387375328541244	1.0523556444301545	1.6791659551187288	1.396291729262788	0.7956090549408957	0.9133034921475606	1.269551393164625	1.5556229313675347	1.0662703487178382	1.0549300882407935	1.2151333062964023	1.2372235028501268	0.8575350620553606	1.1022399636096287	0.5613749013078844
-116	0.32523342884919837	-0.13183215227221257	-0.19059501540223958	0.6572408659553725	0.8918448068036366	0.5134283291251658	1.0418657038133285	0.8760619737441193	0.2637912624374762	0.8276692011917387	0.9172750092235624	1.388311740231117	1.1970150440511917	-0.25680512125028054	0.8998265243700021	1.1355744571625521	1.8562225056513182	1.1818593710624177	1.367943164232738	1.106592652388007	1.247600433060744	1.7709740355601535	1.557575341106868	0.9457752680741831	1.0275036070630903	1.422628637536748	1.5984343249972393	1.024468419349501	1.133796331404102	1.2496575085560386	1.225954291109475	0.9341067052145443	1.0949149104130957	0.46513637782916833
-112	0.769620774233347	0.22023823801702624	0.12927728858733303	0.7657637576796694	1.1892240017429814	0.8881487227904464	1.3343987431214455	0.9402885413271715	0.22959454299657003	1.0010192368983286	1.1827830046355252	1.3656098808142514	1.1546760768347841	-0.4079523672294492	0.8294827917137406	1.2839044300088802	1.5888272483765973	1.160366174629256	1.2247943847250742	1.001077649450061	1.2380938498709397	1.5662747581991618	1.3473836149529808	0.927560982746482	0.9614582633539538	1.3031756844997147	1.3298083510203031	0.7626327256975233	1.0202586625089334	1.0688173743919496	0.9507936215237323	0.8254634717127496	0.9029778219313208	0.1861123139927733
-108	1.0905880900504847	0.5335986600755224	0.4009034325491412	0.710902271860082	1.2798786131016249	1.1192786665313927	1.4200017416388393	0.845476029168784	0.10874178233110143	0.9663912629524001	1.2621004549586443	1.148132559738573	0.8902132488663193	-0.5446141944486508	0.5427730069761875	1.190744754645941	1.071941849863187	0.9135684943975628	0.8748903252447275	0.6692609174043643	0.9690067743631855	1.0971556874231245	0.7630979995534652	0.7244080286809943	0.6684249026588555	0.9302222705243394	0.8205272534634935	0.32791539943874054	0.7136941534143125	0.7091120463587731	0.5148388134355696	0.5284812437066067	0.5609850273273929	-0.20826192147602787
-104	1.1620596617923387	0.687208471947369	0.49927410357305696	0.4636019754625894	1.0572721931466844	1.051405307976255	1.2061663835590317	0.5669977054585746	-0.10725334259610893	0.6499158723634841	1.0394480202180532	0.7177534085272023	0.41483169689347704	-0.6760321838476872	0.049320872748544624	0.8067629912988431	0.3891878714272156	0.43785297760088737	0.41505536332243204	0.15041544995478645	0.4746945488388955	0.45834457758577213	-0.054637767236568435	0.3810209324276783	0.18566851271005744	0.39941078323612206	0.186229794747329	-0.19492052446266883	0.2762721173940632	0.24996054109406898	0.03774692108637696	0.10910546752086085	0.13602231408585982	-0.6241897328829957
-100	0.9625316833990037	0.6306839569381021	0.3936942507817591	0.09216213948107715	0.5590553269576616	0.6679105145757425	0.7267201524506389	0.15937329788501275	-0.35769894628813537	0.11653143883132427	0.5309929834311001	0.13837617600790303	-0.1633367534328292	-0.7626585941132905	-0.5246703015432242	0.20906446821357988	-0.3244180075084074	-0.17199926034893911	-0.03183923281141168	-0.42032822860452945	-0.1139051315292812	-0.20442408271675844	-0.8703698493917302	-0.007408214714300626	-0.36309978274224247	-0.13632208074483962	-0.4317476142473139	-0.701512752192321	-0.17589487091001124	-0.19959519753131075	-0.3738688519098469	-0.30895131748398047	-0.27960297394731437	-0.9616171097318792
-96	0.5612619505063201	0.3902778019588266	0.14080116117214492	-0.27922657061650813	-0.0594374573220208	0.08933201409673923	0.11918529092976463	-0.2713509195152527	-0.5481334314812389	-0.462760477089775	-0.12218211560395725	-0.4614203262600287	-0.6923056227371122	-0.7429968695955183	-0.9897767876431132	-0.42450341475121467	-0.9171956754415667	-0.7650291900393121	-0.36183923391539274	-0.8630914666319387	-0.6140784009688272	-0.732080636560335	-1.45106112590643	-0.33197876727210945	-0.8129609802701637	-0.5161155449234349	-0.8963836408871785	-1.0922367545208096	-0.5124706612999775	-0.5293546305642954	-0.6453157051006234	-0.5897804483781961	-0.5891670569803612	-1.138356444345775
-92	0.06980092060824304	0.043820269295206285	-0.16175369877507523	-0.539508400985437	-0.6096346362934622	-0.4964262234552014	-0.4468284834070838	-0.6197153910249381	-0.6071923955846014	-0.8991028643796112	-0.7236794215050995	-0.9398167705649654	-1.053222534381579	-0.5836369380520626	-1.1850886314989055	-0.8950476623825558	-1.27031492866227	-1.2012544840047827	-0.5222625123189566	-1.0321412060427757	-0.8676736332921228	-1.0035874818259265	-1.6621860223765648	-0.5127606975007223	-1.0272468302540463	-0.6298425181699323	-1.1093751164083867	-1.2946225372053304	-0.6401309950879261	-0.6617878658752278	-0.7397177796761238	-0.6430112703301354	-0.7197962385124316	-1.1100800009357208
-88	-0.406249969171995	-0.31557103911834455	-0.4273686696229784	-0.6448532326629788	-0.9595203375432644	-0.9258564687241436	-0.8458892681699685	-0.825843332112944	-0.528452275849319	-1.0774092647053402	-1.1120303841171368	-1.1986066072719659	-1.2129489152801887	-0.3157330147401127	-1.0565770837810686	-1.072611329231614	-1.3384708132329297	-1.4045604431930225	-0.518860458017701	-0.8803464748090466	-0.8092902878355837	-0.9781861876586437	-1.5131081304494836	-0.5261767493314741	-0.9542239880311847	-0.4584760654318147	-1.039179203270795	-1.2776540485549344	-0.5386682139148042	-0.576676367257411	-0.65417676998914	-0.4631147670974255	-0.6460172517678585	-0.8798430539805446
-84	-0.7904789427826749	-0.6065970643940878	-0.60910105551478	-0.6267489775092552	-1.0791776153020718	-1.122215029744194	-1.0365058157500788	-0.889343915124465	-0.3702856888958985	-1.0004160378947244	-1.2231135337466519	-1.2161238162807788	-1.221393701330645	-0.02843894988568852	-0.6786450130494645	-0.9485852694403796	-1.1614019841435475	-1.3755811418135515	-0.3978281309097193	-0.47571879505212983	-0.49133366222309427	-0.7078733426341783	-1.1330243320469202	-0.4045059670725927	-0.6423729045862027	-0.0778780428589112	-0.7298175674132166	-1.055952069477532	-0.26392677359703093	-0.31632426301246946	-0.4134113182120656	-0.12959860232534473	-0.3985942294070832	-0.49502590173670624
-80	-1.0313914988226836	-0.7703970651249417	-0.6960245353291938	-0.5529532418595425	-1.0223077509818483	-1.099719998444177	-1.0477215025198576	-0.8482781031172453	-0.21367421692306413	-0.7642836551443438	-1.094977018452795	-1.0408663723415474	-1.1600279778756541	0.18114338769477942	-0.20833074993940848	-0.6241884811854587	-0.839273808267695	-1.1705615490923458	-0.2130013400898936	0.03726980825789634	-0.05312099294363736	-0.31218379657127826	-0.6957734805660337	-0.20954513496899627	-0.20813579804800159	0.37560701275407604	-0.2842944257234182	-0.6833206397924204	0.08308496305231178	0.031738169411159874	-0.0643350703880113	0.23253713489473457	-0.05332801477558081	-0.03293716899185385
-76	-1.0888063880133572	-0.7706367950056231	-0.6911435705855051	-0.4708722817930343	-0.8660343863556487	-0.9206426716448695	-0.9320440864872995	-0.7421590667106707	-0.10643918040343564	-0.48753312107019886	-0.8224787691331575	-0.7557626347534123	-1.0798350545322846	0.2699129276613546	0.19894972393350652	-0.24699857768640135	-0.48569509264390076	-0.8635817148339785	0.0025754086608236917	0.507781146674824	0.34750375063897954	0.07229922693595413	-0.33569118295792694	0.0034544591239049818	0.22359579745106936	0.7604821901194568	0.17173317031417237	-0.2385763072904521	0.4036676277459434	0.36816826369792116	0.3290971211230739	0.5118988739440908	0.2968867711677761	0.42051991714164316
-72	-0.9316273308120822	-0.5935558065687374	-0.5935724958692324	-0.3732984652631089	-0.6555317623753979	-0.6437644346196156	-0.7224634867547515	-0.5860416874394544	-0.03171833596566093	-0.2422453456961438	-0.4979503738229048	-0.4386057544601776	-0.9710617040912737	0.2804827981066226	0.461382387903725	0.0633255539725799	-0.18461504531979575	-0.514820932042182	0.2439224862854382	0.840154466892028	0.6010550841415089	0.3424236169752767	-0.09929110084737468	0.20954704231762428	0.5713790044663728	0.9790880059318184	0.5311889635026268	0.19123932670947363	0.6387742741669741	0.6157810076425375	0.6927582008037491	0.6564912779445696	0.5737901315507393	0.791446326164937
-68	-0.5621066079252997	-0.26137661867907674	-0.40383285182084366	-0.21332247501397142	-0.39340582390641926	-0.30385750455433624	-0.4276063431434202	-0.37592583799817464	0.07496536504176779	-0.032249338843463045	-0.17799305870893592	-0.1439157124700523	-0.7882261852390767	0.3158577374589903	0.589022634926435	0.25608193809704655	0.02646762312226736	-0.16538222092358315	0.5168702589336756	1.0142607663296186	0.6761924607370836	0.4545556593385786	0.044955208784089644	0.4118277718159935	0.8136043528042449	0.9989008878283595	0.7326362114528837	0.5276294933349168	0.7775507549681779	0.7390612941202251	0.9538955068346568	0.6827695352482185	0.7347912173792971	1.0318537924463944
-64	-0.04850654291780832	0.15235218367258344	-0.1462767269494505	0.04290481273428326	-0.07577936332166836	0.06939259153965956	-0.06385450049014244	-0.11844705015318231	0.2705900066219712	0.173103585402227	0.109023928367014	0.08918879903686674	-0.5102735148898143	0.4695276010102965	0.6439676268531419	0.33985221300151375	0.14371666275932743	0.14749672971679417	0.8097448328554931	1.0607035133284508	0.6031736120254119	0.41854917897408767	0.15486061533930018	0.6180688723218198	0.9668751930621097	0.8426253774349534	0.7641259412546664	0.7158209663438183	0.8382517078216672	0.7433578949280113	1.0574253770833704	0.6475931985717409	0.7759432177026443	1.1245464058140526
-60	0.463039367221975	0.5215548859779697	0.1120605540426549	0.3609434953159697	0.25530061061298104	0.4140314449347431	0.3029199532967088	0.13850277627308633	0.5450550304002966	0.37687587642885095	0.3283547452742707	0.2156596625366808	-0.19136118840540925	0.7504411916859456	0.6713934523797541	0.33598014627506845	0.16711987512833296	0.373377262603303	1.0713517638814005	1.0121084426122133	0.42720886957073906	0.2676613920129712	0.2571619146530052	0.8123434165472051	1.0447255346624313	0.5575489387740564	0.6451416595383187	0.7345374804071289	0.836668250832562	0.6559612138399203	0.9798825358446684	0.6018438324038302	0.7172270399105198	1.0787483426514832
-56	0.7786124328982368	0.6950720531080878	0.26697084240266933	0.6223545654796396	0.48940494532999934	0.6194990857695943	0.5460169897598979	0.301608084870837	0.7986029962404047	0.5131486045279412	0.4129823733870225	0.17514786080008848	0.03778248270747629	1.0522057983535675	0.6499140246195008	0.23472574293955525	0.07881305346856149	0.4469301987331362	1.2137180536144285	0.8662785865846769	0.16717135864012772	0.027698341687127506	0.3216478220448204	0.9438811516772929	1.0283527348304167	0.18591169966012705	0.4016860713353885	0.5982077702677773	0.7656908015946486	0.5030143844302366	0.735669491817845	0.5559113607676318	0.5819539413064339	0.9213225222214612
-52	0.7283367496221556	0.5535784945816578	0.2153495246695363	0.6678550822562414	0.48227521655390226	0.5575532303084694	0.5187063800113456	0.2664625935979528	0.8771833755280922	0.46173655870208613	0.2753601365289799	-0.08922372735861693	0.027926843542877652	1.1915587156729388	0.4958003448843176	-0.010914091924589666	-0.1520822491382384	0.30670028847507635	1.1441476316175305	0.5863305911519513	-0.19162149678964735	-0.293569653485111	0.2811904542499317	0.9436612701432717	0.8706425406408892	-0.24625343022162313	0.052388906346612564	0.3511128416733397	0.599331437028246	0.29606842919939846	0.372347800983664	0.4770351040240262	0.3832565238336246	0.6873903257181195
-48	0.24980425771586248	0.07311260681766671	-0.08934337623212085	0.3801201870381068	0.1337440606555233	0.15052124819899565	0.13123470511681484	-0.0248748305556978	0.6500082595626527	0.11558683932446996	-0.14381271564414047	-0.5914791807500058	-0.30183079762547793	0.9991111730145962	0.11900537430996436	-0.4477022874972849	-0.5409128652267335	-0.07067175936737403	0.8093099573683099	0.1358674016144797	-0.6679555160824343	-0.6926556808149943	0.082346677572246	0.7595499734775233	0.5298224674199562	-0.7198420744841482	-0.3862965097211062	0.053303457661995346	0.3159678868422572	0.03393121055142452	-0.04523725051187411	0.3169777385338146	0.12386385320146832	0.4124265600758953
-44	-0.5580216036059319	-0.6358838661351787	-0.5937575086861481	-0.23767909347607458	-0.535125969489391	-0.5613108263149126	-0.5774824008666736	-0.534610150894807	0.08965688921226726	-0.5371812568453468	-0.8176913240768853	-1.2664793697806573	-0.900491235366859	0.41707751049597647	-0.502093313856848	-1.0648068162737183	-1.0537334653953039	-0.6367832406179238	0.22885638417637408	-0.47369134306521377	-1.2397407262019258	-1.1438498468129845	-0.2661002271609557	0.3904017498173241	0.011843869432706395	-1.2028653591304153	-0.8818505384115114	-0.2373780304160742	-0.07504939268952775	-0.2827916138184905	-0.45418885235555695	0.0504929794586419	-0.19212476860653774	0.12765061823087478
-40	-1.4509614669406172	-1.3484271730710735	-1.1461542815834724	-1.0373289558923486	-1.3596501316074967	-1.4024438822623921	-1.4244900905883837	-1.1236610384227943	-0.6916467529954285	-1.3708738053996552	-1.6085126359382855	-1.966451759141937	-1.5888789852081318	-0.4492942083459268	-1.2747898069621293	-1.7582240060284404	-1.593899722843466	-1.2646555868644247	-0.4978917526549162	-1.1552046508233178	-1.8163907482064126	-1.5802754123843947	-0.6779838187266404	-0.09966904644836061	-0.6054604038210909	-1.6353759724335726	-1.3675358260913713	-0.47842797516194324	-0.5201152549963445	-0.6330797656288001	-0.8049785474480627	-0.2982460848907693	-0.5426598177560448	-0.13899278605654766
-36	-2.1274516528776024	-1.8052072479447312	-1.5503817757563776	-1.7749860241898556	-2.0860421604894754	-2.1166596359218173	-2.1430749839081034	-1.5997657735488704	-1.4739448986986907	-2.1523997729318016	-2.301076644809847	-2.50162028634759	-2.1333663409730206	-1.3584557737385028	-2.006915564238445	-2.3473920762877603	-2.0226097055867607	-1.7776304438532842	-1.2188281982167	-1.7586060718004861	-2.252289051091471	-1.8990139913297182	-1.0180684302375467	-0.5977122768570104	-1.1845468252792652	-1.9318426798683546	-1.7414770082374706	-0.6446260197576686	-0.9307969785078126	-0.9650861000490486	-1.0596185895869883	-0.6567032320608558	-0.8777629114877802	-0.3580760350723548
-32	-2.3538539350208354	-1.8245294048020755	-1.6525009828807535	-2.214574569832931	-2.4815540251067487	-2.4749095377425427	-2.496490233794014	-1.8004951431592648	-2.0175907560907653	-2.6365601949882227	-2.6871943405970784	-2.7126562526879443	-2.352122539303771	-2.0269331880892727	-2.480647557671293	-2.6447236471160496	-2.2091035787121003	-2.006429667175463	-1.7788101389797002	-2.1226811355404034	-2.401097291606269	-1.9936518618793546	-1.1595438689520108	-0.9811978315376062	-1.5738636215528046	-2.0039560744235296	-1.891133780473149	-0.7195960861157812	-1.2111223905503032	-1.2021797865079398	-1.1814852923127517	-0.9306085682261533	-1.1243436308130386	-0.4943829464351374
-28	-2.070225471991811	-1.3942792380416729	-1.41872405647666	-2.23433613213045	-2.444667571571338	-2.384008163155152	-2.3893656670326173	-1.670337315156888	-2.165406936900427	-2.67994641581069	-2.66159295363779	-2.541060202858732	-2.1988847200190285	-2.2469885292542675	-2.550265067337445	-2.5454425747501332	-2.0876197762234074	-1.856976862033691	-2.0701115079112884	-2.142726415946337	-2.1856536810051925	-1.8003239586199022	-1.0412712070878398	-1.161900875019058	-1.6671568113197033	-1.796019907231538	-1.7353323654230892	-0.6858165246814436	-1.291031834203837	-1.2669562069376565	-1.1302833528591996	-1.0424690220262218	-1.207973238756191	-0.5091203438302563
-24	-1.4232629501648462	-0.6943812948815298	-0.9632370447634948	-1.882414813057418	-2.055508131559608	-1.936924691078363	-1.917366380619015	-1.2908856836152165	-1.9104061078475867	-2.3131730498086034	-2.27796506306583	-2.060779566330235	-1.7794722273721937	-1.9746870944711814	-2.21407102979514	-2.088890308828232	-1.6922749238203731	-1.3588229383493922	-2.0635476060266154	-1.8213932468204914	-1.64664589942996	-1.3353406157158083	-0.6951019746396896	-1.1149412365420386	-1.448606725850066	-1.3175867762678346	-1.2675564257090295	-0.5232675658366217	-1.151385185195754	-1.1142343254567872	-0.8726351835153443	-0.9624889468688077	-1.083763119822355	-0.37174227739891963
-20	-0.7084256988759173	-0.031826637604944384	-0.5072098957607389	-1.3533952202005592	-1.5381275376586545	-1.3750847543331153	-1.3266991343380898	-0.8468372204380828	-1.3979567254057403	-1.7315752462538032	-1.7328816608546918	-1.4538744651327256	-1.2959892717065793	-1.3505061830755902	-1.6237500864994852	-1.4555407725778593	-1.1520307034970416	-0.6701785905130093	-1.8102157070232725	-1.277802821747918	-0.9425623393103223	-0.7048686724986369	-0.23327967465631047	-0.8820205308579816	-1.0036325429372628	-0.6577518565737417	-0.5784261212050197	-0.2226261639934726	-0.8321087935419801	-0.7590240220933532	-0.40925553337720577	-0.7187215667698447	-0.7631899695201215	-0.07932840267656897
-16	-0.2453640842203361	0.2884184114803706	-0.2833181612491069	-0.897648749469342	-1.1537824840025677	-0.9789662932474944	-0.9014965273031027	-0.5425716028819999	-0.8616785385311053	-1.2075347869903301	-1.2817982402864145	-0.939111468805119	-0.9511001086063935	-0.6430920346236021	-1.0250439617979992	-0.8966395832311977	-0.6456873996645043	-0.02845941290524631	-1.416406866312222	-0.7091626507020596	-0.2970874302039058	-0.0780842004235076	0.1965552414461514	-0.5510980472955924	-0.49119570727310996	0.028897091673372118	0.1594115789680231	0.19278182040656036	-0.42328074467602406	-0.2848434739073805	0.19582213411958743	-0.3859100332053583	-0.3228673032715236	0.32548108614761484
-12	-0.244023382047627	0.0972891745495192	-0.42996987591905383	-0.710048018093318	-1.0811574431779327	-0.942064700132349	-0.8360799529901142	-0.5109548555825216	-0.5251093493555312	-0.968876061377523	-1.1279588909281175	-0.6872925741009347	-0.8623741843385226	-0.14312797748668957	-0.6576129777517656	-0.6292554720250216	-0.33650165711321406	0.3388564578084101	-1.0060535643926372	-0.3204705409065116	0.08387207963748652	0.36720970180306345	0.4660374510442853	-0.22526217940200893	-0.08931960142949609	0.563923476702756	0.7418906669959247	0.6511614902268554	-0.04268067691875189	0.17531487301432744	0.8074123242973869	-0.060489863004550115	0.11245589674929073	0.7509168963546969
-8	-0.7215297799967023	-0.5638118372033735	-0.9269090271435748	-0.853265223733011	-1.3456860746740635	-1.292538997247822	-1.1563755244623295	-0.7598459105380859	-0.516123949178327	-1.1055555315715335	-1.340441819621386	-0.7635437230859703	-1.0293556425808754	-0.0558713226099837	-0.6621526463003322	-0.7490881662529603	-0.31635758200881475	0.30411225480546306	-0.6870977861223005	-0.2526180141746703	0.08738262184254003	0.5038610684071333	0.5059865104298128	0.004671707737571832	0.06328631176467497	0.8006011823468099	1.0009973023891066	1.0375120613606363	0.19328486870603337	0.4801675963199657	1.2477303711860264	0.16632862347093735	0.408056794566832	1.0752766105206613
-4	-1.5041937790086723	-1.4624994956285275	-1.60284697604811	-1.2475782601329435	-1.8285551025000413	-1.8975201797261287	-1.7252387956930189	-1.1794007986809296	-0.8276661613548628	-1.546814795403445	-1.8379303170530925	-1.1179279060749032	-1.3589814867040944	-0.43105062733539257	-1.0331892941138598	-1.2003523081037402	-0.5799237475058651	-0.10607309612673006	-0.528543649769529	-0.534549294552645	-0.26956006816517514	0.29819086118752436	0.3205990485203229	0.08006052652649667	-0.08853953309354824	0.675436316215372	0.864482937060707	1.2273434369571028	0.20206487127786013	0.5301534520115584	1.3597091402056753	0.23206214548171872	0.46663883210622825	1.1868860691622143
0	-2.311101907617177	-2.2811798991783188	-2.212528700010826	-1.7255096391981946	-2.343662971301448	-2.542579406040931	-2.323961252067132	-1.6037517745535161	-1.33653211256186	-2.1143424457573796	-2.442448848279821	-1.6238270957003405	-1.725895996504653	-1.1541373700566644	-1.6343188244565052	-1.8145019962275386	-1.037840602161809	-0.7233813386773303	-0.550238429110812	-1.0766063901422427	-0.8558647014943923	-0.1816367055360174	-0.02630637393210555	-0.015040648131841554	-0.5001135455856318	0.2342608714149645	0.3814637353325967	1.1372396917240828	-0.03629846861734718	0.30509111208181555	1.0778466435875977	0.1192066070407986	0.2650025778278658	1.0294281218287393
4	-2.8781261371426097	-2.7586321761100745	-2.547271006828647	-2.117785686868071	-2.736103050953332	-3.0403737945088527	-2.763212673840209	-1.893463964450115	-1.865044469892961	-2.6178047590919724	-2.9715361520129733	-2.140816683132555	-2.0326847978769975	-1.9968347499023245	-2.2638013305729032	-2.3948914944265027	-1.5604194363297899	-1.3167768683566714	-0.7236962300148837	-1.7061914162473955	-1.4856231175107588	-0.7954171875898481	-0.4427018452434456	-0.2511337095118987	-1.0428597900763827	-0.38130581282666304	-0.29866114183361486	0.7660859803885117	-0.4647606301494529	-0.12806859580130692	0.46822336197893666	-0.13913956249393647	-0.13726510072861137	0.6302574261011663
8	-3.060853235146234	-2.7968373228031664	-2.52424835521441	-2.324366325232003	-2.9474816247909903	-3.309475651968474	-2.9632618352461444	-1.9949961850342248	-2.2529327812534197	-2.93973659726843	-3.3182380115654917	-2.5679120952622507	-2.2394390049660773	-2.7012920311437605	-2.7366144588042136	-2.8019981313533693	-2.0293996282838513	-1.6982173876801867	-0.9819681023600938	-2.229826683136708	-1.9916018197321257	-1.3849089110694812	-0.8415570833893412	-0.5574965462914311	-1.5460964402264257	-0.9841523741670181	-0.9851112936897435	0.2040149266337308	-0.9586115455266684	-0.6414491518038059	-0.28741744088086235	-0.46657723070600843	-0.6212672575523921	0.09585721766588937
12	-2.8736812995836414	-2.4841418203577836	-2.2133150044827175	-2.3389520586088737	-3.018803112037679	-3.387191048653365	-2.9666950627765387	-1.9497833202725827	-2.4081969200368305	-3.068908922076579	-3.4804189117297546	-2.8645503448642633	-2.3563284814470826	-3.064208022964302	-2.946351520728902	-2.9982786102889607	-2.374727719987055	-1.8049068405358217	-1.236514445997669	-2.497501843822588	-2.280537837946419	-1.8283742620082495	-1.1624232501245506	-0.8360121229045311	-1.85082423219693	-1.4087747299865818	-1.5145692787078184	-0.39799600739130536	-1.3607383932090582	-1.0940413447414732	-0.9610280966336959	-0.7638453225877724	-1.0532377931706032	-0.42581948530453256
16	-2.4585344729340326	-2.0325341173353855	-1.7935913755909407	-2.224246257888346	-3.0397043151404257	-3.3798391733667508	-2.887510530810933	-1.855244512642313	-2.3211290777731355	-3.0733191889416647	-3.532278051994941	-3.0383908671914712	-2.4142231880269867	-2.9925453587317805	-2.8849081920266095	-3.0371000690074745	-2.5836787158584302	-1.7146699385267095	-1.39883708600685	-2.446199410938198	-2.349668735293853	-2.0736062474349355	-1.376238938671632	-0.9847829317025049	-1.8579839421092734	-1.5668519695777094	-1.8001416876166392	-0.8847014881685651	-1.533751364650294	-1.3791273797501549	-1.3685309852380287	-0.9381553507006909	-1.3296678032682778	-0.7992162684289502
20	-2.010241980245672	-1.6683255391915084	-1.4673613272812918	-2.0614335484910593	-3.08114599403665	-3.3872675810170634	-2.833673470018514	-1.8045430137850313	-2.0455460496755804	-3.0377502364710427	-3.5620114713382063	-3.115418426277391	-2.437088960216571	-2.5167322095272096	-2.620488398611564	-3.010252706556947	-2.6830437115639785	-1.5853300054578756	-1.404750582009376	-2.1092925018461792	-2.2636840286322815	-2.1373262351433207	-1.4772865734949414	-0.9286451316275643	-1.5562466343688897	-1.4676115475794271	-1.840312833908039	-1.1508314580471886	-1.409078832883458	-1.4505379163359127	-1.434611793710717	-0.932138381035096	-1.403110381398588	-0.9447327828396935
24	-1.6982177453080545	-1.534220453203492	-1.375631924970772	-1.9068751287000074	-3.1534476200595503	-3.447644463417727	-2.8499665188360206	-1.8397841407102162	-1.66557144698197	-3.0070919914617775	-3.6150059608742082	-3.1146414201300607	-2.4321639476405044	-1.7664473012194706	-2.253358119997463	-2.988155119027289	-2.7081739834121517	-1.5528483351602453	-1.2353589503569706	-1.5929855068042091	-2.109501356520945	-2.076154703620518	-1.4687436781994325	-0.6474657638415329	-1.0210075352640007	-1.1958862512912853	-1.68958198597622	-1.1664003104325027	-1.0112802956797948	-1.3194184269971578	-1.2007679908953541	-0.7411843519571196	-1.280512329683277	-0.8536214806939341
28	-1.6193599660042826	-1.650118942862964	-1.5548102816427187	-1.7788181260020801	-3.211819879052189	-3.5314199835309212	-2.9110431597645805	-1.9424384783340345	-1.267438885349829	-2.96831249441308	-3.6749796774586287	-3.042583934731544	-2.3979830681339074	-0.9255906916137612	-1.8750849914893153	-2.9872476979175193	-2.6781237057780607	-1.6467232662586833	-0.9254404879093064	-1.0336108181606471	-1.9550605962983825	-1.948212380258849	-1.3505185808416722	-0.18853636038386237	-0.38602670929721156	-0.8632515051027565	-1.4132003748499808	-0.964270052859489	-0.44572040326118456	-1.0302971575473703	-0.7781789879225245	-0.41122266546376146	-1.0018072103002698	-0.5714671001311283
32	-1.7923343136358016	-1.9411061953173787	-1.9475778292121722	-1.6743828015968696	-3.2001888671186642	-3.5805675893028313	-2.9604680463432858	-2.060294384522988	-0.9259107089507523	-2.877524845487634	-3.689968338233164	-2.9069106505434466	-2.3392827451772527	-0.18379238201468284	-1.5493605097753744	-2.9794261380312608	-2.590447896139191	-1.7735195115135045	-0.5533822760915525	-0.5552476034450889	-1.8325703097805535	-1.7875648691822061	-1.1191782923098446	0.3459799877014662	0.2007099831997303	-0.5603209719816268	-1.0554512712533937	-0.6061897262527212	0.1451076563509388	-0.6356300695583659	-0.2795597605799613	-0.017581330567913233	-0.6164994820288461	-0.16618059533601143
36	-2.1748220865653765	-2.300184959326258	-2.4477286277006947	-1.5956689079052222	-3.098577253147914	-3.5589358716755615	-2.9610562249764443	-2.147067064586501	-0.701117096561301	-2.707828991729063	-3.6193816570454116	-2.7322068145434915	-2.2736558856780276	0.30412772221074325	-1.3145559992979474	-2.9294123575636615	-2.435203307679217	-1.7782934859200916	-0.21339364295965355	-0.2412827306854516	-1.7474443868387375	-1.6025373895239283	-0.7808951119734366	0.8352447131049855	0.6216573103468175	-0.3333235374618142	-0.6376289709205066	-0.15260659119700368	0.6361365302237436	-0.18524746550042712	0.2265245759728421	0.36405783799762087	-0.17385001436686467	0.2968830160751647
40	-2.6843492916998426	-2.642591708187106	-2.9466581270208527	-1.5617883165982454	-2.941865198337275	-3.47850965575313	-2.92162465311555	-2.1877515260774105	-0.6349351986113287	-2.483671182083825	-3.469554415526106	-2.561835044114874	-2.2241394463651787	0.44791024810238117	-1.1954488724090278	-2.832242958547516	-2.216363901264571	-1.5480310877816608	0.02010739217092294	-0.12561657993072764	-1.7007923083279826	-1.3944574559291014	-0.3693468263360894	1.1849539250020533	0.8193029740628981	-0.1928757573264892	-0.18300405098487385	0.3446511915565209	0.9586948728198541	0.2657161348309928	0.7133570891489587	0.6802272183410325	0.2701030366753857	0.7593761067291525
44	-3.20591806556001	-2.91911553599542	-3.3543906127162804	-1.595713611388691	-2.7980461049961596	-3.3850519571670663	-2.8821656631181285	-2.1939995233455716	-0.7400147896202898	-2.2780699672403695	-3.294657460477566	-2.4403271613497526	-2.2038328591972096	0.24011841355734875	-1.2098735540361223	-2.7255341937870226	-1.9649964521387755	-1.0958294840802203	0.11781050980149123	-0.2007400090394601	-1.7066756443803281	-1.1805387705561083	0.045274302249089064	1.35822105064797	0.8002570847333903	-0.14256964587932694	0.2534786456384093	0.8269687274081069	1.1048066588164662	0.6410386546162742	1.1540900439688322	0.9034268833239247	0.6383970959757878	1.156372901857966
48	-3.593484869467362	-3.089619151897948	-3.594063272938802	-1.6946381287704613	-2.7203278472883268	-3.314873448585705	-2.869392387775012	-2.1759076063532854	-0.9840137337636204	-2.17203592705703	-3.161851398114505	-2.384436124503559	-2.203607315221949	-0.23796054660799337	-1.361186500927348	-2.667150490702616	-1.731904979147868	-0.5706065878766786	0.09986638252555251	-0.43113997469768534	-1.7886451437613877	-1.000064608910016	0.3677035560861031	1.3783805335530048	0.6175132974292711	-0.20022104629987222	0.5805665239935	1.2138473956932645	1.101258036694078	0.8418776967727786	1.4807091913985926	1.0194288466464654	0.832649228854794	1.4061167204641787
52	-3.6897003557509302	-3.092781297504588	-3.592199793329249	-1.8086748077504295	-2.7061905792576133	-3.256427995089467	-2.858491175110274	-2.115606779479163	-1.2830437389404965	-2.2019197885233286	-3.10459398439493	-2.3637790620251957	-2.1928069536159165	-0.8297198989900585	-1.6214773613999376	-2.6931667259884935	-1.5622975786819207	-0.1819925750667504	0.018508793739437885	-0.7628710250667337	-1.956313485928398	-0.8961834288858834	0.5100807534690974	1.3039487567404997	0.34303903493102883	-0.39160749217344126	0.7039254289974478	1.4119996988886567	0.9754088496377017	0.7740132789143346	1.5854306180980025	1.0125218604273316	0.7600482087019429	1.422986503823076
56	-3.3813564692003224	-2.854497902338984	-3.2945194161206146	-1.853750462620145	-2.6964189938178067	-3.15159486928603	-2.777562849661522	-1.9701588104097383	-1.521757718058871	-2.332365268540665	-3.099129907412876	-2.3115246237568567	-2.136436695426939	-1.344718572082512	-1.923948402315654	-2.7867934633467133	-1.4697744809235755	-0.08181119689551644	-0.07372091691954732	-1.1298499078834872	-2.1800026838575945	-0.8845711924154152	0.43437218556408225	1.1898233860493295	0.042496915799373314	-0.7184290867786702	0.5826922044347579	1.3571511472769529	0.7379391770805167	0.39886352319149854	1.378257986403656	0.8646506049260368	0.3830347647532976	1.1588917941398142
60	-2.677340262329111	-2.346367830074526	-2.7152023246877417	-1.761777515731688	-2.620902054845261	-2.9438650533737296	-2.5613973076047487	-1.7102199749683036	-1.6027743775909569	-2.476459973758526	-3.083981983027903	-2.1662275736476224	-2.0211324640743773	-1.625884171195635	-2.1787910406416597	-2.882297985429196	-1.4286119901827743	-0.27669069101094157	-0.1535062189994885	-1.4616434537224248	-2.3849353730069374	-0.9311195588445227	0.1816507424298266	1.05716800422788	-0.23877304732119775	-1.1226718397405993	0.27623575856084204	1.0696152421648986	0.3953049172911356	-0.21666851585044078	0.8718339778822963	0.5745653495587308	-0.23237195552331782	0.6542979462316625
64	-1.7688721373721008	-1.6645595985348178	-1.9941561171728814	-1.544466014777356	-2.466335767241118	-2.6470322542116613	-2.2257506791186787	-1.3740335668205106	-1.508091922767141	-2.555893653138664	-3.014160148639977	-1.925534124281255	-1.8787323189032024	-1.6235789019601226	-2.312895769001808	-2.9058530257292223	-1.3941240275470697	-0.6292248948423291	-0.23915402530847898	-1.6978154139568364	-2.475992911763245	-0.9590925550087914	-0.13117009368204147	0.8887134171936227	-0.47667407869153317	-1.477197166528004	-0.054548710446918246	0.6843513829119189	-0.017438093156299014	-0.8849375225612798	0.23618631005260504	0.18656620336159196	-0.902100322353153	0.06382204576114418
68	-1.0234332058816558	-1.07123744217301	-1.4159947597992855	-1.3313021626238926	-2.3242423475711833	-2.389484876321867	-1.9141502332043445	-1.0999282570724964	-1.3387398685987666	-2.5673057968171262	-2.91771244266095	-1.6813029008378209	-1.793256039860281	-1.440126296222124	-2.315808528775338	-2.8313546109240266	-1.342926618046509	-0.9444684958454267	-0.37979674243404976	-1.8076280309815271	-2.384980672536852	-0.8886045791125377	-0.3527141204511878	0.6513158066517892	-0.6605852825652757	-1.6188888508931674	-0.20312344976639843	0.4229010034851188	-0.40812718765213407	-1.3371201719857293	-0.2259522372739926	-0.191721900813518	-1.3628851140898686	-0.3706199815452773
72	-0.8839459992979445	-0.9472439265177407	-1.3524903024858639	-1.346322413860079	-2.3809390007941267	-2.3933799206388153	-1.8739465427769795	-1.1035010786806023	-1.2991118398291888	-2.609435074893743	-2.912796251572288	-1.6055185754294874	-1.8818346214466393	-1.3093260493599799	-2.2612578811774693	-2.7135112217104442	-1.3060955968305994	-1.090083238710512	-0.6254578813020352	-1.8032088234197474	-2.1129541343747764	-0.6865376812767603	-0.36243596581505494	0.3334750226661284	-0.7813470939936273	-1.4131425583446946	-0.007289589364303629	0.5069168793277629	-0.6275654419313271	-1.309343692334789	-0.18836295557148736	-0.4004381586931992	-1.3562418188185554	-0.39916074175192057
76	-1.6968016581610559	-1.6519288975016437	-2.129801744805873	-1.8189748479694807	-2.8409845757282044	-2.8835375236188154	-2.3558936059598996	-1.5945355851923242	-1.6171027381123375	-2.845088474719918	-3.163793317436384	-1.8810774040413245	-2.2537596168836567	-1.5014653167963228	-2.2825546207019474	-2.6712295941621655	-1.3678947652613025	-1.0789903375086605	-0.9927222107618974	-1.733920212182636	-1.7388503507581403	-0.3945218314700536	-0.12889400092007258	-0.024790134218330956	-0.8205569365765167	-0.816847739541509	0.5722876176690348	1.0499099466519055	-0.5084669577158781	-0.6420181377413953	0.5512375221640147	-0.2728777818942865	-0.7253245693013914	0.1342379596420464
80	-3.538330784447311	-3.341705790665787	-3.8692631623807077	-2.8630950378611018	-3.8145680331242686	-3.963736047274023	-3.4785663993748126	-2.666266673032118	-2.427707189152611	-3.4098744306303965	-3.7907888793604525	-2.6045114928291477	-2.9599907323491297	-2.185861582005644	-2.505137198799038	-2.8233113217597636	-1.6227756697691573	-1.0592172119100842	-1.4424267970860667	-1.658944483383284	-1.3836047614450884	-0.11333517701621672	0.2697670154913128	-0.3283399335200814	-0.7459417562725008	0.09575686579608277	1.4286863767792661	1.9838989922979602	0.0695635674627661	0.6507785303851404	1.9600039671049936	0.29973322077416065	0.5173419104865924	1.2148418395841865
84	-6.131660445944827	-5.843347057848285	-6.3832936125763595	-4.3857502826587345	-5.226932989275187	-5.5255355695454575	-5.129592882556835	-4.215054024544779	-3.676797142282531	-4.314025391177225	-4.7786908029068895	-3.710044374635724	-3.9544005294142917	-3.3160469448290804	-2.966907255311403	-3.2085568823868433	-2.109115833679511	-1.2136701314801501	-1.880342717191678	-1.608298059217636	-1.144548294038699	0.053299460425515185	0.6766598803602321	-0.4529207635411621	-0.5144703375224984	1.1615570754288616	2.3571138322446603	3.068328134419354	1.1214345665274756	2.3764707982144655	3.7602810764742203	1.316056128993867	2.185355180944911	2.6486391954307487
88	-8.910337425623677	-8.66105363566468	-9.19117734495857	-6.081028922940335	-6.804410917268756	-7.247072678388691	-6.965682488974622	-5.941116318007936	-5.102135645382506	-5.396126733507438	-5.941743835706546	-4.9616064900061065	-5.088080393342797	-4.606245029263904	-3.5731522946743364	-3.7396218682286504	-2.7605748106876895	-1.6327655274175803	-2.1835520212357182	-1.5567337235247642	-1.0391778919686132	0.06190877019629738	0.9244002676513127	-0.29261672422917034	-0.08673810936963038	2.194364780607833	3.1472144047432566	3.983274926619223	2.5317430432295454	4.223406781023934	5.531187043530212	2.6490096979017372	3.9766142267916793	4.127944935867004
92	-11.216615648560651	-11.13515469600753	-11.66822621260599	-7.526307563853124	-8.156913736729992	-8.696433045365394	-8.526543595721082	-7.443860988896487	-6.315818293838027	-6.363924010421894	-6.973373395479862	-6.027930721322686	-6.145882590989486	-5.629662976356536	-4.118388642403582	-4.22348212129474	-3.4104700002394885	-2.2427785339951214	-2.241808170380628	-1.4299470150130829	-0.9934552286814945	-0.04037009169399664	0.9075968838665276	0.1938078994626169	0.5500810728490023	3.052507869643012	3.6685306933287927	4.465205658129515	4.078642834856225	5.8587851376432925	6.874929410743058	4.07792710228357	5.569014058357804	5.343283639768783
96	-12.551590887804908	-12.691493002319854	-13.271382298341125	-8.346127488998855	-8.928835846292305	-9.500826811645043	-9.41884801393942	-8.376315095734162	-6.9606742683146585	-6.9132399384478465	-7.568336944545351	-6.6152043175572475	-6.916151982965641	-6.005652412510525	-4.374500263613652	-4.447639454102821	-3.85963319757653	-2.8370184826748632	-1.9993438670224544	-1.1475932569140068	-0.8874213077074441	-0.1426787968847963	0.6228173359405074	0.9573906635908166	1.3573114837709939	3.6714849379349817	3.9041724106446214	4.415808189687338	5.49604080719927	7.02235935345555	7.564088802313645	5.354360090088718	6.7114238569566504	6.088418945199509
100	-12.758498159621384	-13.064411130345611	-13.738538707378954	-8.367707231376011	-8.949457145983894	-9.502819037286985	-9.482307410141507	-8.585740067739595	-6.867981416528422	-6.869451982320608	-7.56104801176346	-6.596160395181013	-7.2677788550942255	-5.587459550102005	-4.20481251608675	-4.291094769134289	-3.977728833646165	-3.1945013919285556	-1.4810124598304442	-0.6834140998751922	-0.635944662872696	-0.14364668690653778	0.15802486200966356	1.8641891432425937	2.230183595748722	4.0490174191290205	3.918226470591438	3.927862872697235	6.54657457606182	7.580340843135649	7.599168281442607	6.272276862520957	7.275026303043457	6.311649306574383
104	-12.05320164498363	-12.386779753882637	-13.16933437837172	-7.692125777850978	-8.309127786638657	-8.825784660944574	-8.854609467085178	-8.17105005108639	-6.136773570779329	-6.277470572834992	-7.008434754796858	-6.069720252924941	-7.200543862283021	-4.550693977310651	-3.6434552577536743	-3.799108257238618	-3.7818331622962718	-3.21635650776388	-0.7914017418907576	-0.10699757161544289	-0.2564956241330657	-0.02653714821493202	-0.36077663211334227	2.7303478648869297	3.0072979851136012	4.201802719951771	3.7850439452929256	3.2185227789681274	7.078482133160045	7.530017356934579	7.158085328149496	6.716225607127633	7.256373863973118	6.097733005387175
108	-10.890252085847042	-11.102355929000495	-11.950003593791543	-6.643153173840443	-7.319798451062742	-7.813432673754424	-7.899838904462783	-7.426373463000698	-5.089465128446722	-5.389117227299549	-6.170367225327082	-5.317302690432523	-6.841901285063506	-3.3253669654812086	-2.8930373118791324	-3.176432839956963	-3.442840090642381	-2.993187181545102	-0.08741294570549295	0.422539143687601	0.1199571785282377	0.11255057872727738	-0.8342065790095535	3.3732578669258473	3.5090122134306347	4.129396905010066	3.5291299730844323	2.5099704202223823	7.048816186274495	6.967579824022321	6.476906760075605	6.673214418729145	6.745188696043766	5.600188718008099
112	-9.734649633625498	-9.744849180413711	-10.56358239367864	-5.615188107618667	-6.373042090538034	-6.86960266286222	-7.031331998238804	-6.696336729309195	-4.120411385623573	-4.547034252130682	-5.390369401673829	-4.671383369095783	-6.387843592728446	-2.395040982875222	-2.2338027897703463	-2.6937272480665464	-3.20508217002379	-2.7600064207965462	0.4676085102673085	0.7178097945210175	0.30988618653259975	0.1096677777382522	-1.2260708777943612	3.661677828126978	3.5963477997579854	3.8149223231319187	3.1186168115079633	1.9256088685056145	6.5143422915973	6.045166000362423	5.73443602067819	6.214207156704434	5.882967457223351	4.966818320132108
116	-8.85904405264527	-8.69866655060878	-9.382954573783461	-4.896355139768018	-5.763361916296078	-6.276695712454869	-6.518410666220817	-6.216711505452994	-3.513674250314616	-4.021885861732922	-4.93406294530636	-4.36016415448847	-6.014414772107543	-2.0639605470045765	-1.8887758207317877	-2.5525493557380496	-3.2567446149617143	-2.76282476681299	0.7523110489924734	0.6521533711180584	0.18034519209628502	-0.16932976203128472	-1.5576232632411464	3.5494282156021537	3.2272441305696433	3.2622277654300484	2.5138516362617773	1.455031391284895	5.602779851119233	4.936921584062571	5.00092695880942	5.461901174106754	4.83203505249755	4.296554077744773
120	-8.267086961854663	-8.061183909090827	-8.547096230862063	-4.5557427291289585	-5.564319596547147	-6.0831837500528145	-6.376354678267707	-6.021458610590735	-3.323796502304632	-3.888231744486137	-4.868204104530255	-4.407316196758338	-5.803551659236601	-2.315284723158374	-1.9166140507945597	-2.780998222959123	-3.6223499683477316	-3.115531198265021	0.7223379593731714	0.22868364991625112	-0.26515510611346094	-0.736021159221132	-1.8701299381723577	3.0831069868448093	2.4823603567392345	2.5388235981738267	1.73288034955251	0.9985066627088104	4.478171337265482	3.8175325297293328	4.265675057131817	4.5608634833579735	3.7577648067967355	3.640436878549869
124	-7.770074824742799	-7.6674666211139195	-7.970598200701369	-4.449933040827988	-5.619816765901659	-6.1144466245771545	-6.394077761719054	-5.960993751734605	-3.382010451361147	-4.005477418323421	-5.043586718223199	-4.638425338478311	-5.722039208270525	-2.8410193848406653	-2.192155355640877	-3.218487254599931	-4.140989293133874	-3.7328731919456404	0.41840311779243433	-0.4124976982192551	-0.8715227224280652	-1.4503756724932437	-2.1848461572798143	2.380974525162323	1.5412135085294643	1.7857930615160862	0.8848561622213668	0.45353981738023635	3.307549229854197	2.8436803745952997	3.5076625258577487	3.6546721366163455	2.813085548927915	3.029678813914517
128	-7.155776482635305	-7.245542031114724	-7.461161594626733	-4.337010849493216	-5.650350556412947	-6.09330986391885	-6.2773423036397595	-5.81404589138784	-3.4189572247969178	-4.111444939723359	-5.187840448632919	-4.787376868558788	-5.661342129718936	-3.2275693335107167	-2.4837343630071276	-3.5983593373047866	-4.546561706508096	-4.377804745111656	-0.05371320606617896	-1.0558483573958846	-1.4004459345745655	-2.0788617081608027	-2.486439937035941	1.5926369388424426	0.6160950049104215	1.1770430773581468	0.1400987204352404	-0.21195281988513576	2.233220333183072	2.130874628409121	2.754507057864874	2.867922298819983	2.1159748977643664	2.5027558740369837
132	-6.343204482275964	-6.603523714559395	-6.866326791593635	-4.0298147099795045	-5.4146990639354	-5.800958141939682	-5.825571999146825	-5.426708684571583	-3.230772010275702	-3.9751651186715584	-5.056334482778416	-4.643151748378487	-5.51401613750667	-3.191692582655252	-2.582812541162741	-3.684378853078819	-4.608751285361092	-4.7940835831719815	-0.5620098099824288	-1.509979721071701	-1.647654171598435	-2.4118890701434754	-2.739115946529832	0.8546414353727554	-0.12657046286098228	0.8437675812399004	-0.3522950997994747	-0.9407581663221711	1.3517924513065955	1.727677340913913	2.0891587681476222	2.288859361591791	1.7216839746875896	2.108535046022286
136	-5.435025678263964	-5.7419094894398395	-6.164156898194324	-3.503049126363781	-4.8406453010414845	-5.1917991507103265	-5.045867430345126	-4.801836001670475	-2.7949414182669376	-3.5242614657114704	-4.560063827445686	-4.1590032472509915	-5.2427005635456805	-2.7350273063271415	-2.4130384861104224	-3.3878981981571945	-4.2579760443949075	-4.844333159613717	-0.9920225714432903	-1.6925364690009872	-1.544742341909837	-2.3753828942407718	-2.921397917047397	0.25590592558146924	-0.6208671911776698	0.8074498752235005	-0.5489378557650967	-1.6269705254485687	0.7016984802649722	1.5998839099545168	1.602748628384479	1.9515517900786037	1.6030924279746754	1.8827441883236153
140	-4.644296634392442	-4.835336196135455	-5.455125794942951	-2.8967742846785356	-4.055470933211848	-4.40329884371062	-4.143539418249506	-4.091820229689899	-2.2714097442499828	-2.875895731340746	-3.801656475005622	-3.466079464744474	-4.900397765185058	-2.129145140040685	-2.056793207697721	-2.801440708716837	-3.622199764643277	-4.574904430282973	-1.2770866123381053	-1.6530072647321974	-1.1865415543162823	-2.070060247916911	-3.0507702750429067	-0.17370139018549247	-0.9042434073506413	0.9659128164699959	-0.542554436744348	-2.1820743028861775	0.26563051275898913	1.6415457684079855	1.332279201958584	1.826920027888691	1.6577266412843081	1.8189822389454142
144	-4.150559891712006	-4.108682145235705	-4.875308501332387	-2.419782870859019	-3.303414813284435	-3.6626737025293714	-3.399587861061031	-3.504729262086468	-1.8917806100766184	-2.25663208391742	-3.003767959640336	-2.787854664439615	-4.591271865696971	-1.7397001937812022	-1.6865181880332107	-2.132552379946023	-2.9537923261452965	-4.173862446737401	-1.4037456477010002	-1.521971937151653	-0.767784295527809	-1.7125205950415354	-3.178531877122073	-0.44880941396887014	-1.067663190053433	1.1478677959071493	-0.5124348389085579	-2.580944293181618	-0.008658356942727916	1.7174334482700986	1.230274554961177	1.833506460329032	1.7481378272743036	1.8590301228317296
148	-3.979214896645953	-3.6889974977815134	-4.494489181615152	-2.2132360879332342	-2.7991077829262183	-3.148445836701207	-3.0077133102773477	-3.1816587367790956	-1.8059027149382145	-1.859764690472087	-2.374473804200953	-2.3075964392574972	-4.3980727084699085	-1.7951899721597808	-1.4443247281802127	-1.5781146248074527	-2.4883522924540866	-3.8512084386866676	-1.3946543896749422	-1.417926784750157	-0.4656413781807528	-1.510736700058437	-3.35549663650194	-0.5979409798784362	-1.1825830906574533	1.2088822095867209	-0.6198432429876586	-2.8613634037254587	-0.17533867016869395	1.7211300091204458	1.1895223825939736	1.8697910261630206	1.7611559584975394	1.9132115792607916
152	-3.9799814123758295	-3.527009955084414	-4.265737999636541	-2.2571620884174246	-2.602025025473975	-2.888177625993575	-2.964753620291816	-3.117590657946101	-1.979312414894074	-1.725129123146909	-1.9877484986664151	-2.06538223698817	-4.322118271405816	-2.237878316951219	-1.3441233601012879	-1.2118680446545607	-2.315840953702014	-3.718576898723068	-1.279875752078683	-1.3670487369354967	-0.33629912053077865	-1.5452899893846506	-3.5918455033215984	-0.6335715039469555	-1.2465863196370959	1.1140735121255894	-0.9085473395297163	-3.083515874706936	-0.25890102917154834	1.6204084117032347	1.1076765032458662	1.8577283573931218	1.6570562082415672	1.9016854715018063
156	-3.915926684983231	-3.43333934870775	-4.05611895490821	-2.3746721684582646	-2.5826423102976923	-2.7493777205670336	-3.075021497592152	-3.1694860378352194	-2.2030589524913995	-1.711750145405114	-1.7469953254461335	-1.942108030184234	-4.276017178229973	-2.745562308055304	-1.2560912338968508	-0.949160275447076	-2.3371176660658977	-3.7424857521935877	-1.0728911134334833	-1.2837090459837996	-0.2855813794078368	-1.7253389314959888	-3.843087663484392	-0.5395335541454687	-1.179170009496942	0.9580088233602214	-1.2731573549551423	-3.282724372205082	-0.24032926498770935	1.4649274312226783	0.9491649842140014	1.7767714217149502	1.4817355833790333	1.7917138292852564
160	-3.6015531925823674	-3.1971163668975398	-3.731888523216437	-2.3281893671382443	-2.4955866273815004	-2.521702998470348	-3.058731548216166	-3.1400403897162033	-2.2087552491689126	-1.5765453537237681	-1.4474966489485717	-1.733731146249886	-4.134063233428461	-2.9115321562690832	-0.9814272498147675	-0.6045801028246257	-2.326161617128105	-3.78831194874842	-0.7635535578523335	-1.0210808489768892	-0.12756532398441656	-1.8416868401759323	-4.031086911514379	-0.28185442018873086	-0.8687710740089565	0.9104413367173173	-1.514992829312523	-3.446877709269272	-0.06900702399474222	1.3524404730029576	0.7657170872429282	1.6712328153377327	1.3355545963900117	1.6103360612266506
164	-3.0042321606126747	-2.7115528515066485	-3.240703097744525	-1.9522473762813763	-2.118576521292954	-2.0416648336361853	-2.7025458744480897	-2.886375658377275	-1.8221464111099717	-1.1152703733896574	-0.901241121400885	-1.272105452186802	-3.8101231955653003	-2.478702538907893	-0.37500581050606696	-0.008692522511291425	-2.06112837271058	-3.7214012052039744	-0.3325532964416489	-0.46323630096781565	0.3021006576540172	-1.6867349105210667	-4.089772214100587	0.16109275777199084	-0.24556408760537496	1.1163421841093024	-1.4560692273571039	-3.532475462577939	0.30196165962275195	1.3692548240423534	0.6602361781617077	1.622964020446172	1.3129569258919505	1.4230858051610211
168	-2.250108236353935	-2.0309708067161636	-2.640358202943722	-1.2457179991742002	-1.3776942456747936	-1.2872751918717078	-1.9679417560482704	-2.3911576210686203	-1.0647969219027107	-0.2831906073096096	-0.05111380653589374	-0.5223084078953178	-3.3143377220398165	-1.4908415041476692	0.5585461244786311	0.8851150847976174	-1.4472559653935764	-3.49533604693074	0.2234735036214602	0.3970854272353707	1.0457948419870022	-1.1704473465932443	-4.00554274501393	0.7693946342116401	0.6639486534521698	1.6100772578596894	-1.04295396541489	-3.502543678977362	0.8775187112587519	1.5399538239699615	0.7190924864733453	1.7040673451315425	1.4483232461602298	1.2947055068706481
172	-1.536516781742311	-1.328651901705291	-2.0590391107071877	-0.3712875237627539	-0.38847100636631193	-0.3888167431074587	-0.9998347137956979	-1.7585710242694466	-0.1441312875684994	0.7749747018321342	0.991790768980344	0.39901992577899426	-2.7500376631923205	-0.27136716178091297	1.6548052984419523	1.9665862272202108	-0.5614870772490684	-3.168532363521221	0.8738659002175594	1.443322178057622	1.996178860392872	-0.36466383841952227	-3.820747127423243	1.4743931256262701	1.7355500415852594	2.296333307190597	-0.37675177955874195	-3.353935471649925	1.604309554817916	1.8173452569854358	0.9594237780189719	1.9376845310880415	1.701249237533677	1.2584713665660123
176	-1.0118670438014825	-0.7889440039742944	-1.616925473899223	0.43175712118813153	0.6041260346418732	0.4428489197040575	-0.04163941357947714	-1.1468638152730875	0.658110616929739	1.7980242922209841	2.003038639733463	1.2867832151349738	-2.2542934360809173	0.7535343151141103	2.6689255170195456	3.0212993545545697	0.3979245414224001	-2.846983664000412	1.5520759781751958	2.4882488187910177	2.951833479104344	0.5425114617955734	-3.597699156260921	2.1777682249398964	2.7982091833038534	3.0049178524444398	0.3456822326992425	-3.1153411786579572	2.3843412339093164	2.1143228954339426	1.3223608698837108	2.2856225909700805	1.9854972312389325	1.3091157641737432
180	-0.698363421584275	-0.5027149306956411	-1.3605120147687728	0.9707576011943974	1.35161697523282	1.027332184105149	0.6913263780305696	-0.6809949261638013	1.1345167131390386	2.5418226654727736	2.7592930724096756	1.9541897724404127	-1.91717648022124	1.2852846351598144	3.3999056730261707	3.838868846737842	1.22303914715016	-2.595366471413638	2.1747152750422085	3.365180483904859	3.723001947540021	1.3528221811471355	-3.3658630762951036	2.7903478075149857	3.7099544908316298	3.5870623497997394	0.9462801790188007	-2.817855589427957	3.1141893785052255	2.358958953623669	1.716319914299216	2.670510046892254	2.2244534436330623	1.4216811621057905
184	-0.5043897020003116	-0.4291830350053605	-1.2487647501888468	1.1880266636417565	1.721024151271592	1.2996700969307455	1.1060368986815243	-0.3985178162526741	1.2515685526720024	2.8961987422300375	3.145014754938019	2.318878406392099	-1.732522483266182	1.30233108668538	3.786779155707246	4.312453259070598	1.7987062885647822	-2.3830399453078654	2.6722636155371187	4.00286673488885	4.223391999072068	1.9571682165323192	-3.0916643064643177	3.26798152098498	4.4146351702811195	3.9932138819011365	1.363889333142509	-2.46466230723863	3.726551523336723	2.536238663945734	2.0780370182977723	3.0163407249589347	2.395908588082382	1.5776350458368007
188	-0.3093608609971982	-0.4405235935056285	-1.1936268776321337	1.1684503525797316	1.7438166097482872	1.3250756230277967	1.247620937058495	-0.25455081398592205	1.1461238832147138	2.92209505297093	3.19473909525132	2.423787826140656	-1.6105276305544751	1.0450186703046966	3.922813405623192	4.475792396689212	2.139763349852744	-2.101892466006708	3.0149762554341812	4.442016590347486	4.497305858701546	2.3724884926977867	-2.695402615417663	3.622824421318946	4.948043810749578	4.287056912088819	1.6779980617119485	-2.025524611127497	4.210144032339159	2.690888874889508	2.410068029040896	3.2823121464828557	2.538830750731182	1.7781250431943816
192	-0.05922254532524513	-0.41343250766322975	-1.1244202823860263	1.0716029378538499	1.5767021139391317	1.2442864148195993	1.2421399323573674	-0.17244762138696879	1.0297617886293495	2.796365492436316	3.0551252287977806	2.3910002648068103	-1.4429054223824047	0.8557816126197851	3.9852924246304866	4.4643816835222205	2.351754659437146	-1.6460618931219253	3.2213034548491684	4.788951861688355	4.673100459698137	2.7031540802418426	-2.1091203636325027	3.904478301680836	5.393930421562299	4.591453063816631	2.0466120191400523	-1.4633165560970458	4.598872173142382	2.891635410637555	2.771518938696557	3.473186007313812	2.720412009046537	2.0358750768759006
196	0.19220510076633093	-0.3059952549361307	-1.031828400867784	1.0331472132347548	1.4036928379858624	1.1872850626533333	1.209594723508567	-0.10170848641942688	1.0605144473957007	2.7015359333495654	2.894596092545363	2.342212432669856	-1.1778476208512938	0.9715573167113297	4.123520840724365	4.428188789631665	2.547878020529507	-0.997944352491419	3.3435745154840673	5.135486112980189	4.874298560233862	3.0571970862449422	-1.339283224539167	4.160205830560943	5.816932663536313	5.0001864307046	2.5970377856489204	-0.7753375153039661	4.936602580004538	3.178977958282446	3.228118411497001	3.621140470899003	2.9840371533394436	2.3518106878030935
200	0.32197394885788555	-0.17389710203611836	-0.9655285453260992	1.0948032113090687	1.3395292725121788	1.2076790302303224	1.2023798196953008	-0.044682100302418336	1.258686420123819	2.7276854446208247	2.8158955502941114	2.335808271232778	-0.8550420381892794	1.3930700982208122	4.372130859780523	4.449715126247239	2.7785193849984626	-0.2613357894975087	3.4392905148456787	5.495369897319373	5.144146429425609	3.4737207801853867	-0.4898153531105641	4.3995180018927735	6.214706405207812	5.51132105389531	3.3377978717456	-0.017330454618687017	5.241495119212786	3.5314321428784243	3.796285142850604	3.7550032044019743	3.3134543812064754	2.6965777805910878
204	0.22623659613233685	-0.12269180237072538	-0.9927405689924419	1.1983206241870556	1.385607000667328	1.2708382574420767	1.1988637417088779	-0.04016515974990536	1.5112543067923598	2.8391909527621517	2.8177118230251215	2.3530347287851106	-0.5802786335599617	1.9030982207887057	4.637845981332557	4.511685836845173	3.0132353229739772	0.3814421882535648	3.5428388029295816	5.794241413746191	5.425883279452817	3.903762330689602	0.27473896672502146	4.585715759143616	6.517898066277043	6.021714672144044	4.143234719306184	0.7100101691439811	5.492845998247375	3.8720562360278308	4.418212879470085	3.8791165253929396	3.6365547088361603	3.0129616184458596
208	-0.10196005527264687	-0.23188358486758368	-1.1473932237266458	1.2398638693977209	1.4561701976250985	1.2952569690427178	1.1460591525706512	-0.11978409409082756	1.6551589924031564	2.9185256884322124	2.820248358281779	2.3346168935960154	-0.4542696762536683	2.214252943170535	4.763946998012473	4.527291763319443	3.1796743789502435	0.7683112005862932	3.652031412440884	5.917984470684746	5.606316075475539	4.251737583869887	0.8097898939668295	4.660604465161816	6.637680036952406	6.385179026695135	4.820022570838425	1.3081527915351834	5.649180398029671	4.111514081111124	4.984800802996864	3.975724687075297	3.866812696230889	3.241394988459331
212	-0.5578271136505208	-0.5020942079265174	-1.4041891062570093	1.1455175847695893	1.4490427934301418	1.214014646326082	1.0139831278949558	-0.2720083885477877	1.5843169649178308	2.852749817321425	2.7298767497758147	2.2353718224354524	-0.5038856255207188	2.1519782488850145	4.6303114774148115	4.406705845197379	3.224456540549826	0.8478574135354827	3.7344269658217226	5.7878947111865315	5.59031580467243	4.4426636583695345	1.0646007034126055	4.58658598695514	6.529693587029733	6.496138556291698	5.210305677610624	1.72996127168665	5.683770642235552	4.199049462207257	5.390048490267168	4.025845517484643	3.9540915389365563	3.351232043388318
216	-0.9810624097850185	-0.855299351440125	-1.692120667000084	0.92176365619633	1.3151156869109752	1.018305775932443	0.8251152613788508	-0.43883356341193397	1.3162063326983218	2.6089031630451105	2.501870387436436	2.0606725163884887	-0.6606442315588098	1.763068909962131	4.231195915983517	4.118659962745914	3.1546358982547926	0.7062694412519668	3.7493688965548717	5.418570504813077	5.361319051557965	4.471359241640591	1.1040502758761763	4.380873192216947	6.235768302432468	6.350057585896357	5.272948728599926	1.998424048146603	5.614583478103592	4.15068482304714	5.583039746493779	4.032481183361444	3.913555612220052	3.357384911643657
220	-1.2431632248962876	-1.180439826846031	-1.9342596482078944	0.6538322551432081	1.087181803819461	0.7606440167296133	0.6436206682167803	-0.545906542353408	0.9818958615308084	2.256075614955202	2.1666665022506404	1.8648910475376965	-0.8004543165024541	1.2886706558116658	3.6878807451598212	3.713009586496524	3.0351865214964366	0.5125717507772614	3.673058023715922	4.9253706807714215	4.99439285924706	4.404062736836133	1.0633959743354469	4.119472970098598	5.877891048849937	6.047533020009767	5.096545206553847	2.1818079893339934	5.507788167399103	4.038025368985874	5.586573586664301	4.028158177696089	3.8151745699879713	3.310541144595789
224	-1.309805151493475	-1.3911805117769136	-2.085435862044351	0.45715674642536475	0.8556328394268014	0.5207932578289528	0.5352408872442277	-0.5456088171535065	0.7500169258255055	1.925849194432742	1.809021945200725	1.7157001452044063	-0.8201382735526714	1.0222338412225134	3.1910824695128714	3.294322959211931	2.946557752799304	0.41673564805673036	3.5137278944947785	4.476109493398617	4.61660622384834	4.333653439070784	1.0622991296650595	3.904980172788578	5.604661927377909	5.740495667269337	4.838718878927208	2.339093917663081	5.448399530006321	3.9437153239816745	5.47176645804791	4.057791222817806	3.7391033078204137	3.2637548364253384
228	-1.2376279799685515	-1.4568593465262516	-2.1426284259105737	0.415577201986123	0.7133492809405129	0.36219468621361334	0.5300747738806535	-0.44199076183307046	0.7341222744526718	1.7410319999607011	1.5204610786197008	1.6527897077793166	-0.6990383845800074	1.1412959070000965	2.9092850611667243	2.968336813108087	2.9357480928687103	0.466081677690597	3.310976973757286	4.2157068146127115	4.342915524008337	4.32235430579853	1.1331096858980232	3.8165066145860487	5.520777688392919	5.554928765577204	4.63443373463707	2.4739224848275545	5.495201573802952	3.9128835102472617	5.308799253411756	4.147776116389444	3.726567258962904	3.2375938810623115
232	-1.1140749426370602	-1.3925071919569747	-2.1261846965514555	0.5420969114922072	0.7056837660138825	0.3058303288844536	0.6123485549725232	-0.281926541808727	0.9369506812281769	1.755524750091957	1.3560018505192954	1.6683750110465472	-0.5059857355694326	1.6112794835417736	2.913597337996047	2.7939562727005773	2.9940521641478983	0.5912448152873406	3.1213228623739337	4.204844941013426	4.225219715894846	4.369612205917252	1.2118442027967107	3.870830049278607	5.63904713160628	5.534378514622008	4.528956878671684	2.530934565829853	5.647294983910896	3.931085338204236	5.127514826226633	4.283358086261976	3.758030881930341	3.207671872623453
236	-0.9864076351056905	-1.224836227185601	-2.049939388821593	0.7795749286996397	0.8113232234498052	0.33141311919461913	0.7387292962496644	-0.12122365801722765	1.2576005427080426	1.9345172594819633	1.3155689206287031	1.7177183584714055	-0.3489698460828183	2.2096061650755776	3.1534488121524427	2.762830488858874	3.0704433840478025	0.6667072160100549	2.996571294848325	4.400102604247254	4.23742293241677	4.420876014991926	1.196456786949635	4.01499270379134	5.877553924979939	5.629720196815375	4.469087589424646	2.437075847194753	5.840326294458695	3.938666810581945	4.910229670525225	4.408692825630595	3.7691659832205873	3.1215040604935935
240	-0.8304119685187983	-0.9652987098164256	-1.9047235202383377	1.0353668902005861	0.9608041023791956	0.39968702096163616	0.868933079433047	0.010302951533411948	1.5511000117241076	2.180787796236594	1.3554624284854402	1.7499976113958897	-0.299841224390221	2.6492609910834757	3.490569105872219	2.8134889531627367	3.10854434182209	0.6033371671702625	2.9655752107133257	4.682913768389182	4.300359715094784	4.40859030564184	1.0340523693680286	4.155200947761079	6.103126510469993	5.7366337631348	4.352753151394388	2.162751430773098	5.977032169510275	3.872075786351268	4.6197748067566	4.452932823382669	3.6945693399610495	2.9355730936320916
244	-0.5845406040692208	-0.6155292972282865	-1.6718604522456328	1.2237132756808677	1.0742843123969457	0.47425597786374546	0.9825251673687582	0.11804661870001162	1.7000124411577102	2.384071105659876	1.4147763216538631	1.7346926883769749	-0.34628814371417693	2.7250027587755468	3.7661182785316267	2.864606850067368	3.078155271387951	0.410456507361753	3.0242595596252206	4.916889655097033	4.325687874363112	4.294768799428968	0.7751562575796618	4.204403866643202	6.194982036208539	5.7541336867966715	4.10033892549969	1.7599053338440196	5.974764331991586	3.704746475402884	4.240957726261605	4.3671483883270374	3.510504952150621	2.648518078792871
248	-0.2201890641852107	-0.19707450220896242	-1.3547501529821726	1.294300791333645	1.0953066321375706	0.5296785818078318	1.073754665524809	0.22348563316664138	1.6600140291264334	2.4645533499482553	1.4393340312857696	1.6694755512049013	-0.402151106772752	2.403505796086272	3.8650822541881387	2.8482367920490055	2.9826326294935024	0.18924176645183693	3.1355521599759477	5.003071295504445	4.253948200929735	4.089847077534237	0.5559521899491999	4.1211380854508395	6.095236286033127	5.631638512697983	3.7054326440718057	1.348656412534301	5.803654656062513	3.4628515156101676	3.8067653083057116	4.149952878011145	3.2503955282162695	2.309645408521123
252	0.20345362969529807	0.22160130683263085	-1.0035965417319095	1.2385271756373628	1.00646149858045	0.5469877110022591	1.1335684032430564	0.33322086846144783	1.462396618011905	2.3941059052103464	1.395031806284707	1.5700510700640173	-0.367732166315523	1.8182030870308774	3.7525207901626367	2.7313284805002986	2.8439428734502274	0.0641883535552671	3.2407166876034994	4.911365973470354	4.073169221131031	3.84175323470053	0.5181374536784009	3.9227297207021388	5.825699791504901	5.385776029340455	3.2400746263716	1.058689830014443	5.498315797275314	3.2098951258679618	3.393250218407354	3.8493072889417115	2.9864201470315472	1.9973459193346277
256	0.5452765212597227	0.5303120003662606	-0.7105352264584819	1.078830835479644	0.8253940919064062	0.5071826564381453	1.1378338308217038	0.4207047213423027	1.1822419136716202	2.1931052152576194	1.2709051338533457	1.4534150325319568	-0.20079109021990366	1.1845387190475962	3.4727978618680146	2.521699183773092	2.6811416081447086	0.09908954029099498	3.278073064157133	4.6797394634350375	3.8157629870397085	3.606601944400675	0.7146720868186733	3.668475618637159	5.4674310546164735	5.085046755349968	2.8155136037313553	0.9594533419227059	5.138274179837163	3.011131755855875	3.086501590565487	3.5385372549362915	2.7894658971931157	1.7797106459506933
260	0.6563197357773392	0.6248356088121512	-0.5694234356808743	0.8572931268028281	0.5939550980830797	0.3974078585604691	1.0597078773446365	0.4398355770927232	0.9012455321445872	1.9171392869229942	1.0820475789407609	1.3338293995559884	0.052030410486225795	0.6970190388247604	3.1251771371139587	2.266370052337658	2.5056977208770905	0.257945179288021	3.2064249434579	4.3931093105027035	3.546632757769246	3.42779516308332	1.0697878572157322	3.4288895043586334	5.12293242114787	4.821004855381844	2.5326087410880773	1.0265248987983495	4.813687312370534	2.9043195174323126	2.9458591863643004	3.284390918068794	2.696211092817355	1.683823581259008
264	0.47782480596066157	0.47179114699457186	-0.6216412170927688	0.6303518398582522	0.3686679890384563	0.2277715647430397	0.8989753104401139	0.3620792916216195	0.6860926729999908	1.6435382324685068	0.8732176997072635	1.2324582307216552	0.28481534051511753	0.4636088299967213	2.830965750222494	2.0438165613071444	2.3358075559770426	0.437233148901433	3.024615518562921	4.1549849405289585	3.3495173369717484	3.3342261230210974	1.4234086239163095	3.259681216593094	4.881642329288807	4.681379306417958	2.448672288434396	1.165162679591511	4.5948448065143666	2.892199032157128	2.9844982548702617	3.124673835494746	2.7009890011304876	1.6906059937708757
268	0.10042238210119418	0.1503052111645527	-0.8196345547009464	0.4665665316722982	0.21359850412322934	0.04544663045257053	0.7064244729326362	0.21169921702341796	0.5865743145438225	1.4591149054881472	0.7166110259083214	1.1890746325035515	0.4039273549848964	0.5001253473052675	2.7023665836770583	1.9479937504223648	2.2144830170987873	0.5463731275115317	2.7788662840301797	4.061011304139022	3.3118381416628266	3.351544610144731	1.6346280533528192	3.1907238879708077	4.800783622064977	4.732013213608235	2.57243465727781	1.2752351728667666	4.51650093845655	2.955158703018678	3.174547187419609	3.063516609086653	2.771802418386393	1.754644270281558
272	-0.2605082684138588	-0.16413849550767876	-1.0359334919523904	0.4365522850458827	0.18918372642913345	-0.07118864339498061	0.5788794145273921	0.07034379226090608	0.6399288757380032	1.443108435801997	0.6949915272331996	1.2588208882020928	0.3936229636267878	0.7660225014419861	2.81547950987463	2.0615887589856627	2.209683174276433	0.5789041504549114	2.551147216077893	4.176931370679848	3.504289379809136	3.5094840437974857	1.6765384631743738	3.2284750856904365	4.90137623503122	5.005909907100062	2.8794784473198596	1.316026565090133	4.578423488501627	3.0709969919870783	3.4686040790722066	3.0819446962746238	2.8757891582361563	1.8342115832749446
276	-0.36785358097662396	-0.27493864228451487	-1.1189402313592127	0.589268623294802	0.3313881746508436	-0.04563178110522692	0.6166125520396996	0.04025108729571273	0.8658788778378222	1.6409211117323166	0.8674712159189766	1.4850336275754186	0.33013868248557177	1.2029745548393682	3.187380305825929	2.4207138954080603	2.384456151664153	0.6252280457923616	2.429153674668368	4.519795883211415	3.95365714028653	3.829974403248335	1.6567017990246276	3.3627817545865746	5.1708474028689375	5.493474469620301	3.327226868812084	1.327813502773997	4.754019725240906	3.224956504308939	3.8201856516708763	3.1525933662927863	2.99472879607368	1.9114187907597637
280	-0.0917347741791166	-0.06523729844311789	-0.9696318482713668	0.9211665964711224	0.6256890281138906	0.1486572470488022	0.8614261724657635	0.18296511425077264	1.248081442542867	2.034885639775127	1.2291880814989544	1.8590830517561567	0.3318255535331011	1.7469954446554226	3.7604763412900115	2.9833497925776293	2.748663656924427	0.8103283027217264	2.4662256178578517	5.043783175131883	4.61625670221226	4.298038948651668	1.7447454885301217	3.567287912898981	5.56342123534336	6.133238300097338	3.856441249647577	1.3963997328788484	4.996775137683428	3.4027109060207974	4.189388741406453	3.246546498684972	3.1204676549328556	1.9898766228981026
284	0.5089898692631724	0.4323858905842797	-0.5981644972957796	1.3567342723924463	0.992134330151962	0.45406344418326616	1.2526423899495647	0.47046586752365943	1.7147787766077947	2.529855244924985	1.6895720916052122	2.294818157124232	0.4752807009141368	2.3139772356738826	4.404373157825339	3.6225833801360827	3.224585048163637	1.194292661512594	2.649605744347986	5.6391739702900425	5.369720922264291	4.83668135375535	2.048764462066747	3.794578065828547	5.999700054279704	6.8121928996709835	4.383134830852594	1.5840980966627682	5.243273721808393	3.5747630505906796	4.534687984461658	3.3308656131571452	3.237230531148678	2.0747230000566277
288	1.2052975862589792	1.0418131325167694	-0.12543113498013841	1.7620174840309477	1.3008121219217588	0.7377234678716191	1.6360554653822965	0.7843857387766049	2.1424150412828165	2.9734933301238766	2.0920898861516966	2.6440880231857697	0.7353334408314498	2.7874262262540515	4.9471440190343206	4.160008419977945	3.6580231097371576	1.7084871487397684	2.898102991416514	6.155668719962581	6.03944586182706	5.31252335160792	2.523617976492857	3.978151788204423	6.376139147872744	7.387203197901839	4.800576197901683	1.8744749975562238	5.420320497179264	3.690384855489803	4.804696547775313	3.36691712483065	3.309950104939688	2.1527287905701313
292	1.7092404322385377	1.5249202212933792	0.2722702317516249	1.9935220429633618	1.4201853239442839	0.8473137595718591	1.8302262975260344	0.9701206659619357	2.392734283128238	3.2121226706468837	2.275791877722806	2.7569527556431233	0.9901598666941174	3.0355272216451126	5.232923494478568	4.433066356910611	3.8809163472420334	2.172118181466612	3.0948746126238147	6.450112803386661	6.457841380027305	5.581712231848694	2.974940530895369	4.049649228362044	6.591358645010031	7.728584746875138	5.005120264768071	2.1696164553224158	5.462628827608334	3.692963352416276	4.944437014494036	3.3179616844330106	3.293128958970805	2.190151209070009
296	1.819899912054059	1.6993236498844249	0.4490716744052197	1.9631290386226772	1.2800104585755352	0.6898702961670279	1.7197464661094126	0.9198924875876204	2.37192701694542	3.1605212608650555	2.153991216943287	2.561321490496786	1.0922489138683131	2.9610805436714513	5.18552492739853	4.369040478166011	3.798208703941939	2.3851506649833225	3.1433277050765556	6.443416102353765	6.534312708569585	5.558610902103552	3.165465823764559	3.9691531557961124	6.5837383104040255	7.77126787130961	4.940393435402682	2.3450586736599845	5.338263975017052	3.5517151266071223	4.918831336000334	3.1663126865553894	3.1581213394538783	2.1520125811603186
300	1.5254898032774147	1.5296921691420489	0.36216521171684635	1.68696796468155	0.9177678800299658	0.29279076979147506	1.3260682787793798	0.6395221336430827	2.082786793218642	2.8514683174619893	1.7707787707443623	2.1195762103926032	0.9643745994061611	2.559922688696729	4.849147307550781	4.029724110919675	3.452820292338375	2.2488667908156876	3.0207738800075563	6.161693080604109	6.30344389277674	5.272846208611171	2.967013828415993	3.754537811336743	6.364253981734538	7.550868968972998	4.641478526794577	2.3302380979832913	5.0711374154803	3.292087785038497	4.7418231844391805	2.9322259352085354	2.923016063939674	2.0322442003439303
304	1.0077958081550231	1.1444568605138445	0.09376496052910485	1.2873983350675027	0.4766436803227745	-0.19254696320557707	0.8114123323935195	0.2578823559925864	1.6362444121057573	2.431644671976532	1.297318097653847	1.6218658644736028	0.6601253135227053	1.9465330790011868	4.378591526420705	3.595553627473003	3.024084083551445	1.8410235596905464	2.798007242767864	5.7346634720020795	5.91921852524706	4.87457226476198	2.4618582663368955	3.4878384978926626	6.022297367149897	7.198591214125109	4.243411530271524	2.1623463576082274	4.742689597553448	2.9999482555941936	4.487714279288507	2.677451126968113	2.6604139737671093	1.871709699673496
308	0.5478077517030084	0.7691558580052728	-0.1898374254678959	0.9410619711958242	0.14729218147760267	-0.5539979920705278	0.40802869097689143	-0.030256850568554892	1.2092176645266697	2.097990745969562	0.96094321961975	1.3103239503202901	0.34811675460662433	1.3220022883416473	3.9755420584441663	3.2892172253533616	2.7523407866606266	1.3899626696779375	2.60930370625699	5.344214425899246	5.590477452468654	4.576333034405343	1.9228872012227523	3.2868401921257204	5.69327019207729	6.889389497529059	3.937039842202264	1.977337355389783	4.463658321555053	2.7899403501643296	4.270286072439999	2.48422502844168	2.471705430466087	1.7481625035971782
312	0.3806022992061553	0.6087025984654625	-0.3238487831522396	0.794286606690603	0.07590467463641164	-0.6230525954728419	0.3033955387561709	-0.06260222180773438	0.9639552807312249	2.001493448926207	0.9358023381448335	1.3640360797775755	0.22229681852959768	0.8898223616068691	3.7967386149869102	3.2710938371087135	2.82161163571364	1.1551721066873526	2.584384434850789	5.142323480974401	5.484101281625167	4.554012763923366	1.6747249322570166	3.2498495496715054	5.498012052006305	6.76385305604303	3.885851373398397	1.9396859358452565	4.324987877416637	2.7513456275139694	4.195271481412353	2.416658872224939	2.438386672539344	1.7402821735313196
316	0.5813893661125468	0.7457267623193389	-0.22840350808651408	0.8918223954572577	0.2880588464616709	-0.3635731330275312	0.5446584210949624	0.20620557613762988	0.9721937751066344	2.1708517019776226	1.253133055384117	1.8061875059302324	0.39291688700656113	0.7644430379640709	3.8820135495402885	3.5609445481994206	3.263880483016208	1.2863398757882538	2.777132742545909	5.180608259472712	5.645799622586546	4.858421313417259	1.9152550648971118	3.4029052171622745	5.485383973577495	6.8628711527168615	4.144782055880646	2.1524672453895173	4.353497494196464	2.9017536566905	4.310358036602744	2.4858400758924364	2.5784649783838005	1.8863432359753562
320	1.0419108841339542	1.1090083094253649	0.053598396344760525	1.1585053176240665	0.6721062643248233	0.10552299741090625	1.015661594687593	0.6808444244361234	1.1861760586354424	2.4992577966532377	1.7813444092598618	2.4858829912365663	0.8230252245150786	0.9248106456295551	4.140973557507693	4.028296937308776	3.9381697078457734	1.7422070459248364	3.13012837573366	5.3891424996688695	5.980444416205761	5.386326776256789	2.6011404925477417	3.6801311876842697	5.60971497073063	7.109644871881415	4.627134311437726	2.599421733015338	4.497842777340328	3.175595037072115	4.580149162172807	2.6408972673497093	2.8340206074688092	2.1609873717107795
324	1.5391207894566838	1.5215059480399755	0.38098922275673786	1.442787285976758	1.033179876580009	0.5662828669555882	1.4963104687105826	1.172887560744188	1.4713166914986002	2.802510731297143	2.288319581930068	3.1454808632589857	1.3463278974873845	1.2379082410075777	4.40619086106782	4.457296837043526	4.59636973174245	2.3158965052308043	3.4967670352388946	5.617042527322237	6.302996142686318	5.9277291148251825	3.4645917328146365	3.9512252707858337	5.757607445485411	7.34979055456368	5.141011225118339	3.152169696478792	4.655368316340807	3.4559910210138414	4.902249323865686	2.793946974376016	3.098975889011165	2.4847917494027736
328	1.8577223969286594	1.801340813857203	0.5893127307318244	1.600532408488036	1.1936233013534563	0.8112446645281897	1.7755259230608682	1.4959138594052483	1.6835266309194867	2.919868461866322	2.558121436336164	3.543906441324103	1.7588068202435827	1.5394469460720714	4.527071941390067	4.656066882775811	5.004871355772118	2.7531125475992297	3.7142903711002235	5.716845974793646	6.4370126561724215	6.268773539928484	4.155082215308987	4.087143887691208	5.813208565340149	7.432575683901787	5.482559667096588	3.639173021665243	4.728849399071545	3.6346266177918336	5.158761488287635	2.8684134410916924	3.2735929406485464	2.7634878088797974
332	1.8940048169954413	1.8548662615675233	0.572602687820522	1.5692863424734798	1.083316442615536	0.7459618430377395	1.7535403922631048	1.553517695319383	1.7447915033157722	2.799458496655191	2.4987170633172004	3.569832792805886	1.9265288065907553	1.7226211981196717	4.450727928368705	4.5519065742009	5.055973040213411	2.8905653880572486	3.688300123439402	5.625513539416328	6.307760699559054	6.295898898441542	4.423077572145791	4.028238763175622	5.72518633350672	7.290933113763794	5.5376763203998145	3.93546413381696	4.682112681965423	3.667328825274576	5.276650892286868	2.8435265946121673	3.315833560201323	2.9353496954240375
336	1.6897350507036166	1.7142369703881541	0.3320251098833053	1.3926786149149157	0.7708616237251482	0.4296316493631298	1.4795656166868192	1.3743905986418137	1.6745315747898533	2.520164960220447	2.1823253576493378	3.2836284554547523	1.8465318633189123	1.7824240877925974	4.24399517895169	4.221136559319461	4.808729636449213	2.7355947425439706	3.4418373021012116	5.395381913868205	5.978662475750055	6.044378742216217	4.241230477115408	3.8151383303640394	5.535394177766417	6.97576521065937	5.33491610133776	4.020183076245277	4.560038078239208	3.591659775248947	5.261333929129739	2.7659864355824735	3.258002034544721	2.9978718681940406
340	1.386254545526533	1.5033099613381742	-0.03187655276952745	1.1830793589286002	0.41862392319844727	0.03356501824130056	1.1087902756353272	1.0798673602496711	1.561520930162458	2.238754028390048	1.7979046060945774	2.868901007084724	1.6294829804287976	1.793177242520087	4.045330514231102	3.8401834867796882	4.441452968827913	2.4427256522494587	3.101869575298415	5.158508764594425	5.613115296497192	5.668579564087871	3.797434320398972	3.565478315888169	5.352107034521897	6.627588732198832	5.022214876846493	3.973161448937848	4.46034716433685	3.4978182227514996	5.186610208767861	2.7210566928828	3.1804399410058055	3.0006997509536246
344	1.130199667938146	1.3550751175046676	-0.3779993047707412	1.0470123264581104	0.18838810873151907	-0.25725346738714905	0.8074375966667078	0.8066953996318385	1.4975899420121008	2.094892258123381	1.544108148491028	2.524658196750851	1.4190002643998516	1.8407025290745966	3.9766988653870468	3.587339392187956	4.146605481169011	2.20705699363426	2.83000659228119	5.046382414474685	5.384806142563119	5.3537082536951	3.370505086018491	3.4091079149005203	5.284123407374203	6.402883990334516	4.7815985558902705	3.91741250956444	4.474104393153435	3.4733083160445823	5.1493439544369	2.780252688064155	3.161439649229436	3.01162838175489
348	0.9910505985033919	1.3338915075956876	-0.5983772262724458	1.0200581524844152	0.1518896516302942	-0.3435718706516532	0.6625871045550031	0.6325869544270414	1.516203995691301	2.1298692172635882	1.5220816096977627	2.358844512705989	1.301481243662318	1.955353255103491	4.067522038680689	3.548856487850912	4.0277819531792165	2.1435205882313193	2.7358281543323217	5.110675798864362	5.3846311433265	5.217649923502726	3.1684162536734917	3.417314759209634	5.37304066255132	6.393062098574646	4.7279467463333456	3.943626632270473	4.627692210911415	3.5517082124683457	5.212792383384374	2.95469593255781	3.2311944879968033	3.074130050527142
352	0.9382638311539082	1.4071989023919884	-0.6659172160501965	1.052561995709846	0.2593851976998364	-0.25461420352548064	0.649495600014234	0.5480691180696887	1.5767400224931132	2.2694501819532946	1.6901636080984697	2.3459260404485662	1.2648901907456682	2.0932710117895836	4.239399422432531	3.6834804918750326	4.0588030712649585	2.2277719918271988	2.824659578821179	5.295415864926259	5.5784802295985525	5.259762273860269	3.2267732538771066	3.56944607787156	5.567777142772548	6.582868082592502	4.852126109270555	4.062612046475068	4.864103781817219	3.697739114962202	5.3736057145823635	3.185553781096044	3.3590099726747105	3.1836247363774035
356	0.8849178530285535	1.4796494208171618	-0.6325146539931114	1.0526978942995908	0.3817521622079366	-0.11357019067939214	0.669819353319855	0.4858430015695374	1.6022175510008712	2.378761762335268	1.9028097343087211	2.367806428653211	1.22842287707126	2.176299804914917	4.360343922096659	3.8611428640155894	4.122903813443208	2.331864112688659	3.0067427082442757	5.4766788344393165	5.836868271396137	5.381075368646757	3.420517674393198	3.773946514138083	5.757108196982033	6.868769628348942	5.03902434030503	4.209648598533036	5.075401293338187	3.8359329603621974	5.569469437842738	3.378377667480548	3.4799501808044244	3.295632830882208
360	0.7649381141423253	1.4654506407931958	-0.5831981882629788	0.9575028991366452	0.3979444493737048	-0.05072157817193956	0.6310466512006446	0.38358706139039195	1.5431710442682354	2.3539466798478714	2.0068683573599024	2.3074881972228583	1.1186900110610773	2.1600620692076222	4.3347377667658	3.9491262336207233	4.102621544970246	2.325645202487075	3.1588649670002185	5.544839368172257	6.015819534372063	5.458230958509331	3.5707881360499343	3.9284088512419992	5.84072588399626	7.123269063131197	5.145840631844427	4.292009342801413	5.167597757643988	3.9031240841549586	5.719697937829658	3.460973254048748	3.541874161360972	3.3580007468319217
364	0.5911794289921871	1.3506312336200132	-0.5766762480481218	0.7842049578894575	0.2729560725950013	-0.11869030415847712	0.51395046581208	0.2366699123367692	1.4232329094239553	2.1928768102594165	1.9364461849913144	2.134770387981805	0.9369409656711031	2.0810182042033314	4.172183979944764	3.893534888927704	3.9627270598498123	2.1728899424052157	3.2011830725910073	5.478631959434385	6.040930732733956	5.424455152167605	3.5699653535355322	3.9821319479538957	5.795586571366085	7.266907673608388	5.0923867097076565	4.247499932055635	5.119609343000743	3.8911507031427077	5.773131832805835	3.429772129936239	3.5421450048661476	3.3463001166734747
368	0.4548914123017507	1.205177184876837	-0.6098400338988396	0.6261062606262648	0.07833696136962007	-0.2618820660654959	0.3845981945818088	0.10557244691420319	1.3324881758426388	1.999734039026169	1.7496385530166694	1.92914521207121	0.76916742130633	2.0446155019636967	3.9899256128664695	3.7478265667705575	3.774260511405967	1.9593180368546501	3.1415507714109983	5.3637032373429605	5.945413097629656	5.307412134122045	3.4446473034674083	3.9630215067942594	5.695089325831242	7.305789452227263	4.907028185853132	4.078928460313268	4.999618040813457	3.852988233375167	5.734907135789306	3.3554496680419756	3.5306796938446796	3.2806909001490587
372	0.46872138858710005	1.1396197051839552	-0.6261498912261303	0.5940254911683817	-0.05623811096655391	-0.35615581184111894	0.3461498609386472	0.07485869507963094	1.3704187835425887	1.9203947734031173	1.5879305561028603	1.8277142001736733	0.7312186341897696	2.1584443991525024	3.945275058322219	3.634918918969074	3.667544832506697	1.8342430545273067	3.0627720278659987	5.343328939298698	5.84307144597154	5.2048334943969	3.32373952026437	3.955198993233687	5.668498978608338	7.3160319143596055	4.7040924907173025	3.8479099176531255	4.928913580847926	3.8697359464218724	5.658301339168752	3.3439221297715194	3.5786020665416807	3.2156329073781333
376	0.6882570964602549	1.230987903348048	-0.561093388571321	0.7403837423705178	-0.027519518440027074	-0.291714280107227	0.46386676909633556	0.19183684837067713	1.5752263029382192	2.049885029385695	1.5864331682205934	1.9330756615470654	0.885356364399059	2.4541294512776735	4.138751496356077	3.6697039511535894	3.7466037178814333	1.9078000735752967	3.0648820322857206	5.531206593853649	5.85640667390418	5.217365728557154	3.3407683288151264	4.043788422865367	5.824686512546277	7.389309387624305	4.609406459614809	3.63967083965715	5.015260683748817	4.000678052338224	5.611140713830058	3.4759964855171654	3.733971109499631	3.2107949175832196
380	1.0631138059477927	1.4665803872274163	-0.3936271061495892	1.0159724925139566	0.174707054650765	-0.046180292847387595	0.714320955857188	0.42690351497632567	1.8868206691788016	2.3695247113484577	1.7909676983438418	2.240958446566855	1.1850664585711053	2.851012699558477	4.547043788873822	3.8900988003743677	4.020094384534075	2.1728234236218142	3.2000832476883887	5.938603386190549	6.044539913175283	5.383049474476733	3.540187588336666	4.261573780744467	6.185001834512545	7.574768524118956	4.682434547046397	3.52252148692558	5.2937335834363655	4.247358788257163	5.638513550827598	3.7607536220968067	3.9921531576453915	3.3005835926647524
384	1.453557845260478	1.7437791780314629	-0.16817901986099518	1.2901723352283458	0.4603480089009044	0.2977824203602322	0.9933136676505103	0.683714626493391	2.171132082225938	2.7531320979226668	2.131759638172512	2.6343939237839753	1.4893225393840481	3.1900956550164614	5.0280217997444305	4.237411011487845	4.392158497211647	2.505168193214243	3.4414305600062916	6.460493071457377	6.373312934043209	5.6543354845339895	3.849444379624349	4.569814670469163	6.665859205582433	7.852321604930653	4.883686530180863	3.524356356305713	5.708588108908733	4.552624214122184	5.743120655818617	4.129468430583616	4.298029888745686	3.4787290008453495
388	1.7011215643848905	1.9233407925683477	0.024527706143918374	1.4243309461872353	0.6946672779664401	0.5996932968257638	1.1770670384252861	0.8525469281606363	2.2942123355162645	3.0393924636397482	2.4676165518448183	2.9483315870233415	1.6406300026479685	3.321840754705199	5.397575364790401	4.5954093817082535	4.718342769154225	2.7415521075649405	3.703750124163334	6.930295926716552	6.742756349705913	5.9306611865035705	4.13151930719587	4.883460509368446	7.12215469469529	8.151963213366026	5.106438623887267	3.635606279730889	6.146097167710136	4.835253703307295	5.893650040051605	4.473999965816052	4.578751075628485	3.706787100016262
392	1.7120759443926337	1.905404205279954	0.09670180802964368	1.353163596551547	0.7783638219255063	0.7413799147961339	1.1962039440471361	0.8728209711926401	2.2011783067441946	3.1233737389861878	2.6685461930611525	3.0632395666984364	1.5576324423564185	3.1943960109168588	5.530674920423595	4.858454215181092	4.889149653488603	2.77884244217233	3.9002342125649645	7.208044510762619	7.048787099207918	6.122037872116582	4.275157440835904	5.121167169992659	7.423324566218844	8.40144441390802	5.248678670982979	3.8256220720978247	6.494664652639413	5.0356469027220045	6.049940093978299	4.704342830224727	4.783638465247913	3.936473598078327
396	1.5037716589154386	1.6832129912794704	0.012286617389593038	1.1235777111296086	0.7017942053242399	0.6903395635341597	1.0743533345754215	0.7647078017954947	1.9510464619014738	3.011977188135235	2.6853861740977374	2.9686419888885665	1.2832328048732466	2.887574426989971	5.4272589546507595	4.98558472328297	4.8878202314948895	2.6324863367374	3.996291150493831	7.250410061650529	7.238930207095772	6.200718864044397	4.2587437522176765	5.24816368685342	7.517662506196729	8.56990430575565	5.276531682997618	4.056427945385946	6.696977121611045	5.144808756236681	6.1862110935426955	4.792469489395539	4.90715407086258	4.13130473047522
400	1.1875065535127594	1.343986507837229	-0.19519972751925302	0.8667004086546873	0.5420278893137316	0.5099602924823105	0.9083520151092805	0.6105003341519942	1.68485295347168	2.8118269372520155	2.566966050342764	2.7595236231750846	0.9576846933027512	2.570119851299157	5.205317007274098	5.010197149978642	4.788105952571839	2.4174706874847303	4.025360574095974	7.123171788351169	7.329228859516716	6.208446010173569	4.146242131255378	5.286751733783583	7.4485826304250935	8.67944047643857	5.238118635304074	4.284740437180117	6.766229135596357	5.200598226768434	6.29764078457606	4.778756129597398	4.982728468712544	4.276878346135514
404	0.8991854764170613	1.017280695254184	-0.4452323306286735	0.7179928999893052	0.4050588895584556	0.31173485438796344	0.8012506941592874	0.4969689833491558	1.5439822634815803	2.657012217489077	2.4168219505326327	2.5684492523196103	0.7312565427437511	2.4041166244843883	5.024781214425463	5.001847731359586	4.693946349690672	2.2621426525222814	4.057182301768318	6.950247747039714	7.374046307065917	6.2145595393634565	4.021497239449967	5.2899694309190135	7.31532714904156	8.776706673397586	5.218753324684022	4.454358566482097	6.759505254845511	5.253770338145417	6.386444075672654	4.738355147796325	5.051547037722144	4.374391544741856
408	0.7265790086521672	0.8071824887877131	-0.6559360606798886	0.737551568076521	0.3561694017000934	0.18571513844331528	0.7963085154455689	0.45930513623622476	1.5898480375204433	2.6263897352665864	2.324071401450399	2.4813718733127748	0.6734371764346528	2.4554774699205106	4.992365824492656	5.011816488963811	4.664066779758787	2.217779153946544	4.141816605601268	6.836320382977988	7.415416698807169	6.2563528856629675	3.912322988169209	5.298975931140415	7.2075342950046295	8.887962318868645	5.2690620289332255	4.4955735093101685	6.731719476870009	5.329465375796103	6.442714674895819	4.732592570753989	5.130201803606323	4.427258957175517
412	0.6769289953307135	0.7484900336441493	-0.7835583667045666	0.8798589684206595	0.38512584469835076	0.15458244046283576	0.8556426741931645	0.4637144196246743	1.773481602959523	2.7028610638088666	2.3149290026392526	2.491868489649799	0.7371137123571064	2.6641089848966963	5.105782972796393	5.041107165006803	4.67280768168374	2.226973766426382	4.268047798825045	6.812269193616103	7.449471931722897	6.304317935285519	3.7626130485905254	5.313395486768071	7.1558317957455175	8.990678764532163	5.3562931879231925	4.344134796618784	6.701656801469835	5.410085664441433	6.437960131603379	4.775456893308121	5.199162946925866	4.433525551092801
416	0.6999728661984367	0.8084582666012646	-0.8322812297788799	1.0297374699343425	0.4247290779357646	0.17578487053835598	0.8946878887476	0.43831676134071373	1.9726257274414738	2.7959930826166994	2.3515138566728617	2.518802874881479	0.7979031781078636	2.8917193339771865	5.267638670019583	5.049353109962791	4.63109349035229	2.1687762682517833	4.364921558803851	6.833693963917235	7.431917171787971	6.27640627230057	3.473184576802341	5.293254362093581	7.126890164501449	9.02198693858642	5.3735761506786295	3.973908414344287	6.649556143184629	5.4489636283630505	6.337158187125214	4.8332648155254505	5.217766271769033	4.388144482024027
420	0.7471050005170005	0.9282265878130084	-0.8315575697884889	1.0814889642113363	0.40872359172625083	0.1865444327651427	0.8500737526412152	0.33236813461312165	2.071742529406804	2.8113529611179584	2.3741366803309543	2.4733722147483777	0.7424376588196474	3.0133557243561193	5.357682691398689	4.9963002078750565	4.454480159957132	1.951717490990661	4.345814693922892	6.8290214366158	7.318231087327686	6.094337447992183	2.985887519927179	5.189026342642376	7.061666947655624	8.920647598632314	5.204148279402292	3.4254894170106502	6.544161780047404	5.4051928383734635	6.123856529033377	4.85458039011763	5.1551923621674955	4.292698849330434
424	0.817455706916683	1.0681744786950254	-0.8019736388939429	1.0076668237040547	0.3253040305507566	0.15546661576120158	0.7308160048153284	0.1609104718675667	2.0325860925854986	2.71770214348331	2.3521308839540187	2.326303237763734	0.5460388646644753	2.992807380749552	5.314200864726243	4.883036601135873	4.131412018835545	1.5891681869438516	4.166719426125552	6.760648233510838	7.108432274991166	5.744863972464607	2.3508753717196393	4.978532778568108	6.927427274380045	8.675086953195168	4.80091665963178	2.808523409428325	6.377188666455298	5.275471673997609	5.820572361555688	4.8082222817141655	5.015655504914812	4.163381089189401
428	0.9546676850057725	1.2250530688827463	-0.7366538625238253	0.8731271006474337	0.2274575376728334	0.10358228508308055	0.6157288535784907	0.00233872769741328	1.9120705079440925	2.567425006106376	2.3062026442475885	2.1295673793432077	0.28769758271059936	2.896734945613083	5.172455774599496	4.761662948030447	3.7448758984430466	1.2003684013577889	3.8616974256291794	6.656400663736196	6.862960798102377	5.304829584079737	1.7259166197116933	4.686502444832758	6.747180444848552	8.344531038197221	4.23154353027097	2.267811292644688	6.17946813930557	5.101357447142283	5.488399968595514	4.704578864617441	4.840816485580848	4.029051770528306
432	1.194062110747185	1.4109711611410094	-0.6125563963683303	0.7862123827157796	0.19291973065306123	0.08114396760242411	0.5965120777328434	-0.05238052444346219	1.8178948118088774	2.457595580571901	2.2864868583171414	1.977001781240545	0.09281557774951939	2.841586105801759	5.036552893320303	4.703073966549952	3.429166785165428	0.9359852051945428	3.529032459885826	6.589046938472898	6.673774225551463	4.908366667752829	1.300480124051198	4.372619617866446	6.585090620581275	8.034583071450468	3.6554384139276435	1.9230494450654212	6.005394443608589	4.9455051297257135	5.201530443410367	4.586061466082441	4.68630026587819	3.917397489193995
436	1.501161571527314	1.6156913001276196	-0.42231044066617524	0.8218083956950613	0.263962268162905	0.12094761400680856	0.7065555435461663	0.03501695758204089	1.833533640046981	2.460972302899191	2.3254890383181577	1.9334897946179193	0.04304485012153918	2.91094946126323	5.006557451959267	4.745353209912445	3.289051762859883	0.8778024293671665	3.276746026349204	6.6201085877169845	6.608447058205412	4.6749844433054415	1.1880916327043975	4.097781647826704	6.499533636849533	7.840969542733973	3.2447152055835162	1.8130627824784258	5.897080883396214	4.852956759598048	5.011113630994394	4.495673645113138	4.588137138226858	3.8395919702864307
440	1.752991195067531	1.7864059164721195	-0.20164909907927914	0.9681940650337248	0.41078096524476865	0.20502069540713141	0.8866150952842476	0.2150301480824749	1.9622883747148876	2.5745444232789527	2.40301513065172	1.9842072675199602	0.11440993071519008	3.0984373014423343	5.110157476874704	4.859759795316956	3.3335800086733633	0.9784840320678343	3.1620647827422617	6.748160345206185	6.66455982432961	4.643176067073494	1.3562757934659915	3.8917713067025423	6.497549517439259	7.796216468200967	3.0972270887378706	1.877222294836275	5.854108318807444	4.8237280723854665	4.920667159054781	4.447071541048835	4.542266834235003	3.784836997966788
444	1.7900513365373785	1.8479424668386053	-0.02575134479458417	1.1338221998198692	0.546189545206087	0.2709240012481268	1.0148363087781167	0.3726749708780101	2.126408333178088	2.7196295192719013	2.450555318367386	2.039503330803508	0.18870504152815085	3.3120839512172595	5.282420145049402	4.959100710746076	3.4669883163657147	1.0883382531344732	3.1613693157487783	6.897581083049149	6.764660818186987	4.749057757785172	1.6402081209733135	3.741201629729789	6.5216789080948905	7.851110438551875	3.18944596439005	1.986050123922473	5.829126820152254	4.81328581548434	4.887311923085528	4.415502060232544	4.508948314726839	3.7283320332809584
448	1.5144454202562878	1.7548850730458425	0.02894639961563807	1.2084215848930595	0.5828251227922715	0.254853456569005	0.9841679309792651	0.3957002450966103	2.218819851041695	2.792873375517032	2.394520991955514	1.9928281256906386	0.13017706540142943	3.4322113904128684	5.405412183465684	4.946627127556133	3.5435182958783056	1.0532153818242243	3.189257375294457	6.957332593518408	6.797791463855293	4.863210188985002	1.8342664195479996	3.6042194275457287	6.4796919659096375	7.903143385960788	3.3952522192110153	2.005890602769475	5.753451332825006	4.760150897405603	4.8475055572192325	4.354793537589187	4.438430774926852	3.648601761189167
452	0.9779052709685265	1.5427930316120242	-0.06260244532515172	1.1395316095191994	0.49655288332502934	0.14345589243909349	0.7804248909319909	0.24885657366864886	2.1737718527270857	2.7349359920115766	2.2112052384815746	1.7953281357260213	-0.1203497719706402	3.384736290969133	5.38196943831613	4.777000415185327	3.4544212730929997	0.8232532122807689	3.154153815889066	6.846952897904756	6.684601290038287	4.864942061539224	1.8069951488648999	3.4412600907226643	6.300055964776261	7.855802993013905	3.558122625904299	1.8644705963745123	5.57745407603669	4.623468387374716	4.7525591730290175	4.229334820559749	4.301885593997182	3.543188801402819
456	0.39456763763944785	1.3370228972057014	-0.24250690577791906	0.9702097153010053	0.3480702927861392	-0.007151588779513249	0.5044248091359956	0.004084181961536443	2.007271046338988	2.567398780062741	1.9516427467663013	1.4936494789559485	-0.4978440987415386	3.179660789091269	5.19275044083854	4.487400520439202	3.191134444762984	0.4952509390724876	3.012408248925162	6.565095884913984	6.423558218950531	4.706691730060105	1.5695725639769684	3.2383379854458085	5.9755787698557405	7.670753459637115	3.5703787713506503	1.5811849792613706	5.297776685690562	4.404370296802397	4.590774047705064	4.036695470155004	4.105632771616696	3.4295017632682203
460	0.052910841867851104	1.300698277050525	-0.3860413720397893	0.8106646517313447	0.24295142231637043	-0.10435502949832011	0.3163525752186663	-0.19692328522554906	1.8012362673105309	2.3722953736492016	1.7145813660247968	1.202714917007382	-0.8459744432071374	2.892413847296356	4.900378691698778	4.176551808302877	2.8449602055246856	0.25736769968857265	2.788806192986407	6.188974364867506	6.088943466072208	4.430195797225475	1.2574472395620673	3.009603731186271	5.567562566051898	7.38189409299581	3.4137258443474794	1.2455657689118282	4.954864012606138	4.1384305849494165	4.383059967418945	3.8065051936365686	3.8803663155814347	3.3285818015936974
464	0.1681228424834362	1.5469348391577196	-0.36159887818594283	0.7637857775477921	0.2562966340269855	-0.08344557115229244	0.3354680827730959	-0.2261312598241235	1.6460167128012997	2.230800623029879	1.5843136270577318	1.03201019503389	-1.0101242039926503	2.6084053450532036	4.602914321722264	3.945357074313223	2.546978705651406	0.2717950933269975	2.554011338461409	5.827160820553947	5.783985600173452	4.129836548868819	1.0375316116840734	2.7814397741665045	5.169682489694388	7.066687566081669	3.1455204407430166	0.9587914323441464	4.605040538605324	3.8671855828876622	4.159060467709831	3.5786216168651177	3.655315628359716	3.2443611539944444
468	0.7554893474578072	2.064217562232199	-0.10396144512870072	0.8528863170071305	0.3718372872024517	0.03853930523202042	0.5568111524828894	-0.048927381511182456	1.580232616249554	2.1632974093178623	1.5733305176112795	1.0140345070986225	-0.9329853034305714	2.3708918034775746	4.369371403152968	3.8364150427279236	2.3872017800141547	0.5635892734603442	2.3742003380914136	5.555728898326649	5.578833089094732	3.889275779441387	0.9996271108184693	2.5702669555620914	4.854215132855369	6.795145017633947	2.8469183373099027	0.773393152191657	4.286139000561596	3.608723631330743	3.9317479034338865	3.3748233233122757	3.435689917473178	3.152493468908395
472	1.6029101569714124	2.7036828926489545	0.3421021989291369	1.0021669839352256	0.48115530488604497	0.16103321273201054	0.842092929144519	0.25053536828683154	1.5703512390543481	2.1152338928223897	1.611028667197192	1.0847114297183371	-0.6900671107035793	2.1696581785736533	4.202821244119121	3.812353124530007	2.3654000699404145	0.9894453858189987	2.269156450264583	5.380261884456916	5.4738988738140115	3.7340004349847864	1.101989624102204	2.3731391369985118	4.636570441937584	6.591451151418489	2.571016066735737	0.6666489226676118	4.001421441465985	3.3498623286548375	3.6897785570446784	3.1866893687854376	3.201458684467753	3.0105936451242012
476	2.368416541795592	3.2448131956192796	0.8375782945466951	1.086519477008389	0.4501774895746233	0.15847100277468099	0.9971824263191789	0.5169639574350259	1.5446838101488154	2.0012540766733933	1.589953299322851	1.1305015058585266	-0.44177928455394133	1.9768418023743717	4.055582036269429	3.7875151538590743	2.4034602581377786	1.3119852509752754	2.2069511357854057	5.247775064570466	5.410903440165686	3.6287732032710895	1.2013487785525792	2.1784713213278915	4.479935157909222	6.431673987362658	2.3238320291975856	0.5607999549058326	3.731738796349139	3.065291158566426	3.412155619589481	2.98845051964605	2.9287133142915005	2.7861859728086964
480	2.758650057503462	3.51017617293087	1.22012960602744	1.021107432648392	0.21569903140445557	-0.031998585828816366	0.8949519969279329	0.6187055691357031	1.4576115571414179	1.7804174378266555	1.444086190392424	1.0736533376289465	-0.3308922938098867	1.798406954039476	3.8843626877942454	3.6936607267583876	2.409511321660099	1.3379740681246257	2.137022966711469	5.099310385227286	5.323408590227898	3.518181315122573	1.1464875907562149	1.9887506911611381	4.334730137371288	6.276657565482309	2.0835592694129805	0.3760839095157199	3.466437331030802	2.7503797938524674	3.0946791093894452	2.7660670210620064	2.619130127969852	2.4854197439385413
484	2.6860158375635548	3.462950459320245	1.3895008528913837	0.8320557454082639	-0.1497798856291511	-0.349334179473088	0.5678753838506763	0.5314112888270777	1.3384081091467843	1.5109813175199778	1.208497163582444	0.9380977130093385	-0.3908850540782651	1.6986062483817195	3.705041876021645	3.5362076670057716	2.349113696843106	1.0351662609667787	2.03823971233746	4.926460253675165	5.191514478927598	3.3788874064013803	0.8759537913141251	1.8381527615868325	4.185278405113119	6.113884433569052	1.8369464827889137	0.08334298410831241	3.2298781790249067	2.4432251391714153	2.767611496613527	2.5427937443430024	2.3160111845670626	2.1634197180486323
488	2.316864007822356	3.230694762656268	1.3611574138607712	0.6580939872338887	-0.45388346795882123	-0.6196429117770742	0.20894272572693354	0.3584629288206151	1.2865285840931362	1.3400326933406808	1.0159567568877756	0.8471277930806294	-0.5252645002454899	1.7709146693341071	3.602299204314493	3.4000344190585605	2.272861474974467	0.5538493380868333	1.9442551086929123	4.78852843029294	5.060147749522939	3.2431876577510694	0.45805188897834154	1.78544127490351	4.067393769485457	5.973887905297022	1.5994137485177156	-0.277780085100751	3.0785658281801274	2.21356725133877	2.486169808786501	2.377565377908357	2.0889542050072696	1.9023029756201204
492	1.9804389426774847	3.0395510119944507	1.2571117846221183	0.676086722097519	-0.4799869346421076	-0.6408547742876064	0.07378894817080607	0.2739102535484791	1.4119667971248238	1.4266254865867156	1.0271520588690928	0.9503192877618073	-0.5714346752044525	2.070834631459878	3.6819252874874797	3.3988103780765435	2.282045358618272	0.14051699602889567	1.9267170380584808	4.776439654688696	5.0084881656079565	3.177320233906138	0.050195436797964677	1.882198686616008	4.043926228803739	5.909024700504731	1.4038108551822197	-0.6239211543543159	3.0677683275970367	2.1226119941526385	2.2983670176651985	2.3333733022905614	1.9941995093541682	1.7675505831914775
496	1.9844238707985271	3.0921056192531204	1.2379530637003358	0.9929454897606623	-0.10990081699757441	-0.29588532373111076	0.33698639188562607	0.42020425094370967	1.75707041773637	1.842498893854302	1.3337916102112963	1.3232008185357649	-0.40928545490880747	2.555346959338164	3.9948799509276918	3.5987746624685326	2.4549989638334617	-0.005375954774605224	2.046579594213376	4.946353899865173	5.09073208477287	3.229740611505113	-0.1961375320966201	2.1355085319008396	4.155039776802013	5.949049457788932	1.2685046163957223	-0.8795586802210392	3.2082991519034856	2.178083652719251	2.2100741807451723	2.4335961280415512	2.0345940538536222	1.7668575003837792
500	2.444559806373856	3.458559981197175	1.4165105783938694	1.5684606989361356	0.596387086793065	0.3706232598007317	0.9851142739219747	0.8217486122365024	2.2498922291218144	2.5094900067867054	1.8921238136203686	1.9034751605613136	-0.04391442600726218	3.073730222570998	4.480748642099062	3.9644055266424494	2.7833418775857743	0.15741315444303935	2.3029859007864717	5.265124784527883	5.287193761828121	3.385620585476788	-0.224519445925338	2.487319701590605	4.37508677331676	6.064593776650042	1.1706378430374655	-1.0223058436332202	3.4411590012453805	2.3139948786486912	2.1722848360529836	2.632582657843114	2.145090574570739	1.837209100853131
504	3.221834889860644	4.0402669804609275	1.7989504291891658	2.2187106553327425	1.414160128837731	1.1597193450257866	1.8105605794970723	1.365408774743287	2.723899834431408	3.2175278582400484	2.5304007466325924	2.5084385808555223	0.3899979581523127	3.4276206406838585	4.972978102526224	4.363843429991876	3.1631767669923843	0.49842128031776384	2.616022103380531	5.607146725803032	5.50155161422271	3.563213339392423	-0.10195669506080614	2.8275184559959676	4.608057964134815	6.169110282581232	1.0518373224404964	-1.0920363637055808	3.6523327735241073	2.4148576198643745	2.104816669872006	2.824075453303855	2.219189161419791	1.8738603544608519
508	4.001447667509621	4.625062453990564	2.2845022620697106	2.7027966907926713	2.0589692540636872	1.8109275056893832	2.5132176812615468	1.8597543192639223	2.997384302201009	3.720426073217911	3.0313532275913198	2.9280154631122324	0.7056156379050762	3.4702317627076233	5.271609293025915	4.635533321121111	3.4499249371210756	0.8028345087762604	2.858957283431241	5.81109808408327	5.610548958918222	3.6586067584173247	0.029037905783653308	3.0384902877387057	4.729774463156124	6.163565143282488	0.8575616457268632	-1.1581425637568794	3.724800100459065	2.375565761290481	1.946098918769739	2.8885376380471093	2.1653013174701514	1.7883051588684473
512	4.468590725107053	5.003394114259734	2.7223262718133103	2.8448228764234695	2.3255610407288647	2.129859918939027	2.853522055097185	2.137805933323262	2.9675707742153676	3.856490363874748	3.2429017938754483	3.037757865865555	0.7747104744425121	3.186408034862808	5.243553625219552	4.676182735080981	3.5417501837001524	0.9072055793745651	2.922461979163241	5.763980850925863	5.535229192110095	3.61037515682401	0.042495004725455025	3.047547809535906	4.652282703097866	5.996809944271131	0.5841068014656408	-1.2683563200398957	3.5984895138486475	2.1623871271851507	1.6977615313580954	2.7540702750290627	1.9600493858441976	1.561655517450021
516	4.480919826638425	5.078551756434481	2.991486064987507	2.6222715311601625	2.184398407189392	2.0807361550249666	2.7714247633580498	2.1435818618059934	2.664399378725309	3.6266312507618492	3.1542756477826797	2.864840500274297	0.6029703005825963	2.703330986827089	4.892972933813423	4.49757860955535	3.4388692292174703	0.7977567294960203	2.773517363221541	5.462702737367669	5.288738237379642	3.4415557297600037	-0.09279160178121902	2.858527891571363	4.37207888453041	5.701844200997294	0.2978525452246334	-1.4127365315055098	3.3034610664886643	1.837502117286107	1.433942195133001	2.4371533332327657	1.6658635097406322	1.261016604100785
520	4.140630234754654	4.910702216147811	3.0586478632951124	2.17321657585776	1.785822148582663	1.795526499983333	2.407845491052122	1.954443330598647	2.2344276848645936	3.188040010032638	2.8961348460509995	2.5691664154037372	0.32490041769967903	2.2254383507808444	4.361834038212281	4.219347466306401	3.2421193041008127	0.6096796378001539	2.4759621557666187	5.017449843136601	4.971224772299938	3.250271312136871	-0.2966637007852674	2.547342293983618	3.974524964788287	5.382917390584245	0.10837332876977201	-1.5258510074238416	2.947057239721261	1.5307581386065208	1.2665758100956606	2.0401608892430096	1.4010748827846475	1.007435080845753
524	3.7286958600317486	4.674584376930719	2.9836971684465032	1.7194471315841062	1.3712432349870403	1.495235558549417	2.0185337015687312	1.7281418995141193	1.8633549166364234	2.765909903218775	2.663427107762187	2.34848856333028	0.12050911753746431	1.9289081047948922	3.8571252725492924	3.9991171259047866	3.088495008300322	0.5321375118171875	2.157544130600088	4.591713416904352	4.711305129554073	3.15008687177702	-0.43146917114994865	2.22246908580421	3.5889446644769936	5.155952917432909	0.10522776815549852	-1.529272314025311	2.6586172513595363	1.3698714936956429	1.2817274299686001	1.702853198520533	1.2751921383133473	0.9096167660635763
528	3.5421979337905745	4.5576033477155695	2.8750517295728573	1.4497874938600852	1.1419812412039938	1.3679510320458284	1.8302552653833222	1.6078349311289004	1.681207533406421	2.532717459959873	2.6044650012063406	2.322969669199152	0.10515440973912642	1.875858898195125	3.544109812371563	3.9395575423912197	3.0626997870367134	0.6801791769974649	1.940980787145088	4.312745560247839	4.5877451780838046	3.194905273000534	-0.39280682703026126	1.972006792811689	3.3193209087490367	5.07547091156311	0.294528245182291	-1.388990398714816	2.521450990032874	1.406628485942928	1.4825097285034217	1.532030578559973	1.324332353109324	0.9994205807248441
