time	FP1	FPZ	FP2	F7	F3	FZ	F4	F8	FT7	FC3	FCZ	FC4	FT8	T7	C3	CZ	C4	T8	TP7	CP3	CPZ	CP4	TP8	P7	P3	PZ	P4	P8	PO3	POZ	PO4	O1	OZ	O2
-200	0.6096506699428662	0.43583020457857435	0.38169717692327015	0.3334925464316481	0.16959328906633256	0.08714871086529018	0.1564454134329094	0.12685011295240117	0.23086357058411772	0.21543531065431268	-0.1517957296115265	-0.6205670817919834	0.03826811900013827	-0.1979209030637972	0.3674866547843131	-0.14871448240880328	-0.06693705154446683	0.23944050013170742	0.5541844353989145	0.34138107213614255	-0.05526565746420832	0.030749535110443767	0.15053121707580916	0.10676474842295744	0.4141739000353966	-0.3283255389984045	0.21848206166895925	0.064644604758129	-0.16247464675413573	-0.30642753762127284	-0.02391505235356073	-0.17924347474619945	-0.3429130307122918	-0.4733223605126633
-196	0.523150263896	0.3345868877069613	0.444342075656556	0.2541567080756622	0.2861962609217873	0.28122240233945067	0.22705307545556994	0.1471207734208226	0.057910099479378516	0.4135972847032953	0.1735585774569712	-0.5009708391892718	0.05244464041462714	-0.5692397341661404	0.3623249819667634	0.14493107759123752	0.08058387765804505	0.2664961212105543	0.5036439286867648	0.31661379257373495	0.13245215978560082	0.1136090752594293	0.2283252769904439	0.10531078252429986	0.36056044606728777	-0.31765800634291863	0.243692024926996	0.18469494534591543	-0.17913547113013914	-0.28474903034797233	0.0034835878671670437	-0.23240265191529966	-0.2999451152858022	-0.4237585355073373
-192	0.5016205298156833	0.3083351544701705	0.4818645405524367	0.22164408806631036	0.4461414504708149	0.5100912438865514	0.40105888146232294	0.22703650536436423	-0.032371848739908955	0.6440732462834172	0.5716462716928709	-0.2508224540576674	0.24008955000818916	-0.7359108310239313	0.3572578719179111	0.5380972014192977	0.37891241812407234	0.25457832152941645	0.47321423768731374	0.31873565831773687	0.4475177515175262	0.33193939840433473	0.3291345528398983	0.17957213475666117	0.3686189940205747	-0.10852258625049335	0.33715173516981556	0.3593289247023703	-0.06707516295664331	-0.1490555550865081	0.15558209976016232	-0.19531483898918486	-0.15980233211702283	-0.28028663922116204
-188	0.6060599073367281	0.42180779469805346	0.5260404931138615	0.3066309384710553	0.6631749255602939	0.7583886961862963	0.6744178516526663	0.37688726091597435	0.04405500356161002	0.922176179941779	0.9878633593413645	0.10262045238334906	0.5619544968722169	-0.5735975489439563	0.41554221405972824	0.9762016510158575	0.7656918148736073	0.21066766924121708	0.48769679542433886	0.39050814410797957	0.8386034348295988	0.6229999645716381	0.4434117961655728	0.3265131405692951	0.45832624915755	0.25964653426419426	0.4787631916833137	0.5336307869789753	0.14653783999639106	0.05190446587213337	0.3735555400953761	-0.06736104918400608	0.031277563343950064	-0.10197465841057997
-184	0.8152220824640094	0.6568282230006343	0.5875043258139049	0.5030394779856237	0.8999021030593864	0.9854841803465169	0.978103992853706	0.557519613288901	0.27922445465162393	1.2181221215964733	1.3471152748428794	0.4788351642916983	0.891679642333381	-0.11524961114634341	0.5605483637008708	1.3726992572459376	1.1244575948935613	0.14334686064291338	0.539444206783176	0.5403276072211616	1.2081828086866921	0.8808060862237492	0.529266177271672	0.5074314462248097	0.6084278210537417	0.6727032048407418	0.6176615937850979	0.6401420815518264	0.3926066746336108	0.2517999404271935	0.5667958245272301	0.12078420787356939	0.21623603945020364	0.04665653023265028
-180	1.0318495009119812	0.9087754465046959	0.64217787818899	0.7141872030346497	1.0602854463510518	1.1208631964041011	1.1869549721314006	0.6808676702475271	0.5647938833282135	1.4423032962624038	1.5581587513684565	0.750227091802453	1.0603477928093294	0.4500193882547557	0.747205672761772	1.6191457469115007	1.3111383881844447	0.038510307572410404	0.5904705509536632	0.724874137001961	1.4363909923527705	0.9839375590277899	0.5193178044559079	0.6560795886641454	0.7570540289838554	0.9810308193233672	0.6754087788695553	0.6149750336379196	0.5841994270833878	0.3897732486420768	0.6459591372393492	0.30984902303667616	0.34438753041102266	0.11715075344071875
-176	1.137743708599031	1.0413467857772243	0.6446861608440951	0.7988351563312186	1.030472633621146	1.090996143447587	1.174738642587659	0.6492429359256691	0.7449693064954456	1.4780487976904046	1.5422772130174403	0.7895283083055523	0.9378548836871368	0.8686740972521517	0.87854712979711	1.621073837955827	1.21033632449699	-0.14522348307660615	0.5919702038124257	0.8642650224799584	1.4274233543596644	0.8433703162834754	0.3544767490020354	0.7054740172694475	0.827312407789014	1.0622398826483024	0.5745097980299404	0.4233293224613933	0.6514375789407579	0.43091177831573885	0.5592704997247575	0.4328208554784299	0.3865625848547118	0.09326755976971003
-172	1.0654826137344755	0.968683001933583	0.5604182467616546	0.6547920091309583	0.7496951799538203	0.8662095048015567	0.8891306497059971	0.4147858311194382	0.7041009050712236	1.24923145455626	1.276527759190102	0.5389446602565746	0.5090533482096979	0.9575595235490388	0.8618066885170489	1.3465292419769275	0.7968938926604301	-0.44633960611187035	0.513353465691517	0.8855299927288512	1.1588454217262962	0.45110738163541636	0.029713760986409942	0.6230807288651048	0.7686982731484874	0.8797495938977727	0.2835981838695547	0.08574408271122086	0.5740001783183976	0.37915837669011704	0.31810954132827457	0.448001413406335	0.34602606209176123	-0.0009443847787937446
-168	0.8407051542037175	0.7115277033961311	0.39388507505152576	0.28785955833236754	0.2638678246034969	0.4938949632095933	0.39727854628395537	0.020295685105938155	0.43598708400322705	0.7788227180844735	0.8215644934892561	0.0566969512461667	-0.10371814641992244	0.7028608900444471	0.6670413000431775	0.8555208422995512	0.1639643605384071	-0.8556482770297592	0.3620544662871333	0.765666900132154	0.7024685126688813	-0.1016086039361967	-0.3822042932397388	0.4319767046989297	0.5880206212456458	0.5031940924337807	-0.15045796296756517	-0.3143163017443457	0.3919028331875577	0.273963659310063	-0.004162083835077333	0.36356955674885366	0.2570813887781169	-0.10821295502282813
-164	0.5666490182875189	0.3879473795632821	0.19242817114883964	-0.17845621659999372	-0.2776344709539323	0.09004290379201929	-0.13316291537043048	-0.4087720503023309	0.052932388946883006	0.19801807353569695	0.30969419997226294	-0.4944083380137476	-0.6903109533047398	0.2657369070496446	0.35126331359869534	0.28691273855250093	-0.5054557906740726	-1.2910000053236073	0.1821893747021407	0.5474420772082347	0.19971607575061004	-0.6537212712949165	-0.7495689373165048	0.20332474955245788	0.3503647139763303	0.07758619616708594	-0.6093404277675936	-0.6540237052617432	0.18736648512264822	0.17155419246752496	-0.3014678351420346	0.23700661897425526	0.1704773898588926	-0.16081498522687762
-160	0.36148941425608916	0.14482080899868147	0.024042596979832298	-0.5627655968762726	-0.6876376849933129	-0.2124133849741524	-0.5135145770459381	-0.7214674335384247	-0.2740962498420311	-0.3068730525375217	-0.10765524181365349	-0.9181958413783726	-1.0523442003383865	-0.11164513202136106	0.03058762468125565	-0.19691984305732196	-1.0152299378512195	-1.6142332513108053	0.029821488930988876	0.31638431469192907	-0.20007066378148358	-1.0421439382944375	-0.9404848194219213	0.0206815916522718	0.146288603174892	-0.24525032875606947	-0.9523740982806062	-0.8213927725080917	0.04327991593877864	0.11658734053740186	-0.4815855610132698	0.14374774658149933	0.12828117576636164	-0.1136552390566913
-156	0.2900101535150787	0.07177980226037041	-0.057074017678644416	-0.7218317967310167	-0.8362715819225833	-0.3320441833695853	-0.6314844473154145	-0.8173997381553803	-0.40925937787678407	-0.5841862544569257	-0.3289394370357187	-1.0813864442225816	-1.0993225546738181	-0.24372458396412236	-0.1837084139715675	-0.4821734714255276	-1.2438158957549303	-1.6888494448937799	-0.05947860315326343	0.15226006469431563	-0.4077096273142143	-1.1755353182677153	-0.8912468530087596	-0.064121529298062	0.04274066154298627	-0.3777457466125068	-1.0849474641110517	-0.7695262412669719	-7.742072901699436e-05	0.11811560362558438	-0.5078014122539964	0.1320875879767526	0.14015395903964656	0.027590619330484005
-152	0.32994383490229295	0.14838924966540748	-0.03888811533765565	-0.6258142574722475	-0.7192455512007422	-0.28285312581174343	-0.50878685584358	-0.6979352218172897	-0.32330658950240915	-0.5908592924459068	-0.3489119699728875	-0.9794726943082276	-0.8873385168560601	-0.09996387337241712	-0.24438661275197116	-0.552001951731329	-1.1943627565746728	-1.4530523978740588	-0.09055443085219021	0.08632322379013815	-0.43018463145363733	-1.072421428833839	-0.6438684447244861	-0.057110644732766426	0.04784735652645007	-0.3311251095517916	-1.0046408151057378	-0.5442463741866705	0.035896804093090824	0.14553870223970494	-0.4121463586415136	0.19284561227747016	0.17679457321830183	0.20210732468599424
-148	0.39310255547456774	0.25960990721007227	0.044672328865990145	-0.3693357696745114	-0.4575223017108493	-0.16465590852650638	-0.28410708832536213	-0.46205657603907724	-0.10272740546754787	-0.4079394926262102	-0.25416746671401697	-0.7325887065511176	-0.5809829220408496	0.18961256694604844	-0.1875080312524712	-0.4836511599727459	-0.9800509189657338	-0.9634165143484604	-0.10431083265433073	0.0894683597213187	-0.3551489999864374	-0.8422392585470733	-0.32859331286438187	-0.016257977072080262	0.10947663309352071	-0.19746251354430938	-0.7970882634065519	-0.2669439607079435	0.08263824114200928	0.14600270949694866	-0.2745414071304122	0.2612228983005891	0.1842831964608466	0.3187831334171806
-144	0.387146918988292	0.2704595916595319	0.13550117577674312	-0.11194984586584472	-0.22666317167275613	-0.10277833763637985	-0.12909850445578064	-0.2480476045306385	0.10766288610932663	-0.1882362062946925	-0.16865771966313894	-0.511656044621889	-0.35933762698048555	0.42189115179356135	-0.10039874140901983	-0.395565061762601	-0.7527332882949962	-0.37760233783753927	-0.14917044303902263	0.09892270689068988	-0.2924543611772121	-0.6187068804378848	-0.09607111638370641	-0.014674353376234643	0.14964970908529032	-0.09001115686817596	-0.5816664085007633	-0.07682959715995916	0.06682860089357183	0.07682322691356487	-0.17773230328986311	0.2542417639035419	0.11568521679042336	0.30217567009927765
-140	0.27408751776159357	0.11048456253528899	0.18259806884917248	0.015137259810197944	-0.15747378726778402	-0.17282950834508054	-0.14755998514590235	-0.15581978818176528	0.1931754196773409	-0.06699824316275488	-0.18093541218852197	-0.43752896675270636	-0.3199948660400826	0.44770768171762343	-0.06005527436471908	-0.3755950620228287	-0.615961132878594	0.11232922197830164	-0.24471135375704878	0.06578266604027459	-0.3072463266244851	-0.4832881378846579	-0.03870011483792812	-0.09403932815889386	0.11451289773877961	-0.07681715469039371	-0.43781873473255034	-0.061001628483299535	-0.0423622540060045	-0.06397481991589839	-0.16220480162675766	0.12423011629210777	-0.03605259573297916	0.13832309807186455
-136	0.09062388516433939	-0.18129536463741175	0.16600425499488863	-0.01930968086016612	-0.2648470395077171	-0.35435956627070286	-0.31649872580728655	-0.19388332914038972	0.13376219536865042	-0.08787668474183585	-0.29470384046535597	-0.511409579416365	-0.43448340783095235	0.2577272945095947	-0.08237550386850272	-0.4317933012074189	-0.5720534310203035	0.3690907647827808	-0.3609881391947937	-0.008281375260604275	-0.38388740919465686	-0.42339876187238135	-0.14410592579221151	-0.23624914824920085	0.008605741874007854	-0.1457505222455407	-0.35877707510011064	-0.21057692116977567	-0.21025706774555727	-0.22852912487506105	-0.20643579907749357	-0.10479748967653192	-0.224652408986335	-0.10748466822189817
-132	-0.08147823044948058	-0.4797712254332101	0.09979620550708726	-0.1397119607974306	-0.44824644810038794	-0.543910203990986	-0.5059806095699949	-0.28293383050056553	0.005960390422345842	-0.1886082733876023	-0.4328400779763214	-0.6195358618353279	-0.5767126664859876	-0.022285541463257084	-0.11604708403852172	-0.495329289377847	-0.5339342938294052	0.3742671003429082	-0.43124967704611744	-0.07090375554541531	-0.4418202925494432	-0.3502892246939128	-0.3068575851322415	-0.37262284661628564	-0.10923241051275075	-0.21947391275783995	-0.26267877154787467	-0.4276462484529966	-0.3533166638037009	-0.33861142311435716	-0.24273399947393992	-0.3418748370122152	-0.366802184847763	-0.31504520694346366
-128	-0.1722074593726139	-0.647010324751954	0.017563087821367725	-0.219904854338478	-0.5584731087889655	-0.6171223505651764	-0.5616651759272077	-0.31004646342199615	-0.07254067045016846	-0.24914207991640214	-0.4886325287403052	-0.6070788487365909	-0.6039701088915345	-0.2150196278626986	-0.08201402405059441	-0.4698486018239239	-0.3907792558340559	0.22524757626407585	-0.39148840209348074	-0.054552264373854006	-0.39105862280341286	-0.16425664681448648	-0.39289295574174427	-0.42481988561185063	-0.16474565822015033	-0.20814283139606732	-0.055809587099313454	-0.5795977697044115	-0.386987536168565	-0.3258299521326044	-0.19953252324748766	-0.47418835639441853	-0.38279238246593045	-0.3668348481930174
-124	-0.16514518815307105	-0.6075362547794424	-0.04570829856776414	-0.16538079041211215	-0.4889228629642731	-0.5023546206188836	-0.39911901850068315	-0.1988592440829659	-0.020598022215217397	-0.17163392858087193	-0.3929055621240824	-0.3770497133748995	-0.44107168801527674	-0.20243887552172027	0.06623114628759352	-0.29698505922676255	-0.08774062968989893	0.07396856676738321	-0.22553902807513046	0.07311233114618532	-0.1940239215958987	0.17114385919276595	-0.31793597260312684	-0.35478767663072125	-0.11982127248791234	-0.06870823336181815	0.2892799668161013	-0.5724808559269087	-0.2790307693589153	-0.1731345351139485	-0.047666355847175684	-0.43056595216762517	-0.24283663867198402	-0.2123763108851957
-120	-0.0945841742154101	-0.3792642643412932	-0.06272036566396151	0.02967570342081694	-0.23524266422006473	-0.22013455573770122	-0.05175811039254721	0.0470513327721942	0.15439739784359774	0.05778723940564544	-0.1546774949698513	0.046603347988483715	-0.1192784678904745	0.003233539165215639	0.3020290724758227	0.0035833928177930845	0.33000585353502515	0.04369900737100721	0.012501559188691018	0.2777294211528198	0.10507220003302752	0.5931031092928113	-0.09410005039060548	-0.19305139731303764	-0.0031547308819812924	0.1648831959376223	0.6930875164653016	-0.4012651433350474	-0.07636917363197351	0.06615163369166391	0.1761462385975556	-0.226644560122472	0.007159903627438423	0.09662837510746579
-116	-0.003979671270783395	-0.04506010923333919	-0.011401389696720565	0.2845954589810963	0.11083640875250979	0.13455505635145087	0.3547791829688622	0.35190892130694995	0.3628238132376292	0.36266213563908417	0.1480155136424482	0.5290574418061956	0.24734559592740754	0.2720151536749526	0.5328199849981426	0.3434745064646584	0.7356972675822402	0.1651092316512011	0.2153981620595502	0.46801629544350976	0.401013671339375	0.9648864244895551	0.17838880374692298	-0.027639929135395102	0.10032603119315803	0.3973061432344167	0.9954928134579968	-0.15029704532823907	0.11177338631543268	0.2845972173181127	0.3819196512593326	0.03571488699240533	0.25708910757959585	0.42195418370525223
-112	0.09822228526112206	0.306821196496698	0.12778767911118977	0.48662766691370196	0.42391300094388273	0.4515906560940351	0.6808370930648345	0.6168438776654888	0.4882346975397563	0.6248366816957545	0.4173651923132586	0.9003255344548018	0.5293046818720997	0.4352986205554871	0.6508825404900108	0.6160314663592513	0.9900497769154952	0.36768823769243447	0.27222281625682576	0.5424175248756445	0.5852279052263906	1.1486287088004308	0.36890518572174114	0.04019871343953889	0.09566611772464136	0.5229341970592347	1.0386445496085095	0.05515343681954078	0.1676599230109569	0.36783009674664174	0.469580678946335	0.21654681806727788	0.3800911893784968	0.6017540678090252
-108	0.25181680854162236	0.632688401532193	0.3678126325857667	0.5609289989614454	0.6215858443779122	0.6686506254480499	0.8538352825542036	0.7788555006390171	0.4558397818023775	0.7551979999548806	0.593199132375302	1.0517147752911475	0.6521688087210162	0.3797944476552317	0.5966463669971833	0.7563018779733338	1.020992872521423	0.5311546908319674	0.1269815709961214	0.446300654476608	0.6056211575476442	1.084197518472381	0.39014196297372644	-0.049750778698482316	-0.06624072773421698	0.48173633096184854	0.7608498315675032	0.11788778722324741	0.026821231401794886	0.2490210079820078	0.37880492114749137	0.2082265759217653	0.29278218672264905	0.5288854824064527
-104	0.5126179443768456	0.9405064559079201	0.7011490446508198	0.5103866445053123	0.7046604734749622	0.796741841211992	0.9005703903349209	0.8420377352435965	0.2714007788004814	0.7403154950524223	0.6805248243316446	0.9939452384649557	0.6294584258399695	0.10047504280472029	0.39395609398559633	0.7723467330506223	0.8658652879788478	0.5607361779360839	-0.18667957139566851	0.2047377819614193	0.492189406105974	0.8266662338366355	0.24382497308683185	-0.28337362337093036	-0.35661825447644124	0.28826168106732947	0.24466279087284065	0.01874710242187397	-0.2857302420077875	-0.056482542163580056	0.11973205178548944	-0.009239776967979542	-0.0016997922168969825	0.20424501546314408
-100	0.8883468486291796	1.2477216689079111	1.0797952386296752	0.4016467322699361	0.7371413689122124	0.8923535324455102	0.9105757451909464	0.8609880783277705	0.010032473106684715	0.638687370595111	0.7306143623025624	0.8422663190557329	0.5417068586977819	-0.3115184001210081	0.1368197646262964	0.7293980699243465	0.6502947790893647	0.4409158814742273	-0.5561323151852563	-0.0880999115865367	0.3346425882473633	0.5192976580860247	0.014345721305450095	-0.5772395119398271	-0.6786620003731826	0.020638331718790134	-0.31261685411680046	-0.1782692815332889	-0.6634154899060001	-0.4524018455050577	-0.2287010544724816	-0.356373100573099	-0.4085160781559892	-0.2602628760919381
-96	1.2926712003496001	1.5277450046114425	1.4090225660989322	0.3121279172169424	0.7851194719519374	0.9995074842967071	0.9602968668534376	0.8918990470302454	-0.23222097695848293	0.5338320718638735	0.7923871258756966	0.7409319858917778	0.4806815075659216	-0.7278997879724104	-0.06266580506238799	0.7004460674721138	0.5173005448632226	0.24291214285556262	-0.8399003126873474	-0.3158992818962939	0.2279946649278707	0.3175081304640093	-0.17925947859328123	-0.8173643926011177	-0.9125068164675041	-0.22059495691394512	-0.6929266435294591	-0.3643338075022342	-0.9644194817035636	-0.7986153940064866	-0.5505423531937544	-0.6901239139299069	-0.7775264958778156	-0.6907513720238733
-92	1.5586386879669762	1.6901100831275966	1.5692156513649547	0.276557862060395	0.8587678053154928	1.1027996512226566	1.0506110164819837	0.9461644267989391	-0.3900383104967238	0.47709664581960143	0.8676295854597449	0.7738651613724418	0.49468341344869154	-1.0458580229103047	-0.13361403312327405	0.7151174527233106	0.5475028143411075	0.08051650205787718	-0.9324800348580861	-0.3974568237760285	0.21838095729051427	0.30677875798972504	-0.24461486873856222	-0.9113021469949901	-0.971178588799383	-0.35979479460475855	-0.7635405044351605	-0.44398316628894713	-1.0733398171982196	-0.9685642098768455	-0.7402827721025232	-0.8698480107280392	-0.9662615632456962	-0.9291308498766128
-88	1.5118468961692206	1.614650722241758	1.460592743046977	0.2674199932022403	0.8975712634313296	1.125037667295051	1.0984886856955158	0.9757619475524596	-0.45287695412736284	0.4578148711089906	0.9012515522136944	0.9143801904480647	0.5652464017902057	-1.2176449268116063	-0.07801984975905443	0.7394842486784835	0.7145920973855867	0.042051933599635806	-0.811461983062492	-0.322478084942123	0.28073114085845224	0.4596207130271913	-0.15863601823332502	-0.8266879299272789	-0.837272105487257	-0.3742898693171549	-0.5386764989604071	-0.3801465024887087	-0.9470873451163111	-0.8995549060044464	-0.7423219065997858	-0.8190402963940361	-0.8991590715594925	-0.8993548728170853
-84	1.0711965533867973	1.2266759841465933	1.0542668077554074	0.22255022767622046	0.8118633607393961	0.9765176748416587	0.9921130512938309	0.9030412412732016	-0.44966557508426225	0.41943842066724657	0.8164284208665729	1.0447196934072582	0.6261516793654691	-1.2368173568016527	0.042452204865324056	0.700599847455246	0.9025979019264816	0.13950759137217295	-0.5416715131435192	-0.14720591865566926	0.34030428442867133	0.6559513790735573	0.030391015035670117	-0.5978830441638607	-0.5625765309435224	-0.2918265752577003	-0.16312918025792295	-0.20288130589760975	-0.6241747125125503	-0.6134223922500854	-0.5659602270142335	-0.5529155717241395	-0.5956050738555863	-0.6311240776340123
-80	0.31736728468876063	0.5658891782778407	0.4220892180276499	0.09856095885188076	0.5523810968757881	0.6242392047380344	0.6733709556744745	0.6762896163078221	-0.4120701541033607	0.30672532242581885	0.5709153995404802	1.0310735676482543	0.609186707389106	-1.1063659163198538	0.15014876387357348	0.5374237285396809	0.9726966594933347	0.30296364350121885	-0.23774918853815347	0.04103983555803408	0.3200082770851232	0.7519959788409861	0.2357499146469838	-0.303266494700558	-0.23786260127571351	-0.1675612326206192	0.1699644322872507	0.016367670107286673	-0.20079633542863065	-0.2034576083053268	-0.2759456329531303	-0.16451893705315837	-0.15839214582984223	-0.2357143455753039
-76	-0.5187451230303518	-0.19988545724947288	-0.2754255228241334	-0.0899058503622849	0.15951053757926162	0.13472785021621847	0.19255520354769648	0.31433942834646017	-0.3482942572383173	0.10924243899420888	0.19728316316863306	0.8068775514258122	0.4871063518146846	-0.8252858498717673	0.19386041115453145	0.2449320697560948	0.839650569226369	0.4217509914717259	-0.009195003635317944	0.16554677444623134	0.18287467910371552	0.6565020067806021	0.3776787509919484	-0.029979417024857992	0.04597714904263506	-0.05903448149558269	0.31768804708380954	0.20487351663839137	0.20885699934680177	0.2025956953417284	0.03257840863585656	0.21838016752897296	0.26845127276354036	0.148114025218852
-72	-1.1507356137786318	-0.8335821011478184	-0.8441269376423439	-0.272697746065197	-0.24305881498482335	-0.34123510036145616	-0.3026333741653523	-0.0893247050771921	-0.24541447994736645	-0.1285860237212957	-0.20115546831365683	0.41457101598021007	0.2875837378393658	-0.40532633559888753	0.16452427166885228	-0.11647035152116432	0.5154189454417037	0.4068678309181768	0.08516790696337365	0.18506520939832533	-0.05426049591312482	0.3722839048046261	0.41432621970473554	0.15613082011857918	0.22472372594362872	-0.011962743445830187	0.2469740503751382	0.3194825343172092	0.5084354268588716	0.48715343948393824	0.26426106624640966	0.48320388671948056	0.5533009157516395	0.4101531495229345
-68	-1.3690156902081185	-1.1337064476000076	-1.1323401899359156	-0.36709192302528465	-0.5086137639555892	-0.6373350604178611	-0.639108298595452	-0.4071254421922456	-0.09654267852965634	-0.335141598332163	-0.4975836860491724	-0.01567343991017927	0.07499264906784484	0.09577899402039976	0.08100366571955767	-0.45039287095797537	0.09955798064368268	0.24186089573831318	0.05253356309382692	0.09472303813622497	-0.3385798326527059	-0.014976657889223859	0.34815168292837456	0.22547778430277837	0.26851126483835536	-0.057533953193602196	0.02844806008309041	0.3544360688320789	0.6400876625112839	0.5787897691418762	0.3502015164593473	0.5689762816368983	0.621122835498466	0.5027653562249937
-64	-1.1405127019697254	-1.0298228237854454	-1.0923052998621283	-0.33388090049370167	-0.5477119074344516	-0.6566889865507904	-0.7104905825796578	-0.5408268557245398	0.07023572904020113	-0.45836415771153144	-0.6055797919242746	-0.33543121730039543	-0.08659391083312157	0.5586444125376175	-0.038792382827807476	-0.6738152486955086	-0.27491509844988804	-0.008070423247405874	-0.05315767960240399	-0.08979970939136911	-0.6147006138540665	-0.38892868063006425	0.2123625273111262	0.18329071952319734	0.1751553411829889	-0.2128698075403676	-0.22322995904352286	0.3284595302395213	0.5893786534687796	0.46880420924080635	0.265064596460598	0.47816553591165983	0.47261300563698233	0.44271168000980865
-60	-0.621973930219065	-0.6161000713052146	-0.7976046780475821	-0.2071317876116174	-0.37830710315558413	-0.42400029194593586	-0.534242449842116	-0.4715771365180461	0.18934009921430686	-0.497823147708953	-0.5223693834467691	-0.4539783585530641	-0.1654363270397414	0.8320628383609743	-0.19463022004102323	-0.7560645322784374	-0.508080838827998	-0.2306031876940738	-0.16739447372611987	-0.3462207606634285	-0.8492651560322337	-0.6621178371878713	0.05071338625859393	0.05993596076734118	-0.03728309264306712	-0.4748492228916971	-0.4216369379842361	0.26592054895973394	0.3819938292395683	0.20737045950985666	0.03395916140446331	0.26610180668403827	0.17592574611592693	0.2891604595036284
-56	-0.08104296753210721	-0.1044517082319017	-0.40874794022358013	-0.07832960764658947	-0.11710203409431848	-0.0761393679246222	-0.24196891425553466	-0.26996359160928574	0.18768802237807727	-0.5024463521669612	-0.3286515764045027	-0.3798873414938796	-0.17409166649733518	0.8014788607389116	-0.39629518885693377	-0.7274078112356764	-0.5773378596034582	-0.32905730522046445	-0.24889479514701457	-0.6476590617040514	-1.0339806053759002	-0.8105410913030372	-0.09993658934634007	-0.10123128418397932	-0.3322883239939689	-0.8096777776302901	-0.5487629757377672	0.1834390158790241	0.07574235628793687	-0.11784262925436348	-0.2748039953923072	0.014905119277157963	-0.16386456746214387	0.11179919512655527
-52	0.23579457342696902	0.2789078943840211	-0.1013256904904846	-0.040424641119699296	0.08545924701571961	0.20681215770481634	-0.006262458845062988	-0.058362956942787085	0.03459714716878654	-0.5334954844356766	-0.1439579274596079	-0.2051825667207715	-0.1545539643438662	0.4645006644919214	-0.6366093142649084	-0.6530322416030526	-0.5359378443538267	-0.2735113494643269	-0.29194495008192534	-0.9529520249148893	-1.1675989598359096	-0.8655788876614251	-0.21570050661941004	-0.2528837316804081	-0.6512926204450302	-1.145224449127324	-0.6410549862889015	0.08986032731495264	-0.24916967686686345	-0.40986990825167696	-0.5684810266447099	-0.1944539989091897	-0.44216593988362307	-0.0337717010718277
-48	0.21767377798436208	0.39625218410583685	0.009191334224383223	-0.12662805584885112	0.12893043425909956	0.2928170554397546	0.05319599048773664	0.05343697579124542	-0.22245705071551058	-0.6174571498540344	-0.06334741397599608	-0.04510124016342066	-0.1483091410230316	-0.03938535963485833	-0.8682090618147883	-0.5907314404831864	-0.47101637602141505	-0.11075348379067539	-0.3141391269381982	-1.1988278597128137	-1.2342489926647657	-0.8747588970033296	-0.2808971993983772	-0.3504301300738061	-0.914968249871934	-1.3791085446824534	-0.7384052854014834	-0.0043608471641112265	-0.5047726618420266	-0.5888991341027722	-0.7561725358944977	-0.30379956883976084	-0.5854405745984123	-0.11565049708492936
-44	-0.07472443561761336	0.24633045432363965	-0.0905840543605688	-0.2846510999168536	0.01423155140263881	0.15884172876308672	-0.07204768788505646	0.021521303748392583	-0.46568527700151907	-0.7224410754083724	-0.1134938520307888	0.02624191709687915	-0.17219024853147846	-0.4755143809233887	-1.0080844138442968	-0.5607863054422134	-0.4499825823866998	0.06611445529457913	-0.33257564818338325	-1.3097400632215446	-1.1990789144759737	-0.8616732933223783	-0.28388813066333257	-0.3607470980119306	-1.039768573996846	-1.409479614513916	-0.8343927839193617	-0.08203566053659325	-0.6180734022748113	-0.6125663503439825	-0.7781892399214	-0.29108807371079776	-0.5686475024171473	-0.12529782919243482
-40	-0.4648649084752242	-0.0620878896039758	-0.3211042872904859	-0.4034033407516766	-0.16536807972164588	-0.11007030280456533	-0.2873817078964097	-0.11770431667651139	-0.5595911131081949	-0.774462280702294	-0.2504703694218681	0.007601442261964982	-0.2123913908602858	-0.6204013212752815	-0.974086401387409	-0.544528661783614	-0.48614245530413297	0.17419332221874295	-0.34370180877693546	-1.2269438474195375	-1.0273877356339396	-0.8110210875062016	-0.2182558024379631	-0.27129554680039614	-0.9675720309624194	-1.1786729067607702	-0.8640063979269309	-0.12287853627175462	-0.5555161819737687	-0.48454651114197883	-0.6266924127015062	-0.1727430220057298	-0.4154776026249548	-0.07247665506184131
-36	-0.7701268176662124	-0.3890900900077085	-0.5616194591647803	-0.3792691817244747	-0.2871122949027051	-0.37943658136890374	-0.461943237807323	-0.2775689058448449	-0.42379799378207894	-0.7057110649411207	-0.39657270808230727	-0.04502606753067779	-0.23808203577490009	-0.3763331463372189	-0.7355508189703969	-0.5087187277347737	-0.5405476675691168	0.18997932922558664	-0.31914347329626047	-0.9428185200729202	-0.7154216152248315	-0.6863318068342259	-0.08839663095806004	-0.09523673331534413	-0.6944379788985681	-0.7073830348274939	-0.7387536149446714	-0.11244925083141505	-0.3369684806899163	-0.24844974216676158	-0.34689795883333435	0.0058689773865878295	-0.18257494224705803	0.021220030209490866
-32	-0.9034882165032438	-0.6454933269416055	-0.7173450571068771	-0.18268731190333712	-0.2762603156744275	-0.5457323179771694	-0.5123925792155188	-0.37672600054994165	-0.08431112744979356	-0.5044333922048216	-0.49226233238867256	-0.06741880608464762	-0.2248236084268589	0.17107979910095536	-0.34608709724785713	-0.4378919292361497	-0.5553271160410185	0.15999275405543822	-0.22045661453377075	-0.5190376626261709	-0.31174218575925233	-0.46657544256666966	0.08628371336133242	0.1314762827414796	-0.2810552709159225	-0.09866035704737337	-0.406901239321489	-0.04964153083546544	-0.02961130805288031	0.030127623973717814	-0.016892150001792644	0.18847140622238237	0.06473963691340283	0.12900873986097552
-28	-0.908157286735291	-0.8283486941404626	-0.7644496540796242	0.11396687449053203	-0.1526735421140786	-0.591643927987749	-0.45270013694908307	-0.386720656372257	0.32647144712037995	-0.23715075790611945	-0.5317573533937698	-0.03599947681874751	-0.17366354123615566	0.7849178294391714	0.06360047294533168	-0.352786540094407	-0.496178953586975	0.16610994893096975	-0.02590109215097852	-0.07443699221890976	0.08740662761316272	-0.1762520070394425	0.2708459787683128	0.35988697318767093	0.1632896955658978	0.49382400388016734	0.09852132921378579	0.05237551392802341	0.27664276887666317	0.28459468412071615	0.2834050052163254	0.3263289324150818	0.2731274955529426	0.22395655456266159
-24	-0.9086717940276932	-0.9935721729942485	-0.7488452177214692	0.366761743096385	-0.02005087951723795	-0.5859103188027011	-0.38079935216128524	-0.3434163323315045	0.6270572527312552	-0.0269566587423181	-0.5625576362711763	0.014723281338891111	-0.11162222893666393	1.1890097826501995	0.33572608147735483	-0.3030737928844857	-0.37728717827908514	0.2708688967541711	0.24597507653122483	0.2573560171782262	0.37144249583877864	0.11296232016176563	0.4212073375081022	0.5412457571669637	0.5194141851662664	0.9220356917943981	0.6566172821633067	0.1730054761571744	0.5022429215148565	0.4649749684515241	0.5002900349383661	0.39083859225778	0.4121698130691735	0.2837982766615605
-20	-1.0179576848078336	-1.1945215433479537	-0.7473991494382244	0.43285918126492373	-0.005730577264413948	-0.6328675134892908	-0.41393923654950837	-0.319748728660104	0.6732492429901504	0.003292540079983072	-0.65248602463971	0.014685424007651148	-0.07622766475505341	1.202596065346	0.3555527022444819	-0.33970209870402596	-0.25574672157567613	0.4683502006626985	0.5298002348875112	0.3814551224614484	0.4616000640658951	0.31090316097918985	0.4952974902999396	0.6383585317707154	0.7020016890921791	1.0985046597402752	1.104199525906317	0.2928018562553753	0.604053614998654	0.5470584617154288	0.6190018638241335	0.37595048451872703	0.47412061571580233	0.2961910359533919
-16	-1.256751772568584	-1.4278539383124347	-0.81409376654126	0.24493999717382992	-0.18711359751666592	-0.8027501682041162	-0.6123689397609849	-0.3774867644316116	0.4276018131904287	-0.20754353649668622	-0.844215271725678	-0.09430509781869573	-0.09515123790321028	0.8250591734082589	0.10534070405590155	-0.48295584199087405	-0.1997061813796023	0.669875620104381	0.7306646686226258	0.2806680791444391	0.34655094059232816	0.3524747183960518	0.46324878814086456	0.6319624765653062	0.6881518346578473	1.024999019895952	1.3070907559772569	0.39667120475754997	0.5823250398238685	0.5315017686776182	0.6561647637013144	0.29107585475864967	0.4656003999875732	0.2609053843586722
-12	-1.531617756791301	-1.6217536885324186	-0.9414144134594913	-0.15058213434348	-0.544585882242454	-1.083052155621269	-0.9355972981673238	-0.5255214558684679	-0.02117263706643349	-0.6233918055054022	-1.1230628462093386	-0.31529766241577245	-0.1700483109233991	0.23107246996236683	-0.32446575082875195	-0.7047613245336675	-0.2484263473437463	0.7454583626045929	0.7605715374817495	0.02145264106042984	0.08934576041790585	0.23201095999314708	0.319137900261988	0.5221824036765808	0.5194082247018039	0.7838954905745651	1.2200190990163056	0.4732507753344688	0.4691615986899773	0.4381271887684842	0.6415821297659641	0.1517634536964621	0.3999393274223334	0.1905208970266485
-8	-1.68680274060665	-1.676896925507148	-1.0628168556082713	-0.6119815691755677	-0.9653211807674492	-1.3787128890514333	-1.2574053971015406	-0.7106747013269041	-0.4983384894663799	-1.118053314247194	-1.414815899137894	-0.5835378155280514	-0.2741450660459789	-0.31826165238135734	-0.770672557792398	-0.9335442757878637	-0.38701560995618334	0.5975218996220785	0.5805048331863132	-0.2735725336320344	-0.19647118399606914	0.009811156404579587	0.0909765136925209	0.33009129679309496	0.28101581264118075	0.50047850482467	0.906030652619719	0.5149323927276307	0.3107179097436957	0.30167207045684186	0.6036555751818488	-0.02231772797135453	0.29706528707842766	0.11111784698326742
-4	-1.5993621308954704	-1.5340719184290867	-1.0950220795641314	-0.9670726632497519	-1.2952034440718445	-1.5612008532208224	-1.4317815267653482	-0.8469027855471702	-0.8211488703022867	-1.5222527942371256	-1.6157753426765409	-0.7946021536792472	-0.36536216643594766	-0.598260401168981	-1.0622670623662513	-1.0804892751116875	-0.5515255318068422	0.22743995430266903	0.22888247610955864	-0.47319951534009136	-0.39063838025648495	-0.21414270942981586	-0.15830768604840875	0.0998478007775907	0.06979871523639192	0.29471078440645476	0.5051730858446167	0.5213239179800483	0.15408180615147002	0.16898013608707618	0.5653805718452564	-0.2015992397940504	0.18861383152071357	0.059924866852860366
0	-1.258784290950293	-1.2243353097521732	-0.9937823985758405	-1.089182374111651	-1.408907052297649	-1.5373026093770459	-1.3706122602190411	-0.8638731219415496	-0.875841138535784	-1.6886936383527305	-1.6390829044920845	-0.8563238956765825	-0.40575069086629456	-0.516938029414614	-1.0846624347004554	-1.0745204659989496	-0.659973142864978	-0.2442215376886825	-0.1791769112593146	-0.48402050015316406	-0.4097622324611621	-0.34473818453535093	-0.3416318288760795	-0.1022486460607595	-0.03558097398238462	0.24315963624120637	0.17162246958794278	0.5056460486997153	0.04349163536177659	0.09350141859289585	0.5493243322808445	-0.34047168407310036	0.1199687567304561	0.07737669329180999
4	-0.7840602974169529	-0.867821214392214	-0.7892990688423249	-0.9478054022701073	-1.264021155027037	-1.300727840954259	-1.0911133261789194	-0.7476492505270704	-0.6585534794393021	-1.5487139185904837	-1.4557862245044249	-0.7368755918018299	-0.3770571341531553	-0.14062122965118348	-0.8180050829261908	-0.8915860630413199	-0.6541153772051763	-0.6245763882126775	-0.4879713344174812	-0.2792819135290423	-0.23441852569999735	-0.3337162128606031	-0.3755368878896748	-0.19971127757671775	0.005442596492586155	0.3615045240335016	0.008877476654885072	0.4963579463347836	0.018948636901221637	0.12132638662223867	0.5805415496474021	-0.3823598911645322	0.13950864935461504	0.1919926996152101
8	-0.36839064862701665	-0.6182834490424695	-0.5779560789775077	-0.6125032290253248	-0.9162983871213835	-0.9407910084813594	-0.7087750416980638	-0.550294219058181	-0.26474904947195377	-1.1395215959389025	-1.1133887739681383	-0.4840347158609071	-0.28569617795338437	0.35750901608803815	-0.3393105259911626	-0.5685257897328233	-0.5307549820851128	-0.740339396514917	-0.5622893557657196	0.09564385538987395	0.08670201875731	-0.19979657182317598	-0.21797954981128784	-0.13212607767601914	0.186201944477128	0.6071122869422254	0.03195686630286922	0.5268728719760483	0.10740262987915257	0.2689112120037885	0.6774963123382534	-0.28271368074564346	0.2739906006094335	0.4007617225065455
12	-0.18114447547954382	-0.5839090928594199	-0.47192722439825047	-0.21297171658151504	-0.4918353545169021	-0.6030608996424262	-0.38046330117489	-0.36242952851343546	0.1615445907805699	-0.5912320598933909	-0.7219215613258219	-0.20397296496391487	-0.15532018205051934	0.7898991087997639	0.2083603585466259	-0.19459941934091332	-0.34427308949334284	-0.5279288874648677	-0.3487863233820182	0.5398405776699315	0.4556060719908033	-0.016788726630142713	0.10247041259166702	0.11305719585484733	0.45461305861135237	0.8972482658621073	0.17297454134661408	0.6153752192219312	0.3059509686851744	0.5040032254845638	0.8344737270267624	-0.03992541869335313	0.5029680120167184	0.6555373652119927
16	-0.28221222687041414	-0.7691031674994243	-0.5346567617269037	0.12136475711221595	-0.13250313665791627	-0.422322719222968	-0.2293038511447344	-0.2648717456329141	0.4922451662510206	-0.07926552722707028	-0.4125955094410846	-0.011028259964755807	-0.012785436553265415	1.0400645706620533	0.665904103028379	0.11721654206722348	-0.179146617198684	-0.07365357857228233	0.09314483380642737	0.9285929775635176	0.7587277274049228	0.12320872365123485	0.48422583815389686	0.48053628084929306	0.7261661868834951	1.1357233495648251	0.32312807359175755	0.7461671810384722	0.5668403491967648	0.7449536304739092	1.009263632133556	0.285175263161685	0.751175103675212	0.8686186649326506
20	-0.5944591745626725	-1.069992897193242	-0.740190504112644	0.31033152263491476	0.058084398361422894	-0.4617575097346718	-0.2902389459434714	-0.28662073539848354	0.6601930243989993	0.23753814339269785	-0.2864428155342782	0.02562667050448032	0.12294591932250308	1.0973297329854292	0.9068385935776097	0.2688540213472709	-0.10675358000267084	0.42174607408854436	0.6085405334367274	1.1493409843036984	0.9028562880609305	0.15334601661589792	0.7866248468565841	0.8546494819997797	0.9063898302082287	1.2406815259126853	0.3894189884367487	0.866956768231219	0.7992271164742719	0.886558470871854	1.1307004661622846	0.5792923555053534	0.9108521915327168	0.942334530358566
24	-0.9490480399012473	-1.3289260830705654	-0.9833334063498719	0.34017100844329007	0.046178523334500295	-0.6876224858089336	-0.5024659024903982	-0.3934126188359065	0.667498706086029	0.2711168222734884	-0.3743489673223005	-0.0893033591638358	0.24178053377619765	1.0306557390894338	0.8716493226932485	0.21231281703750904	-0.15007084570188756	0.737697122618695	1.0078721021001429	1.1337116928087347	0.8427625277222353	0.06125672518642326	0.8898684956018088	1.0988954277904361	0.9206754541994132	1.1686441868840518	0.33879980359369416	0.909926531401692	0.8976837970003815	0.8468469359951568	1.1297310562221052	0.7205476146625731	0.8902837611609105	0.8137915709930117
28	-1.1801484793431043	-1.4206590616597627	-1.138843771920228	0.24794429478034238	-0.13087534871437131	-0.9896749829100938	-0.7494716029318322	-0.5129529820842822	0.5621480927579586	0.032542835838886355	-0.6246015413727092	-0.28601381110459045	0.33469563638107946	0.9278366542278722	0.5815105423550692	-0.030929729264370574	-0.27436044742933097	0.7413039188742371	1.1491913766456898	0.8797905422886301	0.5942471608417417	-0.10786376866287371	0.7552522401814893	1.1161386938525528	0.7452694158811319	0.9306650138246131	0.21114645845032776	0.830785928059175	0.7930107096677623	0.6153246744832892	0.9825140213002133	0.640985606482558	0.6679867489162178	0.4961079346529044
32	-1.2136610715741671	-1.3208522763282544	-1.1356190414367315	0.08791060723520801	-0.3909248997831969	-1.2368715970282613	-0.9229800677838351	-0.5811132773986443	0.40039750832556503	-0.3779885759347087	-0.9264608002159955	-0.47057738781375263	0.3843084862066095	0.8372804501375044	0.12671439317659028	-0.37825986647471893	-0.4104113270411273	0.44727060085858905	1.00215995058716	0.45487052087380964	0.22577814700820442	-0.2773230962904118	0.4507364917342379	0.8996323324378142	0.4236291338238566	0.5903629645701153	0.09282021946121956	0.6417973621377046	0.49768632524721645	0.2706873112043213	0.7360807042611123	0.37132522370047916	0.3171914807894395	0.08790460951784262
36	-1.0991593571568352	-1.1170860500742212	-0.9999511216666502	-0.09706853305627897	-0.6441178305575967	-1.3379483189181478	-0.9739195679871039	-0.5799387082716658	0.21820105557187514	-0.8132303336592236	-1.1585062712983805	-0.5739257917219056	0.36311805156582005	0.7449159007338616	-0.3641650965556234	-0.7184805851916262	-0.4966179715969597	0.0010174560567752832	0.6620881540748481	-0.023589726477907715	-0.16759583311682397	-0.3798318197674115	0.12236586182217467	0.5466448650863766	0.05743392542405074	0.24132639108763937	0.06553929282569054	0.4151264120588249	0.11638320208014213	-0.04880803066090166	0.49354138845767836	0.03783053522691483	-0.020059371316451857	-0.26306718521457284
40	-0.965954122488721	-0.9529412960788568	-0.836951730522398	-0.28150743175004694	-0.8206822255395183	-1.2741167513150249	-0.9216256118393787	-0.5419915304805104	0.028851771654360602	-1.1325111360567	-1.2365919320356813	-0.579316733805005	0.2453662597898649	0.6002031549558852	-0.7626719455536864	-0.9523161029613861	-0.5131928311742529	-0.4005711366553574	0.3074085704671541	-0.4230110634614187	-0.49555951231771067	-0.39016905328470847	-0.07619386147097051	0.2236086124496637	-0.22746090533525468	-0.02726400077910069	0.15665645857836505	0.2504656308526204	-0.1910070772116927	-0.2119751716268701	0.3620691588320333	-0.19337783705048708	-0.20110952803381218	-0.4283206154022828
44	-0.9313372350066927	-0.9371843910397512	-0.759909151066033	-0.4444070149168748	-0.8832218028657519	-1.0928693982188584	-0.8227031806201703	-0.5201168047171048	-0.15873518546081972	-1.247360822389352	-1.1420239181295453	-0.5167793618506226	0.027988221425680148	0.3688616445288427	-0.9764425729894314	-1.0252832148415234	-0.4888114022788246	-0.609936891446355	0.11868719726637604	-0.6376249774093167	-0.6983244997513349	-0.3328812113940528	-0.061444703334409045	0.09448976045832426	-0.32985001719165336	-0.16398340422236476	0.3183123461316108	0.2216706270343296	-0.28338816690421886	-0.16669303136701286	0.389202116937281	-0.20103190788534941	-0.16080895025660935	-0.3672847142483239
48	-1.016510007199184	-1.0701607438725058	-0.8081995824435926	-0.5525438771602587	-0.8244706967518771	-0.8707101323078938	-0.7234918456884649	-0.5425879941592718	-0.3174548141093923	-1.142297265029795	-0.9185262299235284	-0.4318692971293156	-0.25235295232002336	0.07867717723055845	-0.9713602637561998	-0.9388109421869202	-0.4759711313151494	-0.5907059296952869	0.19687110135917993	-0.6220799668818526	-0.7573915104817217	-0.26113018327587506	0.1397868093299183	0.24492038724574833	-0.21569420342824094	-0.17159251825401878	0.44969114547680633	0.33399253999308415	-0.11355590046584331	0.023448422491953516	0.5269943462417939	0.021609064137022176	0.044344119615653405	-0.15650561412398056
52	-1.1235057087189018	-1.2338768212637279	-0.9092242098740767	-0.5572880492445332	-0.6577784402452445	-0.6690786464011014	-0.6267520769507757	-0.5838492497962166	-0.3950539519349424	-0.865906415183639	-0.6425338371266899	-0.34966143877440103	-0.5205349909037931	-0.17352922216949343	-0.7736403326529165	-0.7367848139280662	-0.5092914687649744	-0.4114506234271294	0.5176710473342111	-0.40371337431069304	-0.6885882598657909	-0.2179724866608998	0.4116614152528454	0.6387435181703477	0.06620722992393778	-0.09642405038569161	0.4550850975944593	0.5227405415688483	0.23876072406092155	0.205300032574166	0.6541296823198863	0.35476830512121815	0.257680296247308	0.044703204071905846
56	-1.096294638726873	-1.2622159687599273	-0.9192260480560694	-0.4180703748638158	-0.4144589592483152	-0.5138584362407791	-0.49906918280483653	-0.5764101133098716	-0.33654662881758357	-0.5055424558273572	-0.3888758709149266	-0.26061910325053883	-0.6889118534814594	-0.2663539343308016	-0.4571084964655409	-0.4808795738000102	-0.5745099172392297	-0.18306069029842867	0.9414483881069275	-0.07105880212724584	-0.5260097967218796	-0.2031769002314658	0.6204851850102687	1.128855821620433	0.40277537601823094	0.0037362072522485403	0.30975574176783816	0.6991479379168279	0.5987982138774316	0.21858645920401976	0.65206175877927	0.609521506677964	0.30549326461909976	0.08154173919832841
60	-0.8405771234270631	-1.060765144530993	-0.7313497644079444	-0.14630091153400707	-0.1543371226467208	-0.4131817807256151	-0.32011777081729914	-0.4654290664365989	-0.12952128020010506	-0.16436435240732367	-0.21505270844046542	-0.1429866250719616	-0.7028307896989116	-0.12964427438428855	-0.12534123627488292	-0.23348961711584054	-0.6140074714417235	0.011006320798920981	1.270732041965355	0.2535436147010504	-0.31065842430836	-0.16947601692803307	0.6932909471174065	1.5159467420451	0.659660576108565	0.09336348599465324	0.09479967480805145	0.8167478421571177	0.7813401798548508	-0.006680775882572713	0.49386605495695024	0.6267337187202312	0.10044316922100711	-0.09967189257014145
64	-0.43464755902224933	-0.7119104844239122	-0.3924511363134622	0.15703584214140257	0.02090400265839934	-0.39932671088487864	-0.14132532441697632	-0.27446010639514384	0.1527813222127216	0.050217430911831264	-0.1700152154444711	-0.006909484026272614	-0.5825871810509289	0.1883563990605786	0.10514462712682736	-0.05677312225670704	-0.5685644135425402	0.14730741046430432	1.3250894513053497	0.44645136482054204	-0.09031177289334166	-0.053221892431116455	0.6577101929271489	1.6274630982317488	0.7295016627967046	0.17503161684190877	-0.02456814789529637	0.9166197157605562	0.6875531060025901	-0.38936671516341265	0.2920142404813018	0.36793824937431363	-0.28937947677030257	-0.39928504723828584
68	-0.15801854391733333	-0.49698519581249373	-0.15126503965810867	0.30065694375423513	-0.031690131792882485	-0.5619512782214071	-0.11091904314170163	-0.1379319127891913	0.34310275229613285	0.029477689340792434	-0.3151397995144834	0.0708015037775613	-0.43642476090870774	0.5075911270677598	0.11942426830180759	-0.022593270930229736	-0.4318158317630871	0.24162357984573912	1.0019215320086603	0.4107308377386391	0.07289207708313515	0.17610935822369395	0.619014798032017	1.3823587859538493	0.565850196840256	0.2779588990346257	0.12487588791313513	1.1167631121096433	0.3640936305867181	-0.7113407236259428	0.26710429720198453	-0.051596008110909204	-0.6483094079815538	-0.5926000460921771
72	-0.4052656878729817	-0.8055498579667925	-0.3918780376553937	0.055292285839194495	-0.46643984200014804	-1.039811489340976	-0.43719506153351767	-0.2700492136812894	0.22448834720200497	-0.3276857129406785	-0.731548784316347	-0.048168178526143614	-0.43037494908392465	0.5742603525921852	-0.17684699550324945	-0.21450948661051522	-0.28133532333869254	0.2963113777308896	0.30527892631702863	0.0971156654290161	0.10144470606463937	0.4778938579414595	0.6866299492666397	0.8185946324661757	0.19421559523185125	0.4284233142049715	0.6300312264748148	1.5435894688735021	-0.006113339665743633	-0.7051581722575802	0.6439384801819203	-0.40528237717347665	-0.699485121391471	-0.4302006949053638
76	-1.5078570804673188	-1.9583010624080601	-1.464630838511025	-0.7512809615240659	-1.3875509465471245	-1.9583008239894815	-1.292421099260754	-0.8709007479614043	-0.3803368797236406	-1.0855829688320424	-1.4912029467126746	-0.5060774075128658	-0.7197306734033442	0.17356815890359467	-0.8275464156238115	-0.7027564627070643	-0.2563616328919489	0.26412030987812796	-0.6588368399198489	-0.4791917788804891	-0.0766088588091714	0.7436766009628206	0.8994424916446838	0.07932914773462679	-0.29579001590435555	0.6259955151965518	1.4307374918100983	2.2435350361447006	-0.17600323215393932	-0.17252518193078695	1.5281763038199483	-0.4506637740677955	-0.22755511047608434	0.23877763687883388
80	-3.544064036004491	-4.021094788889459	-3.488433829083176	-2.1333782619019455	-2.7757534910692887	-3.335334530992542	-2.698553555351114	-2.010095114401316	-1.5091803035779916	-2.2232856694355716	-2.5958528453137775	-1.360685464284631	-1.370208021519195	-0.7512806038961981	-1.7892296269065797	-1.493720885320209	-0.48530954000014453	0.06464149786602794	-1.710429187270937	-1.2270097701564926	-0.48570078488746243	0.8475046136439479	1.1979836195263465	-0.6308162196445247	-0.7696109394669839	0.8438417890224584	2.329696887810097	3.1270806710446997	0.06527920795886977	0.9225218868806034	2.830193274028155	-0.03100155658643387	0.8205748179699043	1.3824640477562569
84	-6.2378086886272675	-6.7074675390650285	-6.227896197807568	-3.8955833813541725	-4.445506084662407	-5.011681544048381	-4.461467731655799	-3.5522925764042483	-3.0038592739559014	-3.595669498902154	-3.920747508640493	-2.5171267922746265	-2.310686820872009	-2.038931126215109	-2.908794395732172	-2.482929461886113	-1.002138016077938	-0.3545551887143618	-2.6371216707405893	-1.9831316421030594	-1.062633869349273	0.7173599582680333	1.4560886584712516	-1.1034411164081097	-1.0753556462794338	1.0517539951473107	3.0730376166004567	3.9809274572953157	0.8065306523940953	2.426749938559935	4.278539169953342	0.8612377025794595	2.3019683302934353	2.7824389864289962
88	-9.00893590559935	-9.43283841612578	-9.122336364602592	-5.666274533270936	-6.067768558441343	-6.657135946632289	-6.20057533606014	-5.172395216280557	-4.534011829373033	-4.93740318959114	-5.207091318335292	-3.725561132561636	-3.3448908244559634	-3.346269837514005	-3.9384317298635447	-3.448369971152101	-1.700697179315161	-0.9532627439273189	-3.240761748714836	-2.541811936636741	-1.647697206151854	0.38744491240909423	1.552937384499315	-1.1814266413424408	-1.0781160565813024	1.2454613415744455	3.464236965969829	4.550897109939533	1.9784064242957755	4.048716534882954	5.52231739557287	2.083662504657471	3.9256307979653218	4.114560116870035
92	-11.170594187190027	-11.513441056746785	-11.471437425261037	-7.016960603164004	-7.266379338038433	-7.869722823301026	-7.47787902851397	-6.467324240568549	-5.705426678557829	-5.928952678970043	-6.128703101897117	-4.661689746531146	-4.223729122942066	-4.2774033438453705	-4.600718486614283	-4.107541073919006	-2.363043302291946	-1.581328268827049	-3.3846850309747554	-2.7138159206537664	-2.027029270776408	-0.00451525532431847	1.440536256967854	-0.8014907220631919	-0.7005942446186513	1.4575236998952408	3.451579562055863	4.654842841793794	3.375879040777872	5.459397779032508	6.272087081332471	3.397421351438205	5.3549246652826055	5.073940264289142
96	-12.19426628848734	-12.431743590439037	-12.703005758638442	-7.6243638799812885	-7.759589652497542	-8.336394288950187	-7.976734141237635	-7.120115739011961	-6.212592586090834	-6.313143237387261	-6.419168456083197	-5.06301735553376	-4.74930762045544	-4.549821365313343	-4.690584170896671	-4.228130329901169	-2.7580633093817744	-2.0398764558788596	-3.0345013065018285	-2.4009337364614183	-2.0191988894027455	-0.2819608740840309	1.1618286341897726	-0.01661884221709087	0.0382833926903234	1.7362233356509422	3.1419231812306143	4.265065182408015	4.723414885993225	6.395796759670037	6.408175452265737	4.54483221813966	6.316150172499299	5.482635961041708
100	-11.921371429862369	-12.048007934669595	-12.60027596153453	-7.40269468345843	-7.483250122250409	-7.979204157710892	-7.644856910477644	-7.037554246300487	-5.966760620311354	-6.011526569447598	-6.001075252640489	-4.854689108989426	-4.860597121364647	-4.119870652287536	-4.170946110685193	-3.7426006699484247	-2.7616357733620127	-2.1901562158601577	-2.279000276533675	-1.6534006553867218	-1.5673510988717985	-0.32482233561522045	0.8142619708483915	1.009919402433719	1.0051387523069342	2.102776283677206	2.7332839896811527	3.518346539197473	5.755451664698618	6.727961523235698	6.007296070190701	5.319413171689401	6.670880777682791	5.335385309100248
104	-10.62076089084873	-10.655140849868374	-11.381092996473022	-6.5407256914940675	-6.630264265486755	-7.00719020981709	-6.725396616168199	-6.390392764169764	-5.136076437380554	-5.177346693318837	-5.044964777606927	-4.196031559840609	-4.655985820459121	-3.2037672915633646	-3.2109134116167337	-2.8027055192757775	-2.4303049979839426	-2.042932028380911	-1.3148199286643465	-0.6756348592866176	-0.7851149419989459	-0.14072118664021943	0.48607101913755	2.0441038556942366	1.9731689641725851	2.5165536340119132	2.4065909324920574	2.6511304311574913	6.286608680111725	6.473851664410711	5.283983694087202	5.610250935695097	6.433832152335237	4.7736387132284825
108	-8.864404655964256	-8.847774483276751	-9.591258024795632	-5.421143041275088	-5.576766953693454	-5.8364338727461105	-5.652277455364381	-5.532825456001662	-4.0742120639933885	-4.146207798980074	-3.9141075512292787	-3.4156443986486655	-4.340474117764501	-2.18116497442778	-2.1350278800465845	-1.7329422191736306	-1.9820715138937608	-1.7720087721908417	-0.3900482048677315	0.23651347994695113	0.0778325645150624	0.13184510138125732	0.20516720362361943	2.848237507304741	2.6876745156141766	2.8768854068600977	2.2372124138614695	1.8934686136123957	6.254292949144731	5.769982323383855	4.484789360167474	5.416817651423948	5.7432041023210925	4.010848988897017
112	-7.27705667565796	-7.26248977734879	-7.861377219379225	-4.454111564834772	-4.719037044054815	-4.905138480199945	-4.853136527206237	-4.836233126827771	-3.1661627212695134	-3.294006577758262	-3.007209531820978	-2.857053272663343	-4.12118719967801	-1.4249319994236327	-1.2936744657279267	-0.8916169978518803	-1.6854078727131379	-1.6258188445051263	0.27945309806840507	0.8105441311399131	0.7447096686634594	0.29770213290392245	-0.06175328403021275	3.2582349694959154	2.9583446904831683	3.0706453245837917	2.1757087652588165	1.3784114087589205	5.727782234989424	4.821205126987784	3.79427408214096	4.841186034377522	4.807578551552217	3.252038232222132
116	-6.2815136750891885	-6.31533001258926	-6.648452265166176	-3.903256883303183	-4.2981991659364205	-4.4744415170234335	-4.556975353179801	-4.52152870943995	-2.66318988127658	-2.8676006721575873	-2.575058453734198	-2.712542765444579	-4.106118191842521	-1.1378451557041824	-0.9114407873983876	-0.506047009144107	-1.7152473883238355	-1.7844635203130832	0.5886109456460108	0.9135915613950327	1.0424436304476117	0.21624498014689736	-0.3669165661607982	3.2421727098623965	2.7388801505556954	3.041199199627618	2.1022224373193517	1.1074162693674339	4.883944022245642	3.8499233625485547	3.2942941105639325	4.063171376460229	3.8519604108832555	2.6421618394900714
120	-5.957274421910012	-6.059001907309913	-6.08151434316616	-3.788280954333215	-4.301901329623362	-4.517560470619403	-4.704122531458193	-4.574236858263173	-2.58691405596867	-2.8753395007971063	-2.607022994135063	-2.9327375814779955	-4.259312618945977	-1.2763130632601631	-0.9894291733556607	-0.5680511579476751	-2.0562469907343788	-2.2480771484836968	0.578788696258273	0.6111154540845232	0.9846069787915722	-0.11416487366939537	-0.7312308531419177	2.910301916404025	2.1518075411828086	2.8358199524807457	1.9167538832908497	0.9780423020465192	3.9539508719752416	3.0523130816643778	2.9799084588155655	3.2983465111426904	3.0724279802952332	2.2523384037372205
124	-6.070347293786395	-6.219943984540292	-5.974184021171518	-3.9097418686383723	-4.493896949866159	-4.7556471704577445	-5.003006445651094	-4.781960475292433	-2.7488512923457065	-3.0977291982641906	-2.850130789236607	-3.2604999459916617	-4.43442200494796	-1.598989244238697	-1.3154857125448067	-0.8480868914172887	-2.5103337701360156	-2.8282079625249885	0.4064102758637137	0.1319593932873256	0.758347747795439	-0.5500012622298496	-1.123289224649624	2.4641325411572033	1.436922308154957	2.5958795481945693	1.6061881740072037	0.8498716332912921	3.1521787563847754	2.561921828477448	2.80471848733405	2.741194002860034	2.600213521114535	2.09150933691305
128	-6.2429170450902	-6.385046942802646	-5.981775268710946	-3.978046645611305	-4.556134212434856	-4.821660983309875	-5.100321280000124	-4.868857848272501	-2.8694069313083004	-3.2147850909129887	-2.9529328271698057	-3.3723316107483763	-4.466293800521788	-1.8070062353288001	-1.5795729120428454	-1.023052093783924	-2.806268208094297	-3.254873744376228	0.25666516954470125	-0.24662512478550402	0.6195049270247676	-0.8808981753996947	-1.484902139729376	2.1049189514421824	0.843339083449692	2.48764943448467	1.2472979990939173	0.610404549488082	2.6090314322403434	2.423686259826215	2.720859043881224	2.5059850152641827	2.477619641724348	2.125906223651768
132	-6.166667445825925	-6.233699306008249	-5.808238491652746	-3.777011146546117	-4.267569531156575	-4.464353073292801	-4.7743754266360465	-4.652606952364625	-2.7323424747146574	-2.982944242575601	-2.6577703885687054	-3.053519002834429	-4.2697324645007235	-1.700814481255783	-1.5366036853141742	-0.8501331188672615	-2.751720183100792	-3.3369510089547694	0.24517808792678408	-0.3378306022697709	0.7514702062707499	-0.9492250656957832	-1.7816094115098642	1.942752714020497	0.5160068260516392	2.6088862353260374	0.9481882429025331	0.21098537689822897	2.331934446169316	2.5839319163887966	2.6906413964050255	2.586464636948198	2.649520390496883	2.2917237223938853
136	-5.747282967362064	-5.692282185487988	-5.352375970678445	-3.275753966644067	-3.6224405674075615	-3.6818125154998493	-4.048048009188841	-4.139030446092922	-2.294860118794048	-2.366019719825935	-1.9368680666659694	-2.312750095250345	-3.88990138979137	-1.2749555078741863	-1.1311919660618615	-0.29206982181241453	-2.3417534769062445	-3.081381551592208	0.3575036218676996	-0.13545304502620853	1.1659932107097146	-0.7416920047153899	-2.0404472299557876	1.9498571108226284	0.4344907690045635	2.9256925509019105	0.768985150303067	-0.3346838644637661	2.2126946393414615	2.9052953646741115	2.6747782162845537	2.855973474921318	2.978538505663507	2.5018548902288336
140	-5.112596022095598	-4.936598288470125	-4.723783957952742	-2.6295914583572575	-2.8214893269828694	-2.71053241999067	-3.1609523216549826	-3.5043435008264554	-1.6947356419690676	-1.5450814923377527	-0.9956437920228316	-1.3720608915020047	-3.474803200531775	-0.7008613330312154	-0.5140372501746538	0.47692775605905674	-1.7574365094636561	-2.6915922096960823	0.46309405448341834	0.19655813227141572	1.704794402586677	-0.39462965627218005	-2.3402388036770363	1.985508913749279	0.44053089507459503	3.283926955515034	0.6789363009477464	-0.9728820895427628	2.0846750683603585	3.212558499808381	2.622936003738441	3.117146484134356	3.289897195139243	2.6593375138851836
144	-4.497608650296241	-4.255293835386787	-4.136809815452776	-2.076036924842739	-2.1441013758885443	-1.88028835775578	-2.4225168166986744	-2.981652729135869	-1.1584190100986496	-0.8038641194075109	-0.14439016544126654	-0.5393649326058247	-3.1869528213146796	-0.21707807426481965	0.057250868384536795	1.1848628491050666	-1.2550420729421632	-2.442152732405324	0.3964365412716617	0.42923933159220873	2.140539879162917	-0.10829692306594346	-2.755105726915487	1.8803877783030143	0.3403788200367748	3.493899098158123	0.5804426655419694	-1.6344301659326645	1.8073333456185015	3.356575957406808	2.483539813447072	3.1850399890593772	3.4338235768406826	2.6816728047376057
148	-4.084839810548587	-3.861830940033139	-3.756398191504776	-1.7893501474980111	-1.7780718758513763	-1.4207897150407804	-2.0327818342384467	-2.7209691932644904	-0.8659466483187608	-0.35866272358939777	0.38464066289110405	-0.03683621427057248	-3.1064288537750633	0.008656855650741426	0.37433594370745	1.6266044337212826	-1.0118805144511678	-2.5071275170923526	0.06036079659719547	0.4089928557083438	2.3173544348383293	-0.021877014954288284	-3.289627305308381	1.5356908997863885	0.025673398683221098	3.441852799308814	0.3834693720195801	-2.2523269596454525	1.3389129604867573	3.2696778691710042	2.2306117955157077	2.9671266004036227	3.340416184574683	2.5281531746930765
152	-3.8940133950147526	-3.764030685458284	-3.5892226605395243	-1.7745926335353315	-1.704057093132667	-1.3295333351900038	-1.9705392072517345	-2.7018017700645927	-0.8466472008310187	-0.22899042012097434	0.5704424962900263	0.12101008712495605	-3.1799414077581627	-0.02858031906422278	0.4044373323243071	1.784789915347049	-1.0177310679489697	-2.8465430664673446	-0.5027601110162667	0.1558208014607239	2.2498624267995018	-0.12260189621488929	-3.8503031633441047	0.9864572261700184	-0.45237415914762946	3.1646125236721088	0.08176304379324009	-2.7712051798472515	0.7625322322666858	2.9870669766350164	1.889560933110787	2.501834386231083	3.042082302042381	2.2163805905650658
156	-3.7767569923414364	-3.760388126415967	-3.47878455237414	-1.8601586771730576	-1.7013761954267281	-1.373886343348287	-2.0078148791165455	-2.74480342171994	-0.962974188280699	-0.2240118676728735	0.6125481113227274	0.13362246718048848	-3.2444689191919265	-0.17354366139465383	0.31473219315221596	1.838985200053664	-1.075053689149764	-3.222772113292726	-1.1123857470083904	-0.13517123426642197	2.1232681220806695	-0.2439211153786118	-4.278038490938493	0.3963118483551064	-0.895602700833303	2.841712467648364	-0.21999803129918788	-3.1531035820507753	0.25260844762920803	2.623282425933001	1.5389615258462461	1.9374380062778729	2.6521594457422957	1.8162760688701542
160	-3.5143279940568624	-3.562636366432454	-3.2032246508786995	-1.7920019581373732	-1.4736010991084945	-1.226248738053922	-1.8412684155706656	-2.6150116854448493	-0.9880192254870587	-0.05278789983773167	0.8116787055503482	0.30077722592708817	-3.1148049752749114	-0.20041386732523378	0.3808045973700122	2.058165068198408	-0.9115882492891897	-3.343999615809532	-1.5249500236156917	-0.19154694628038277	2.1919815484971505	-0.158879622415907	-4.4293060190905145	-0.013913858646788074	-1.0531487438315335	2.7035965851235377	-0.353670447171872	-3.383695117036825	-0.003651598924864776	2.3136746824977665	1.2788945404188679	1.4611747227970946	2.3083100260629466	1.4206470215215485
164	-2.952753297980195	-2.9684410020268914	-2.6127808028058284	-1.3737108672745113	-0.8193559625919696	-0.6520062668551242	-1.262568470628239	-2.1548016016916067	-0.7302368264835082	0.5074920045437485	1.3940292561621161	0.8547853209848799	-2.68522524155725	0.06334151311617821	0.8323436358418022	2.641791098600504	-0.33976864728974965	-3.045053474367643	-1.5421800574467017	0.19387215326952256	2.6359612875190317	0.28605592178601796	-4.256964672784912	-0.06550584716947538	-0.7458413224463079	2.9064309523635052	-0.18310508085751306	-3.474488249589577	0.10978321703372948	2.151426548294366	1.181324598190843	1.215177532942714	2.109799618162648	1.106460568495518
168	-2.0937914795464483	-1.9843993136849416	-1.7263328985497537	-0.5736622199833743	0.2503010922311334	0.35820129423303404	-0.27153336933244954	-1.3709979022697643	-0.1358154114632056	1.4835991821978756	2.382185214703944	1.8334201528036151	-1.9881108949057344	0.6456226690204416	1.7254692272491388	3.6040160564982684	0.6309351309105514	-2.391659492176362	-1.0947873564735986	1.0562019321477996	3.459032049982604	1.0767960521214393	-3.836697330324867	0.303648500867959	0.048112284270646614	3.4466268929246904	0.3122030488714921	-3.4522035034757965	0.5925847873031531	2.1551861708587268	1.2553147045866775	1.2447472779318391	2.083257908329757	0.9112911201357345
172	-1.09793817719776	-0.8354330041773556	-0.7348081450983706	0.45520084981432085	1.5098545513179886	1.5807548721457574	0.9228851175849476	-0.43333515415457585	0.6846848708985952	2.6874005726674803	3.58135913898345	3.0583023947748664	-1.1808015078296148	1.4189945423539676	2.910262815757151	4.763329493894159	1.7907671883193237	-1.645543571132267	-0.2624038451245423	2.242408031524133	4.484639633300176	2.0308008142696936	-3.3236775314339604	1.0233619187266842	1.18789577184216	4.163101185778243	1.0156259511101073	-3.3368737613353354	1.3404862846862762	2.2810504378901935	1.4501577579124951	1.499943133381892	2.1913349573122596	0.8356039502981397
176	-0.20697209186750612	0.13889706099728005	0.08630225040581077	1.4494279586437078	2.6302051477783155	2.673746102258229	2.0064833113556255	0.4090401221915314	1.5149506292241286	3.8123919867583025	4.681543815237123	4.223363865679804	-0.47064730406189764	2.1701645796343865	4.10734986221905	5.83718870596564	2.8339157032942692	-1.1088006468434919	0.7734459023021502	3.488899937404143	5.447077260569961	2.8890359328761734	-2.8660378383755223	1.9351836394088697	2.441968911681301	4.824325549343186	1.7289767221667358	-3.1216750066143777	2.202913517158515	2.46638798090981	1.69461607505195	1.8813198757356586	2.3734881817974354	0.8652986862270434
180	0.36617839243944106	0.6429154260615785	0.503949938932269	2.1598045771428427	3.3389613544086783	3.3470468436613356	2.7089900902063557	0.9448726749406282	2.139935726484999	4.587669837812999	5.413837419192703	5.043329226158419	-0.02043316508141064	2.70612119945127	5.046891676558361	6.584033949441365	3.511131039337761	-0.9443088150024767	1.8108369066295533	4.546350467647545	6.1241612279767	3.4479620369642885	-2.529578917792504	2.867318622979222	3.5938303379876078	5.250353799915517	2.2741706313890084	-2.7708201338429745	3.0515236777509656	2.6759524277836646	1.9471083830311064	2.2989468516481097	2.590866797581615	0.9960629914884785
184	0.5178531991281848	0.5516262040516137	0.42508730184996024	2.4584290919223357	3.5399291425975723	3.491820564990763	2.9164194987097467	1.0875681611259196	2.4431686339683107	4.901630389235901	5.671624646172468	5.379709707029111	0.11592398554621015	2.942437879762831	5.591843590923456	6.911149961188719	3.7449755574088592	-1.0827718945822427	2.699963324405782	5.283485876095295	6.436740382155775	3.6570856478864973	-2.2795622291231985	3.70015954037113	4.524760234852934	5.401450620365334	2.58309554401542	-2.243267530499624	3.8237750433701883	2.9222354815136664	2.2245943490129556	2.7106060913314263	2.8480963635062695	1.2413893906722506
188	0.2691781514047411	-0.054672535370836196	-0.0821227205706485	2.3758146702864344	3.331789008311674	3.204493276134896	2.694216959826784	0.8910374618921924	2.4457137522937944	4.83086394043996	5.534559235904511	5.28155754663239	-0.00084392115027847	2.9307496473704657	5.780357346245844	6.892523271324858	3.6474590209424185	-1.271468874582208	3.375424138130095	5.718102917539496	6.463233931435809	3.62955020941842	-2.0272312113123974	4.393404472702886	5.2345147000714745	5.384778486008012	2.724911444459982	-1.5313997230012633	4.52296208193389	3.2484774507522403	2.590070956366583	3.1211528699274638	3.179835549909309	1.6180713135874922
192	-0.2757431261730172	-0.9534262990721696	-0.8438577630672178	2.058714384603271	2.927791111229864	2.7057998112074526	2.224502319441655	0.4983600961500564	2.27334880254892	4.568396079927091	5.1946921217418405	4.931309687561847	-0.24381506381466295	2.816565268081117	5.772071346968668	6.697716696041551	3.4385983857122944	-1.2367280690440046	3.8434779546973963	5.968567833136381	6.369522555482222	3.564910402834183	-1.7065981583423158	4.9700384014533245	5.799414143225318	5.379600988157315	2.8571724819525928	-0.6903917175982065	5.182774053839802	3.68750595115442	3.10527252366934	3.5523619562105915	3.613590231355077	2.1196808761485646
196	-0.9924557183957794	-1.8955812406364807	-1.672268028805578	1.6812984900941186	2.5315372879963003	2.2114126626448694	1.7024826960495447	0.06015501156162799	2.078157181261336	4.303070534332324	4.837710368340154	4.535075653070298	-0.4901834117911229	2.756956570340379	5.739582047276526	6.482583029592524	3.3183140670920332	-0.857568202237772	4.144523610141553	6.164638026885736	6.302827342332741	3.632654896147642	-1.3255422081859205	5.474936948304799	6.302147849384016	5.52878950630482	3.1312942425825234	0.16536387759419982	5.824205860692023	4.224575985732897	3.779086580271956	4.007596959486283	4.134937752774397	2.6984260014116166
200	-1.779779191292012	-2.7087829044616396	-2.440619462526993	1.3629826272884749	2.242044443191921	1.8304982139148132	1.2520049778799458	-0.3293626896172001	1.9623970935866835	4.123217095455356	4.551331031752402	4.22278784639415	-0.672633407801886	2.845802299943946	5.771990284651979	6.309339030548721	3.3669495497573263	-0.23828892349639313	4.321812141951022	6.373344882132728	6.31470869377369	3.8851392171044186	-0.9545788144806368	5.9376249163443875	6.778612596563627	5.861528858644665	3.609613647884282	0.9066624022480985	6.434048636404515	4.790785777394174	4.546958435022719	4.457832325170837	4.68067501793707	3.273437014898208
204	-2.5680723125470024	-3.3415040885483767	-3.1079890649527644	1.1343156070680742	2.035038227665367	1.5420963725256482	0.8982196427555593	-0.6498209817692413	1.9439816425833731	3.995918979092793	4.306924332235192	4.0076866048717985	-0.7900682071765647	3.082060806122353	5.8444113583827075	6.137253268959271	3.5244510084813774	0.36073991565225333	4.413748730006258	6.579764349537594	6.353098376446541	4.244288433803245	-0.6639299375937576	6.359837515986411	7.2098412331701915	6.288161261894915	4.237647522717716	1.452724572328622	6.9756221595122705	5.292383180607744	5.2948951587508155	4.858007895602141	5.165230261159486	3.7631101513266967
208	-3.3026447212758816	-3.838211049879761	-3.6915602590818057	0.9562957858737017	1.8153934432925487	1.2468703953733782	0.5947429522757316	-0.9295671558752671	1.9716677615930625	3.8196489714506736	4.010056008704928	3.8134398364108084	-0.882844386255987	3.3876027975384337	5.858957752694126	5.876223549311911	3.647240867943091	0.6869208199324092	4.460578907195152	6.721116049009817	6.316839202191162	4.559102523737176	-0.4584402132380728	6.724613649556407	7.551571826942415	6.661942465174841	4.878245818219502	1.8135597660053082	7.416622143140064	5.654721722631159	5.91096828875666	5.175373064326017	5.520484910378522	4.119541634649206
212	-3.9308674236234875	-4.278511990235393	-4.218738068419755	0.7694609145764629	1.4963462314973575	0.8487865903405404	0.2750411622732697	-1.2048335044959295	1.971457118778958	3.506558647839295	3.576568356067079	3.5397655874527216	-0.9962930058120861	3.6575066950961275	5.722023949481501	5.4599242072538345	3.5999402908988176	0.6494348032767165	4.5067195778550255	6.742813093327596	6.130852206963713	4.693641650747351	-0.2629849010026682	7.013854962760469	7.774510840814362	6.865695936034925	5.383326993702107	2.0813131279849357	7.752228717304946	5.854972347735926	6.332581504092335	5.409650312117092	5.725352749674513	4.344428051470339
216	-4.410608280490261	-4.721100318433151	-4.693021285606094	0.5381278382066349	1.0533519956697044	0.31343537489911194	-0.10705436739118984	-1.4920694790362314	1.8938142013419308	3.0401394290461874	2.984618179415247	3.1231660764043143	-1.154551979964675	3.814564933682748	5.407236085591205	4.890567767193519	3.326180926508206	0.3679560413607342	4.58838795457144	6.637851698328926	5.793200955069619	4.592867839661448	0.025170799281227903	7.219701271902622	7.886124590990328	6.870359403430377	5.659225449579017	2.3702158868075283	8.00589082603951	5.92372988158943	6.560924990301712	5.589038357928829	5.806643471362584	4.475284565117009
220	-4.73397015330056	-5.17849348668142	-5.091876017112511	0.26389393143784257	0.5251345025155629	-0.32543757475703866	-0.5651037678756183	-1.7866468384456933	1.7329333976862262	2.4758689341024254	2.2767219485975327	2.5614917213618345	-1.35694026604427	3.835892190785274	4.965686308721392	4.231751908108578	2.863328688068031	0.08345045873315168	4.708735454115004	6.4450855092404185	5.368329988277324	4.293459404595848	0.446653573577432	7.341728191913137	7.919248560938437	6.733426077054909	5.691565022403862	2.7360708644452347	8.205838182712426	5.9141726344516945	6.634556276736904	5.743049607082225	5.810100540750828	4.548540103872486
224	-4.943896757995155	-5.625236020190955	-5.390162454347691	-0.030669933107547207	-0.025781443277474603	-1.0013393138399642	-1.0891547175565452	-2.0790626950224778	1.5142643413459174	1.8949588489373075	1.522979374855103	1.8996087264737855	-1.5900267322450288	3.744684925161668	4.485148418546694	3.563480606618921	2.3044304789536008	-0.0050306613430028705	4.821013915287827	6.214910491511008	4.938875185894797	3.8845417401466986	0.9190053320570234	7.377879600971033	7.901079157908138	6.5469932390856656	5.525881753321439	3.1261253278006516	8.356984117389413	5.86190317581291	6.585039599005476	5.8744106144409995	5.764097199192171	4.565525520241955
228	-5.117675768329111	-6.017450317449	-5.582233891698451	-0.3258446744798268	-0.5543735609363093	-1.6545559126088418	-1.6539173084463306	-2.3661799371106866	1.2680250374250703	1.352182027263864	0.7827211002615206	1.2008820741851662	-1.8369923783652748	3.581582537191504	4.033423413583675	2.93886112424818	1.743836994536749	0.1319944855218485	4.840975272354128	5.973032936274522	4.555777061404263	3.453650704247289	1.2574033705436234	7.320676785105935	7.829633216163473	6.375846846695503	5.227886663589185	3.396152010926273	8.430821397476429	5.763107762091398	6.4094762640300305	5.950720772024214	5.6614136552924865	4.487091053124309
232	-5.31945322601059	-6.306623442939611	-5.6844544267186885	-0.6147253497815859	-1.0434524986625329	-2.2442476692758357	-2.213950389994419	-2.644561999319827	1.0104008887529992	0.8574623443889182	0.09524045860563318	0.5305144773440513	-2.074742311961486	3.3770663652988	3.628171434778957	2.3761296212286327	1.2459241120353133	0.3453601291996895	4.690311896880025	5.71200512397579	4.223717678850298	3.056767694385065	1.2785954443121401	7.16646049597503	7.678801994010105	6.228979094991113	4.856099116462673	3.3930494699642573	8.385166147042382	5.587760434348072	6.0832338179543	5.9260578005899	5.473920808323233	4.265360821445355
236	-5.550456986718865	-6.44360588354225	-5.716520771852573	-0.8932360984184712	-1.48041724784922	-2.7312629153912114	-2.694195740573298	-2.891897432655326	0.7444190364162685	0.40011450547288596	-0.49994343392987234	-0.042879454683285655	-2.263353580482481	3.1414799610931836	3.250572673220095	1.886505002980868	0.8497128465180114	0.42133465302902096	4.350109566195984	5.415231691039768	3.927821626283155	2.724738352571991	0.9290267205624531	6.932157498977477	7.429392795878817	6.079182609468434	4.460060585205494	3.056777469546783	8.202033975873887	5.317811952516198	5.603968606151632	5.779713616083895	5.189573751698611	3.8923034569697537
240	-5.727157101476598	-6.3780278998516176	-5.67578123567003	-1.139228341087348	-1.8232270433170212	-3.0530202311682078	-2.9906420632196182	-3.052713624876257	0.47733324645644	-0.006250659919394973	-0.9361828541961189	-0.43767127284174834	-2.3410620630285957	2.8750266956221147	2.8893086837299773	1.5119839868518579	0.5951225742573476	0.24496374962471293	3.892335166640694	5.094459043991975	3.6781916525481755	2.491171830563423	0.35481068402354643	6.666428072310733	7.103938561623606	5.9112567752366445	4.095673073918452	2.4797809061384473	7.9178085127242985	4.982559668358967	5.034226404831304	5.544554696389529	4.8445534583802505	3.431970349230005
244	-5.713608727334779	-6.070837005546633	-5.530386433943611	-1.301870700410297	-1.9902116010008946	-3.1226706425981923	-2.997273675980585	-3.0480439585977637	0.23843198954465405	-0.29605129286406884	-1.1180744142913912	-0.563416419990932	-2.237739557338532	2.5882804328420512	2.58086776081792	1.3376232351863635	0.540628193444005	-0.09492994075887917	3.4649734409588144	4.811378466856343	3.535333147659835	2.4124824939853613	-0.14034199679227696	6.443958266201273	6.779189569523596	5.760794625042794	3.836704959719379	1.884544010172709	7.623889903847232	4.666866767544686	4.508906829894181	5.305876718476507	4.527977455151208	3.0129487438426206
248	-5.396646009171409	-5.520863519081179	-5.239390360001791	-1.314608212966639	-1.891489381782981	-2.866373770152628	-2.654865258189688	-2.8112277913642463	0.08217558243985021	-0.36870601680172704	-0.9598792171085508	-0.35101303369591536	-1.9054754924349253	2.319286340579912	2.4124808250553116	1.45827543367325	0.7493676524316064	-0.336896150453664	3.2301161207662497	4.6618595005590375	3.590550890440346	2.5563795502016458	-0.24213647781273642	6.338454707355094	6.561149580602659	5.710397229082389	3.763092508351888	1.5225008687680543	7.430063705758715	4.479243267194416	4.190155018717751	5.165054308248554	4.348123062599925	2.7757549215807598
252	-4.7638020395167455	-4.791458594622701	-4.790169226950175	-1.1293783159352149	-1.4878700934038285	-2.2816052379223617	-1.9969930598384482	-2.3325214327095822	0.06874649209308677	-0.14605489336331776	-0.4468831706685272	0.20160335251452952	-1.3518779243669876	2.130007500039118	2.4792578157772187	1.913683648046221	1.246491309833564	-0.20042985627115442	3.283482304866132	4.72692917584031	3.907878627447398	2.9604356214166097	0.20076699504231402	6.385854704946603	6.532467825609155	5.8405718655945495	3.925064315422807	1.5471824368514913	7.407439213170572	4.494499672032606	4.188971508894078	5.185701357146621	4.375872124114339	2.8018679548095085
256	-3.937198867394123	-4.014805783625797	-4.2288842094463845	-0.7527527194091439	-0.8409797528015044	-1.4784775935038361	-1.1637546986761818	-1.6853934483891386	0.23180831910258357	0.3640055051196402	0.3187893323002216	0.9957898234021627	-0.6566538794151063	2.0819296784289354	2.819372170005793	2.631553404839731	1.9751776406964443	0.4286613751556033	3.6000461487476714	5.017768370357476	4.462180126368356	3.586378326898024	1.0759118768230733	6.55796001685949	6.701241476306089	6.164756759337829	4.30216072903677	1.931362743269835	7.542862396269824	4.703777301356526	4.496822822661506	5.353038774326673	4.597377765492347	3.0636084002393753
260	-3.1362774292917437	-3.3579652224637253	-3.6587417033327556	-0.25871449643619465	-0.11573866725549074	-0.6673141105016257	-0.3648975780334188	-1.012804148024275	0.5538978562675579	1.04185592865161	1.1259175510590038	1.8402086449892348	0.04463712859804885	2.204867118990741	3.3698644552980626	3.421398154203597	2.7862021852720344	1.397311922360188	4.037668694792439	5.4506387572955886	5.116987692311561	4.304954041102471	2.043472284879791	6.763428194136144	6.983342153084088	6.593523485702807	4.787305819822395	2.475972884602651	7.733373145605725	5.003194319490952	4.970804678764622	5.571117863894485	4.905554759038004	3.425563326769985
264	-2.583363764916232	-2.9594945832872717	-3.2020721354702326	0.232431873092327	0.47568285345142103	-0.08667070396714019	0.19680137882612997	-0.474818496697393	0.9634598469251027	1.6902729230167117	1.7242630676605093	2.510069602351038	0.6062559470128994	2.4744524893275592	3.97356318424262	4.035188187901729	3.4784626872931654	2.3404326379813565	4.3985323794892555	5.871044620949743	5.665339455606061	4.930999743409798	2.7007226875783035	6.8802442376949715	7.232717018940073	6.95847318799795	5.21644161814689	2.9094927237485972	7.828854064248936	5.233799444335975	5.389603124362531	5.703547940159252	5.141451345814249	3.703780164904225
268	-2.4017546116271924	-2.866425268565584	-2.9446945116083296	0.600274680529435	0.7626105527697228	0.09635976677646366	0.4054640819326157	-0.1828691358717654	1.357609745412697	2.1145961231249033	1.9269797753319873	2.8337407040576506	0.9264206266855184	2.8134024072187414	4.438276756525141	4.269939888664018	3.875535239925297	2.8644559311071776	4.518366802251888	6.117212756924907	5.91734503205721	5.2954316005524396	2.786299936889219	6.805784685118071	7.304999333058115	7.088379842027877	5.433547483077265	3.0240602416935953	7.7021617694943405	5.254182325449064	5.5547160962051825	5.6366963244222745	5.166031824420402	3.7517955208468408
272	-2.557143920164316	-3.0051126404230737	-2.8924906180786327	0.7734866718790736	0.6923128348991118	-0.13665993477173471	0.2777383618495135	-0.1528862263872614	1.6405416685646343	2.2082824651277475	1.6952304797287436	2.7666497160678594	0.9847394799165733	3.1175432126489797	4.62008618142012	4.061735142943347	3.901656617804293	2.7581219603520855	4.337210167424841	6.0917701567388995	5.790697083158215	5.319791780392059	2.3138511122458563	6.50141857413115	7.122988206045725	6.898879987464815	5.361496911817525	2.7760913301950225	7.311326962131494	5.009124266375394	5.385348306410627	5.332848535425012	4.926362025220823	3.5292761236730525
276	-2.873011104959479	-3.206528655539547	-2.965934984348282	0.7574154715488609	0.3530287435678403	-0.6434583647694667	-0.04909535112502572	-0.3022007338523424	1.7601497128869819	1.9995078990044621	1.1599565715113935	2.412703269589052	0.845557866345854	3.297234765311147	4.48809527217695	3.521205416372262	3.6163368133793927	2.1123127883986124	3.9177868267326845	5.805128082877641	5.355751024075685	5.053606497403224	1.5630717238063088	6.011390670857854	6.711068613274686	6.445540888725353	5.04169081368697	2.2994739951251724	6.722089273647253	4.5586156729998795	4.95691822707849	4.8469920036011445	4.482089031347387	3.1183061521001783
280	-3.1140887658650986	-3.280012599293227	-3.0374007148349627	0.6260434969354749	-0.06947540474278528	-1.1836197346367696	-0.38119429253656983	-0.4922906147925471	1.7253931717225974	1.6340440470447846	0.5662904963501001	1.977963323367634	0.6262881143970155	3.314550391411838	4.1366386309134136	2.889116756774285	3.1873078265780657	1.2756620613315701	3.405411950096619	5.368769155298921	4.808581816930543	4.6529021145648075	0.9336686706811959	5.446156011182639	6.181584342608332	5.907657608375614	4.618978011867254	1.8277194453824002	6.078527435214717	4.050292958523993	4.461408603848331	4.299280155771338	3.97705744692911	2.6782755784125647
284	-3.0914266031415534	-3.097452155875974	-2.9891590996613506	0.48573034879119636	-0.37730637097465436	-1.523845430341503	-0.550431667368686	-0.5929400309851175	1.5989999730747295	1.30579673914245	0.16765180187812675	1.6786068635521472	0.44791954642694265	3.1991617598824877	3.7404243851638803	2.4327304301830193	2.815258734270939	0.6737350804484881	2.9546875879075625	4.943888651763486	4.384756077186391	4.3102955709351765	0.7438003998097066	4.93752716725196	5.682947621302572	5.508970723548462	4.277087200810279	1.5710754354865408	5.537219033566252	3.649119606341668	4.11038969909492	3.818428745165913	3.5706016927215476	2.3641536176120184
288	-2.734435551415306	-2.644045346260218	-2.7596306731168307	0.43120807300416925	-0.442632733658003	-1.5328936538141418	-0.47498810171367317	-0.5341147170886847	1.4706028662745725	1.1723093956913264	0.12103581397969226	1.6483873087273213	0.392559855185258	3.0341172141718658	3.4763965518918876	2.3327512682192557	2.6477029256729807	0.5939264282490151	2.6630842618463046	4.671725261337352	4.2563319098775745	4.170532216032918	1.079710719243597	4.585630882129671	5.335607515215409	5.414266095796845	4.153707016948201	1.614751334881885	5.196996675721618	3.4585971744954205	4.030386437730747	3.4840044887318102	3.3619131957051005	2.2501769009045427
292	-2.104611868313075	-2.0149815031676654	-2.359266275171355	0.514553187978527	-0.24787145790461076	-1.2223870723379637	-0.17462883845585597	-0.3230195037315733	1.4242398702902483	1.296873804632813	0.4316779662200697	1.8896398496602704	0.48414155718639723	2.920845739619592	3.453035107477603	2.6146933966425525	2.7242195537451757	1.0521819564957176	2.5452413494698796	4.621485221638756	4.463644016440343	4.273852337537197	1.7734968617485471	4.423562515534459	5.1889939177157	5.656558022522763	4.279937256497664	1.8906677913614713	5.061710344886426	3.476790419383569	4.206723679412002	3.2992947018293832	3.3488588248579325	2.3008096160019273
296	-1.3536033596195893	-1.363343473807034	-1.8526290608361722	0.7366934996125009	0.12947235968802917	-0.7198240142768269	0.2576202445678484	-0.023889219328051263	1.5111987552635695	1.640019412668431	0.9687656735756778	2.288754218998673	0.6938883644704819	2.9369187280891436	3.6772735026023735	3.1538913170341383	2.976276628609281	1.8091795398811132	2.5519442493858175	4.775751101833989	4.912080752368696	4.551887977551777	2.509784215312574	4.412328708952714	5.215250955765862	6.129835590144991	4.572539794821414	2.229710573288979	5.05050371802263	3.606492987110301	4.501948822099248	3.20331358100848	3.4390501889185514	2.400262588162942
300	-0.6530440433226884	-0.8272295573329854	-1.32161414289585	1.0587929460496441	0.5705408439536573	-0.19507484088760269	0.7064021211909018	0.2832065813543691	1.7358879999202825	2.0951020664724607	1.537937398842301	2.683743470091875	0.9624948477286255	3.104743234425071	4.068059434156628	3.745378723225102	3.2763969815502807	2.5177848275512855	2.614406579092617	5.053304182645686	5.429756627679121	4.873734461877132	2.9950246735295982	4.465841282059795	5.335800634263994	6.6478695701603225	4.881206976964467	2.458739751330121	5.046240793839057	3.711481084989763	4.734788405861971	3.111194125903535	3.504316559527085	2.420158380120156
304	-0.13460220362534916	-0.4768347430111196	-0.8347769358539692	1.4227057659468927	0.9729167198412899	0.21702785735172317	1.0798660489474894	0.5396665321076268	2.058513874578753	2.5426917011914045	1.9705029676278025	2.9461493417743343	1.226598498108581	3.386947861703295	4.503120887831152	4.199869622117296	3.507917156899586	2.9091563151343345	2.686854355704138	5.3534216745637435	5.852897152428666	5.115984903770391	3.0957202833217528	4.495157230472108	5.4638967376087955	7.036298734066108	5.0675082078783795	2.4887854990112204	4.9572830075035945	3.6899161245644727	4.777111995080065	2.9628968164024614	3.4506726177832503	2.2900941314098406
308	0.13982039654716444	-0.30277383251041085	-0.43529149780045445	1.7699050858634504	1.2854045597047998	0.463066934370114	1.3341720070532923	0.7254640441698137	2.410458558672478	2.896756880122305	2.1888377611210545	3.037411443670995	1.4395533763779893	3.7059771921050992	4.872519480801098	4.420927036567725	3.620644560255724	2.918643944047148	2.763576262172421	5.598080144099849	6.096420272693956	5.221755491424489	2.8798501418837406	4.451072204796058	5.541511521653559	7.2105011757954784	5.074637400212675	2.350122207430159	4.760995852847805	3.5257410914096385	4.618219363950469	2.7540771891678393	3.2663302339102915	2.0338420816570344
312	0.1752627040491195	-0.24501432416567717	-0.1478441055856681	2.0515322633445487	1.5068575105769593	0.5691125974591554	1.4716099463501549	0.8510233738393791	2.7148783138395607	3.123096696597971	2.2208180371481006	3.013030998252203	1.581142659963687	3.975736608004222	5.113719450437488	4.429741848252012	3.645503273342986	2.6888904503645246	2.863618366640908	5.753612503784072	6.177602752347388	5.2204232084078335	2.5520272190511353	4.343925465106861	5.554681287092722	7.20250652402123	4.953324305426187	2.161947483326397	4.508894908965256	3.292991629869589	4.365214813655406	2.5345711644077076	3.0242710037169886	1.753469462736001
316	0.022312719318560895	-0.23965665637543965	0.008934103861246446	2.232296461191386	1.6597922998484287	0.6019331201614784	1.522228713960697	0.9352336502304673	2.909242622659751	3.2311649240930693	2.165115827816079	2.97894643985132	1.6571556287888016	4.135125626614255	5.218768583473046	4.333859909559765	3.665731420798629	2.4574618277493627	2.999628774699004	5.828987106865253	6.188415034882346	5.202541338183205	2.3296039045644825	4.2331094634945545	5.526908860557615	7.129776936649923	4.832367407995978	2.0618395753302443	4.2956395040776485	3.1141545693927646	4.184121598170239	2.379903072070546	2.8417019772309096	1.5746408661187132
320	-0.2432823771056502	-0.25213107403040713	0.021197764149433175	2.294879192280328	1.7637033417995185	0.6243974550695135	1.5254009923569236	0.9882656906925826	2.964658491278995	3.2548253454047926	2.1337623542319086	3.029719345072862	1.6928898053343235	4.169477929078793	5.220594392947196	4.26486252661629	3.7661950493139034	2.4099574028204716	3.1564340511738367	5.860350594029721	6.23975799892508	5.268324361851348	2.3351054132633613	4.195303429501871	5.50161360305312	7.129909497379568	4.852055060534163	2.137242788640846	4.212302197311737	3.097743026541744	4.216679562412989	2.353466743249352	2.8206779885602353	1.585025664142421
324	-0.5344915376520034	-0.28218403387350655	-0.10861037644144525	2.244217151697788	1.8231717302068093	0.6675734503103886	1.5170645675503953	1.0075558398557631	2.8934829162023483	3.233735314787874	2.200295442748011	3.200592509772064	1.7231402353650653	4.109163273927118	5.1696710456026205	4.316843975612247	3.9870266813704927	2.5863585406807656	3.2925097859224413	5.891585811998955	6.407286150967933	5.4762487273237035	2.556739323836602	4.285843361524257	5.523100362184662	7.296274166759343	5.0948047509308	2.3928947388315684	4.307167996022419	3.287590972229416	4.515285480543359	2.477975600662048	3.0005552692950537	1.7971847011967976
328	-0.7637935857562379	-0.3421412101690439	-0.34612229379050813	2.1100523418558574	1.8348389817642665	0.7302278857868144	1.5244597158090072	0.9874423121317342	2.7439467837673908	3.202799073716078	2.3758132397749634	3.4569744976501524	1.7796291067968464	4.011179437046818	5.113840567075366	4.513104904224402	4.3046426664389505	2.8822243140884396	3.364421120732338	5.959424480650921	6.703414900067692	5.8166489454278985	2.883500568739148	4.512370575002623	5.623347268212081	7.644091110003504	5.54719542056499	2.764116995508458	4.570718276881676	3.647201767296217	5.025048243233383	2.7287414005049992	3.3442408954109735	2.1508939211899984
332	-0.8629913904336135	-0.4329864967858425	-0.6244629605739563	1.939841742386306	1.7993928148615719	0.793875513456625	1.5606026610073669	0.9302449798939414	2.5808472568201686	3.1853687682791283	2.614364379004223	3.7187607194470913	1.8772634220410662	3.9326178928268316	5.0845007768052035	4.8073348877649895	4.6450886609102175	3.131614677152027	3.357943049535925	6.083532794851738	7.081108552220797	6.219159587417028	3.1836457172123116	4.832147109229445	5.814051136596567	8.116001108659457	6.10999487287941	3.1603684345562373	4.947939383412195	4.084496487795548	5.616919026498574	3.0493144912025882	3.7626888656984883	2.550375931976447
336	-0.8073596933961831	-0.5340237007963425	-0.86412572642547	1.7833766892229925	1.7292056040020956	0.840645966791605	1.6200036961662314	0.8512033798661464	2.4594159064187457	3.188984147603496	2.8407473492425974	3.903874149002918	2.0067377039788843	3.9058470627400026	5.0914807191093585	5.112785326446927	4.920628058407908	3.219122401693054	3.305421820878245	6.261513217376013	7.460724334953765	6.587230665741888	3.3778738890241784	5.173241125397074	6.082645400902562	8.615557648841069	6.647750360871073	3.5110831172034827	5.366213784974562	4.498385418024993	6.148759826394819	3.3775741968710045	4.159636010158329	2.912009708681818
340	-0.6310787781040975	-0.611510513669097	-1.0047627662086402	1.6737066465082446	1.644053216598066	0.8620860554864058	1.6775841670596732	0.7734568099521165	2.403261893880467	3.2017004409063516	2.9843091889375115	3.9656591315282004	2.1382930224791368	3.926550378422595	5.1229400505423826	5.340853677616715	5.069281088428102	3.148872605956721	3.2766766465428607	6.466718657379159	7.76184652276162	6.839814168827321	3.469525328459529	5.466849790122092	6.390716536599367	9.045964218188967	7.048667413081511	3.7893299960786133	5.761525139567317	4.819936740150165	6.520840151535729	3.667521944323161	4.470351684727851	3.1949870505729594
344	-0.42256763470773173	-0.6419132931715	-1.0344446871389497	1.6123578507723273	1.5567972620759345	0.8548867680900315	1.6932760434314928	0.7152037006440828	2.3957173763824255	3.1915597835070275	3.002719394732095	3.9057717224691966	2.2347431126439488	3.9584786791995277	5.148323522920922	5.430037484764594	5.0772991052230445	3.029934637049247	3.3436047946435363	6.649627668758179	7.924526671429261	6.939098817471915	3.5223576933621508	5.672920689565191	6.676625711750318	9.335086798940937	7.263056736728463	4.00513123454744	6.091311439393866	5.029275881467338	6.701296789416301	3.8978137871560365	4.6769780994588555	3.4023528013158906
348	-0.2927112571955454	-0.6313185079847788	-0.9955453251499113	1.5683102568131022	1.4614738189038223	0.8121287802219108	1.6244254071230853	0.6785192472493059	2.389193290400362	3.1148719708954697	2.889724247312302	3.7605135345882577	2.267883295055395	3.951266755618493	5.125390993529359	5.356845842188155	4.97506998713398	2.9996788426004892	3.534530869143184	6.745213968413087	7.91447923569413	6.891987783197548	3.608373394438927	5.784382805525232	6.8645286386745905	9.439166045199158	7.3010973746023895	4.178234566629927	6.330266936532261	5.141751753223159	6.713819486833415	4.06413411068021	4.794675338083818	3.5556733518473727
352	-0.3249372235677349	-0.6153653844555681	-0.96113550420331	1.4938954077196707	1.3343987431214455	0.7203478198937905	1.4440559112329545	0.6483050568424962	2.32960271247159	2.933989994270854	2.66905831616777	3.573801270045012	2.231289142697225	3.8649639985732027	5.012429224710555	5.13111446992482	4.812612521418657	3.134024850562079	3.804576148917928	6.68866728047602	7.718579272809824	6.729703886207373	3.760256042523478	5.811776146520524	6.882046682148428	9.334399199760544	7.198454838698207	4.311214912973871	6.458900435353001	5.177983747760588	6.602234346886869	4.164937962507003	4.842943179301064	3.663048734953351
356	-0.5342779146056678	-0.6410831196811644	-0.9953059528970977	1.3494785990022569	1.1475335330600929	0.5648623094602429	1.154270407623467	0.6003826245408508	2.184249633996408	2.6375114851164363	2.37949561471989	3.372399560043249	2.1409985965079503	3.6912541296270125	4.783537852607786	4.782902705514664	4.628466117617225	3.3990518960965637	4.039559354119941	6.436863406142281	7.3396105580989035	6.479900820584403	3.9499931235721477	5.760218605757139	6.683159334475522	9.010033584734762	6.9754056754429925	4.37909125176124	6.4563150242877505	5.139967905418825	6.397295935691642	4.191406716254874	4.823122012358921	3.703836431688751
360	-0.8585701563139166	-0.7415771465651977	-1.1193915577283124	1.1243989439232505	0.8871737696183168	0.34057235631787186	0.7877122143884762	0.5144917355899188	1.9591010759482155	2.2518708649047827	2.0595395513034584	3.157663575783159	2.024522537842063	3.460824004018607	4.441382396928677	4.350637901765939	4.43078612162584	3.672361364629546	4.098352898740789	5.988566383500928	6.79746769142569	6.150609954563976	4.102688779009382	5.616167531139143	6.268692477611793	8.47288511044396	6.618807775952691	4.341839302544989	6.3055186112468435	5.009718882310172	6.1060323561047465	4.129643429820234	4.717535483847424	3.6411929038622914
364	-1.1865866154276188	-0.9170767641755401	-1.3032062020777626	0.8453692772502608	0.5676554427120104	0.061274599129230146	0.39795601267476205	0.386580823875967	1.6991100268380892	1.8370861960759146	1.7379822687138233	2.9168543741969297	1.9064452600029727	3.235746852334675	4.02276801047337	3.875204553356918	4.202249516367879	3.8136637114560195	3.8788854977903737	5.395168290821869	6.135914310222417	5.736596092999397	4.134850491574666	5.356669412440065	5.695584759637365	7.761409263088652	6.101381763312533	4.171861161189475	6.009479030695444	4.770476806040421	5.726249680366828	3.974196423987115	4.510206211147004	3.454138747077478
368	-1.4106779062894548	-1.1337360115037416	-1.4853562079121285	0.5661362991344555	0.2305891657014258	-0.239710389962569	0.04210264970163102	0.23279711545342727	1.4690022431478154	1.465938922041963	1.4321984016498548	2.6436607770930984	1.7998675062513647	3.085275642234842	3.5916626362718893	3.3992757711417747	3.923864593135797	3.743407716836646	3.3752691660540703	4.754525649464482	5.427224145538299	5.242706285591564	3.9963874715995447	4.975903975321572	5.068508135396606	6.957151872235905	5.425166593205847	3.880477657057594	5.606946454197092	4.435251701601138	5.273709760702497	3.7434973622221617	4.213918198436807	3.168740026103094
372	-1.472909446812267	-1.337132927379679	-1.6074831445163242	0.3456934979770766	-0.06900396180612461	-0.5173998462011677	-0.23472854435785262	0.08510645457476537	1.3262625899208569	1.1971589296633163	1.1536345452746086	2.3550074041036164	1.70887457892983	3.0575587672285263	3.222387067288449	2.968831770077052	3.6037082581134254	3.4848148734801305	2.6998917988322324	4.188894261274645	4.767909514787137	4.709199416668764	3.6977078821284186	4.513655651140736	4.515532482190685	6.181949599870594	4.6602315785050425	3.5279705435371884	5.176373468681402	4.062675465816949	4.80167149285131	3.4863676936818986	3.884473314014669	2.865630142606288
376	-1.3832071984654402	-1.4724872075097442	-1.643194194459732	0.22642624321037214	-0.28095501590366334	-0.7264558058517274	-0.4059801985504227	-0.018824102309503626	1.2990992036445284	1.0576336357116898	0.9173832512582013	2.0945806450412823	1.6387554365745154	3.1582903782260345	2.9802734776592485	2.6332058840073116	3.2930343067951404	3.148188344636427	2.0562062211574554	3.813883533385396	4.262540329661705	4.220446575953283	3.3114404594738893	4.06647633479539	4.155724038122307	5.575340256919713	3.9484419723004294	3.2101402201666596	4.821587550387696	3.7476098442827017	4.398101795536485	3.274152747470864	3.611011257591447	2.655663245171926
380	-1.1999288767083247	-1.50094294169083	-1.6036860902351395	0.22069917563507177	-0.37530195618288575	-0.8313443639746656	-0.4619061637183663	-0.047405745714424165	1.3773372138534905	1.039970395323546	0.7484857421097364	1.9199402283832077	1.605826612232909	3.344571343560774	2.9044525549991156	2.4392993388578406	3.0764207762293663	2.8722925113638813	1.6647740560461781	3.705805292310001	3.9970753091985163	3.8851230046410805	2.949235670273012	3.765386333495633	4.066789139970382	5.254950986946147	3.460458985174924	3.0243463439877947	4.6396427037401295	3.5860440640509674	4.156743039126814	3.1771504798782466	3.4822759540376884	2.631090395960285
384	-0.9911773179778645	-1.4093650543869467	-1.5217283925737155	0.3097464434432767	-0.35025608451150136	-0.8150758126660999	-0.40647694365872666	0.01347112652238516	1.5190272292886042	1.113085624745576	0.6770747286868214	1.8763154697729516	1.6349408585278107	3.538836708670887	2.9963958187745496	2.4178774295796504	3.0347721500070044	2.7555627753304703	1.6717479186765811	3.87622283910569	4.009436597237985	3.7916617297763398	2.7212479045827567	3.7236764336985964	4.26090906974761	5.2741584644672335	3.3213894283360994	3.0285260600874713	4.682485568622196	3.630532732380417	4.135031212857169	3.2342905916571993	3.5444593340076436	2.8160877156683823
388	-0.8060182908688995	-1.2160876958661362	-1.4306685888409119	0.45168301349088136	-0.23276129306200768	-0.6873363239100894	-0.25924071604126564	0.15074890813914046	1.666481013858946	1.2368608681922288	0.7212401014238253	1.9687561939124252	1.7409568981084738	3.655873527833405	3.2169566073259634	2.565904610831284	3.197220078979187	2.8105795312493056	2.080424780361446	4.262544621196117	4.269147385309085	3.9594840903450605	2.6901655129223405	3.979287852730974	4.676682937258673	5.595096097171348	3.5443067461174036	3.2105095305447553	4.929786192845234	3.8594217202974006	4.32054280143909	3.430634489934672	3.773184051524041	3.1439199368255486
392	-0.669015942314956	-0.9727554296729348	-1.3531914915252314	0.5928691610626585	-0.07481141369528224	-0.4905242609514104	-0.06183953567627527	0.3204503647343061	1.7640274718569888	1.3703895772667225	0.8654381014908211	2.1481761878136814	1.9054139804416725	3.633853187923181	3.491937390094228	2.8340976166696645	3.5090715796566814	2.9630572721057917	2.7389900615203837	4.739585387661383	4.677534091583916	4.314217079714338	2.83977126358222	4.462934005913572	5.191272722489	6.09238193881133	4.011589993838994	3.4838790805595194	5.28858278846646	4.178974617897589	4.626577365638351	3.696274509634479	4.077198495107675	3.477532854837017
396	-0.598513542094703	-0.7620537857842816	-1.3077062335376535	0.6801083666796505	0.05694159105944904	-0.29728019162462277	0.12018766223842163	0.45435792093003546	1.772244091327821	1.4751310311267263	1.0507757637197268	2.322133773662933	2.0672454781791445	3.4570255192259514	3.7295508290542485	3.1324291150161816	3.83949517234356	3.0922121923577097	3.3970117483203426	5.154913412430651	5.095781790265491	4.707474696671897	3.078151456690695	5.015654551240498	5.65485666754659	6.5936732125701045	4.520786750823659	3.7191259767093525	5.62694500456164	4.462966907677404	4.926117407759282	3.9330606361271054	4.337369907872436	3.67054604557285
400	-0.6287952049592281	-0.6843646747476702	-1.3230020966505855	0.6696782691260279	0.09498438215116344	-0.1968923504149887	0.20625911600966418	0.4765271234402105	1.6735371308989315	1.5141360721506847	1.1853315800303967	2.386111015017519	2.1363260692065147	3.15930174983603	3.844847431012298	3.354273787612816	4.028560628256597	3.084327928385306	3.8050525092377705	5.376810060277399	5.390678868988721	4.974119173842923	3.27231001027764	5.449515805790856	5.936704143794222	6.9406018081907765	4.874397742362518	3.79580592150782	5.826559052061813	4.60853861598907	5.105889307482403	4.055565346968934	4.45987843341152	3.636739721653076
404	-0.8123548010343284	-0.8299516418483601	-1.4438909255766328	0.5363013134767494	-0.010666177581143249	-0.2686276429069855	0.12420715360276603	0.32817631877058606	1.47344922647399	1.4562709294745144	1.1765142649510347	2.264914983753075	2.0303256460427437	2.8116075921597963	3.786979665731764	3.41366218658702	3.9553954501423707	2.878428213481569	3.814792623425215	5.340041623938345	5.481988416182503	5.002274023777943	3.302675715691086	5.626089081864826	5.968762382696437	7.046608907074745	4.96792076763909	3.654274454427408	5.8327202649674	4.5822830084503785	5.115593897301652	4.029468526203523	4.418551910688711	3.393950215353829
408	-1.1937561005016806	-1.2414259879240503	-1.714817161998933	0.28113067079137294	-0.2728238694932233	-0.5477567301272096	-0.15856289823553144	-0.006718305853928526	1.1988669603596875	1.2880955902003248	0.9746117567251329	1.9465815971819116	1.7189592079632068	2.4973428186307287	3.5595638662113296	3.281745187103184	3.5955202488720133	2.485498660488025	3.4353580388119065	5.071783052990877	5.372179017808622	4.781627642956847	3.1155824582593987	5.515727982900297	5.7704448554261445	6.927398664150624	4.828912722793519	3.324273339461631	5.678650841680851	4.4339375383964486	4.988405691903777	3.88902901621264	4.265695084292411	3.059459440136325
412	-1.76804279834679	-1.8815059614361775	-2.146337980573449	-0.06355708821462533	-0.6543638689686175	-0.999491450647303	-0.6119289382743639	-0.4870388495546469	0.8934688545557314	1.0278426382817167	0.6052393897988217	1.491985794115178	1.2513892619009706	2.2849929275042626	3.224212638344021	3.0034799499975087	3.0361633224125493	1.9790822217565325	2.820763819248495	4.683281409837228	5.142742143998246	4.4031839259557835	2.7476882865197854	5.206991182532322	5.441598401636041	6.688574297230405	4.586091983660489	2.913403742110305	5.470126138227833	4.269547928520965	4.820093619574818	3.7229850198209475	4.104782570965766	2.795794718359388
416	-2.4508976874461115	-2.6237738066232885	-2.684299462216936	-0.43761676439423886	-1.0710811587948035	-1.5166403016899552	-1.1420632571949976	-1.0201123927110238	0.6085383280648763	0.7299689036059193	0.1706612403852381	1.0140640710023565	0.7478098850443345	2.20559024253933	2.881059162495312	2.6826014451008615	2.4389553008490656	1.4662812911206884	2.194422239485251	4.325700272129194	4.915558802591849	4.009395112405326	2.3085322321781083	4.8596143599840715	5.121536241952176	6.473146899092666	4.38576363409913	2.5573832924171294	5.333942399863168	4.196083058253565	4.715023505704353	3.632562866576341	4.037123669921988	2.7311499049850023
420	-3.0840544622757666	-3.2793395436461226	-3.2052235522408403	-0.7657228092888122	-1.4138791525429693	-1.949106211509644	-1.6169587332909237	-1.4871967993381456	0.39079561730900547	0.4719609904294305	-0.1863250727717619	0.6349264963332135	0.35631695299786237	2.2443396988471367	2.6308133535720684	2.4381110606625986	1.967552180091002	1.054161069115843	1.748628611918145	4.126283635212018	4.7956538079299795	3.720929613255702	1.9281820010140716	4.624454963452547	4.928729521705324	6.3927512007482825	4.303658951384062	2.3549740255026266	5.353718744112554	4.266156662660387	4.727067935452996	3.6812496092360116	4.110056866759335	2.89490484460452
424	-3.484581700110358	-3.657827844921367	-3.5524997621489645	-0.9770994161731978	-1.5852837522536467	-2.1587769930695093	-1.9113441657446935	-1.7819942190955627	0.2706308656058615	0.32633775390248626	-0.3427225938727152	0.43907725700148287	0.19349688242696417	2.3492605626874616	2.535073750771185	2.3511381089931462	1.7159246162960637	0.822266874621516	1.5682357510073213	4.13342617898671	4.822287070497015	3.5790300278900875	1.697295065409261	4.5717029456108795	4.908694254879688	6.475582583290618	4.303388107878886	2.319287294254226	5.5254225591392485	4.451451290335873	4.827352511615818	3.8617031476750636	4.29341458190309	3.2014708438152564
428	-3.518773546871566	-3.6402234939221123	-3.6023735909109846	-1.026739833146867	-1.5358836612071054	-2.0764532036807997	-1.9518526743246702	-1.8474553776827305	0.25457209284405313	0.33097129976633705	-0.2503609650966591	0.4444424796804266	0.2951695315538103	2.453647130493369	2.5938837462739492	2.429590695922758	1.6744031863853313	0.80012047088791	1.6115398366294953	4.298378456707452	4.953995692143242	3.5351591020975306	1.6274138647952887	4.663646686223471	5.016128050537398	6.657300455451454	4.265504349429611	2.3702471196413115	5.7566933486554435	4.658610332171245	4.91677569101651	4.0976347819823475	4.49615334329308	3.491387596852208
432	-3.162084809902856	-3.2292578138836507	-3.325144759366047	-0.9088075138035041	-1.2838419643413133	-1.732946153080176	-1.7417130426301852	-1.6939774708894388	0.32689204729517557	0.4740543353509794	0.04303979117732664	0.6041750296597548	0.6026918872875534	2.50516390167983	2.7526318957449747	2.609468215076155	1.750100727431091	0.9602735614373893	1.7517445043205564	4.504462230753791	5.096092688091855	3.4920189292480748	1.652755137085434	4.783885466895239	5.1416425575142055	6.820162755913069	4.068434228162029	2.3747141301280803	5.912213787410741	4.779255854937934	4.878456103405739	4.280806053797717	4.614270675453358	3.609633198207719
436	-2.515273087826792	-2.5522682602339986	-2.808171742025038	-0.6571246965029984	-0.9081354714353582	-1.2486300436919946	-1.3561363185975692	-1.3927755320670758	0.4591513562530925	0.7025298458482003	0.4176658381407466	0.8350865819827956	0.9902851556571189	2.488405459797092	2.934531204444048	2.791943781479462	1.8266506148949864	1.228209134815635	1.850857133960763	4.629125106568198	5.155415045119814	3.369306317405795	1.6704797702575416	4.804219710618314	5.169932829201813	6.85877321418961	3.6722476389676015	2.2140896264442627	5.882163032939493	4.746074664530985	4.641939151488238	4.323906887581719	4.583149421564646	3.4804170043811267
440	-1.7700657799853592	-1.8148363782838843	-2.225883239848325	-0.3332780293156431	-0.5166558610269597	-0.7829583863517724	-0.9112365818859027	-1.0483541462179062	0.6231049283508225	0.9509751772712597	0.7405711989778632	1.057588813018932	1.3197641339359822	2.4327499805064563	3.0825786512748543	2.8985958026182725	1.8294712258879262	1.503419633884284	1.8259271337185294	4.608966815756055	5.0947608819123555	3.1561777512019495	1.5952032764214124	4.654465663602608	5.041638838436857	6.73980758872703	3.1549525181270397	1.8464266015165047	5.640759930674221	4.567949760348139	4.226669300852123	4.204579819554134	4.4097094424493175	3.1424426953131652
444	-1.1373032302752528	-1.2240308492274292	-1.7660454467054094	-0.007320199143286233	-0.2035753572807833	-0.4666169273993286	-0.520860909100602	-0.7608993630271865	0.7996571639852407	1.1739100188180835	0.929321346320834	1.227104899169314	1.4968681297656932	2.3988208710187546	3.1869962134959664	2.9142467902038796	1.7609287455922293	1.6913667874548681	1.676478381692592	4.472292888793995	4.956542956235932	2.9199297354409963	1.4000155890403736	4.357586372817732	4.784978854496238	6.5230355098065536	2.6790299347949373	1.3325488533708671	5.262672887866593	4.325163830327569	3.741088142486423	3.976073493455642	4.167756546942026	2.7284851005331126
448	-0.7698667626017139	-0.9130700207545648	-1.5481625756277033	0.26194491916325285	-0.014331605249222288	-0.3475405267047131	-0.25846689874242285	-0.5939578398967323	0.9780759786707323	1.3633245195300434	0.9878419612739442	1.343039747662007	1.5031367502408943	2.4442300734797913	3.2826065934273028	2.893550865497221	1.6870014624918295	1.7321891740934396	1.4664220772912926	4.320392120897479	4.841104018386518	2.7656228472502615	1.1227314443852243	4.012919892669865	4.499033439721355	6.330677970161594	2.4067895351679476	0.8110473731544812	4.886380660117909	4.126559247088764	3.3359093581853045	3.7380895520246336	3.958553304214598	2.39992761006015
452	-0.7149838191100616	-0.9007714368012407	-1.57635438044239	0.43922695406645834	0.06462678296938616	-0.3782011558997634	-0.13988244498221897	-0.5602794275443232	1.147731778108115	1.5404242238253412	0.9953592394493923	1.4329714738906398	1.3905162776172135	2.587611430310781	3.417363873436805	2.9269390032303066	1.6855794148803684	1.6189748007907163	1.2784652677682793	4.2673663985276935	4.8507132407743665	2.770969145454537	0.8390294292247329	3.7403294945696373	4.298020828839703	6.281930430764406	2.4125690399293567	0.4358105350458481	4.643936622338908	4.053452958363427	3.135993949601908	3.5844955353836125	3.8598730466665003	2.271576875673511
456	-0.9127166844212283	-1.1019059391811508	-1.750467295995534	0.5146354423881093	0.08748953767383595	-0.4501904833871515	-0.13132569160683477	-0.6289106591558666	1.288089510526573	1.7275956825507768	1.0547152731015652	1.5242404899260769	1.245444890692529	2.787592642421844	3.610513678018118	3.084063045344593	1.7895904734251389	1.3970504963888632	1.1688034504944895	4.37103318064511	5.029506670651326	2.9360182211181503	0.6208189114155236	3.6161348728434035	4.246710766560801	6.427441580757133	2.6439151697163576	0.30766853612468564	4.594162929379857	4.11950444135096	3.1846091666880283	3.555863371454437	3.8897161385558756	2.363926643125287
460	-1.2327904670107943	-1.3763278688014122	-1.9268372010220445	0.49966323249549066	0.11483079911088653	-0.45530032996619985	-0.17364744798210693	-0.7463624458542635	1.3683294023299073	1.9213082741866385	1.2306181161327951	1.6219334561406074	1.1425249547722622	2.9531857892815934	3.828530301918363	3.367758027157018	1.959882492839248	1.1423470945127014	1.147673484765672	4.59519861968486	5.333537565116876	3.1770646491899868	0.50299239031637	3.636899700519249	4.3245067487252244	6.719600183687716	2.951243393122557	0.43339633832228336	4.695760238235898	4.26757668371393	3.4281141671413526	3.622959604652955	4.002802838709813	2.604482405762571
464	-1.531222101160281	-1.5915449817529144	-1.9952179143122295	0.41997709764304414	0.1810776586729193	-0.3416460147815002	-0.21109119004359933	-0.8613644816585767	1.358814236071277	2.083874458773757	1.511293526648523	1.7057887272683097	1.109773752271638	2.9841661377904116	3.9941348928698805	3.7045123483587976	2.1033651775661	0.9275217628903188	1.1901369064800564	4.8246488449356315	5.647670731590612	3.3680734549363733	0.472729532717224	3.7284967805187015	4.4380807764536145	7.033957463625242	3.1672661224508096	0.7283864598957727	4.8341426727314865	4.403110493033605	3.7457535172305034	3.708571186239175	4.119117249579476	2.871512167356452
468	-1.7016683773946792	-1.6715933042284241	-1.9308856676942572	0.30470925492602613	0.2760097675507467	-0.13946494424894382	-0.21537336652738626	-0.945027647016653	1.246062394810843	2.1573975031743107	1.8108869745310383	1.742575760256486	1.1188803882960092	2.8198435235354866	4.022033204414434	3.974598874547622	2.121990913755647	0.7867735604449232	1.258049723309936	4.92276333519695	5.8382568211973185	3.402351847641577	0.4789648639984021	3.7889869117441526	4.472822178038264	7.227827530732203	3.1874732890715443	1.056352493480122	4.884598242825046	4.4425158388508645	4.004755486867724	3.7323627377690727	4.1652340783815	3.0522503775782326
472	-1.7054020123339833	-1.615029092525837	-1.7968052580291156	0.1769923712314896	0.350222854922123	0.055482920119156384	-0.1968784327304688	-0.9995331142938958	1.0442298624377306	2.094287628608306	2.0104374834800414	1.7042170719988403	1.1024292679609573	2.4740636286260265	3.863203038952405	4.066261281237583	1.9623156736421257	0.702171741143294	1.3181990351774215	4.80120753029755	5.81390284024074	3.238983384537807	0.45491722111287325	3.7409841919861972	4.354637611838849	7.205045205045094	3.0066027565386966	1.2845495906823001	4.777572619773726	4.351173389893249	4.112880219565927	3.6535396483684726	4.106776703956337	3.086946956470124
476	-1.5740417202309438	-1.4809631071846947	-1.6985422329933924	0.04790998610678969	0.3405901781066147	0.13107396629142265	-0.19927364537472053	-1.0530441972848614	0.7940493802049958	1.8860900354449897	2.015385384239644	1.581389780820302	0.9897966359897733	2.035739178286156	3.533010473868092	3.9263040920310046	1.6391398865323459	0.6169912203470016	1.3481699194248724	4.464899051837565	5.56409023787463	2.9117810652650364	0.34254941257775756	3.566522350843419	4.088670243430762	6.955116254412676	2.6981372765130534	1.3285070624188524	4.531866539003693	4.153123368268034	4.045216550150579	3.4890465648299203	3.95733736946425	2.9813885613508915
480	-1.3844324315403498	-1.3514684404584145	-1.7174745754748897	-0.08304411151900198	0.2034118915428995	0.01611091378733918	-0.2769662134807202	-1.14219796369185	0.547851680326097	1.5734546144813886	1.8003125145281342	1.3867511714255476	0.745480595137038	1.6302841860618456	3.1075377385836647	3.5821099190871455	1.222494599116867	0.46927684427035954	1.3315345015286404	4.0087108510850324	5.157765852303821	2.5002918180281903	0.11020236434531237	3.307951441996126	3.754338254986539	6.54934118524673	2.3565492570507733	1.168763992219748	4.238259304790146	3.909233083391854	3.8359067343185624	3.2971174633705247	3.7612788582252414	2.7860438753359107
484	-1.2239246337507077	-1.293823119711621	-1.8628988218957536	-0.22221884075326714	-0.060918710972045716	-0.2841369204499969	-0.4672811019543839	-1.2920191255374038	0.3479129067220072	1.2317445247069165	1.4194349014684564	1.147482630693583	0.3899978985476681	1.361085292240775	2.691040032268277	3.1266062180734853	0.7984591702329247	0.23046082200038723	1.2541397778318315	3.570344200656768	4.706747996844631	2.0841524548362873	-0.23758743643380265	3.039488307908305	3.462068548998375	6.101212009284641	2.0414879270509387	0.8408088662853648	4.00653265895186	3.6806483175810354	3.5472204595652475	3.139744512260285	3.5648951440451593	2.561243289203038
488	-1.1572678059923642	-1.3360468115453241	-2.0680973477601237	-0.3705460121812978	-0.40098133581966594	-0.688697395970099	-0.7668071369838284	-1.4998580179493675	0.21302810257533017	0.9429899430308614	0.9825643276202767	0.8966013766539932	-0.0025915261292592945	1.265651699685396	2.3755035340414925	2.678845398815179	0.4322568763309891	-0.06958886218382879	1.1114761801314146	3.268809071870952	4.3184060941385765	1.7123014883678944	-0.6562002284648663	2.8306684422551047	3.29996585012786	5.7177662705066545	1.7594947770518434	0.4115398515801329	3.909746160172785	3.501662245492649	3.2387092031725326	3.05044721786904	3.3960735712139463	2.351181501174433
492	-1.201319095439556	-1.4590686522839182	-2.2272942009958854	-0.511144696375652	-0.7260746937539958	-1.0721336576095901	-1.1191434831973834	-1.7278752283340677	0.14118543231604166	0.7702888826949476	0.6136112793689018	0.6719081980907348	-0.32658657349147296	1.3096907105757951	2.2139201108349496	2.3435382783848926	0.15686805506678345	-0.34588947804860326	0.9247052646178583	3.161943666104384	4.063132275813355	1.4047464096842524	-1.0639502975304584	2.7222275665218114	3.3005821621532814	5.467257485891326	1.4912916384238764	-0.042475473028469504	3.9567258258103983	3.3754858885419265	2.9528484269930164	3.0251164359963485	3.2622024930607276	2.1773092691762845
496	-1.3167171445027572	-1.6050014455327217	-2.250261777918489	-0.6047072395316105	-0.9342747307077419	-1.3114979234008222	-1.4237382376010852	-1.9095891665883578	0.12556794254071374	0.7445424776352866	0.41030660168052135	0.5193365799189648	-0.48089730618178606	1.4217346870766636	2.2164649907418545	2.1852762643954273	-0.012912796777667677	-0.4926919924694512	0.7494229655418183	3.239590636657246	3.9664158720963583	1.177103278049218	-1.3593662942897928	2.7220427921234744	3.4405915650285515	5.372258649613841	1.237421151851703	-0.44913211351486937	4.102550496233852	3.2896032250319527	2.7178735664412517	3.0371487063974882	3.162214748028138	2.0471374936870657
500	-1.4207431042086838	-1.6967050986367636	-2.103853697233446	-0.5984659775882923	-0.9465768313350988	-1.3281879391515305	-1.5660279949704148	-1.969704384599118	0.17132545964377688	0.865925309855985	0.42052370203657685	0.4932463156644628	-0.4047388126168199	1.544991489324369	2.3643951356320385	2.2233061734333224	-0.05664593339565807	-0.43158885727635543	0.6648900492093756	3.448065510627357	4.021012296061299	1.0647640201388777	-1.4537697993767642	2.8171691823404563	3.666872015278171	5.422605023998448	1.0462392542173256	-0.7479875068853168	4.285293568282237	3.2367243685065232	2.5580720836904147	3.063780061615895	3.1008038442525216	1.9660320232344886
504	-1.4220291340211106	-1.665870543088698	-1.8213612987309726	-0.45161229258003394	-0.7387691121522738	-1.1121458979184198	-1.4636183940174263	-1.8545055342582533	0.29706758185724574	1.1092990608818452	0.6359239204563666	0.641385255624768	-0.1022437435787391	1.6720660882695888	2.623876565030622	2.437445634410006	0.05859676733719914	-0.1553872223745612	0.7414528112765102	3.7225489522408717	4.201282490613485	1.120380160364061	-1.3112221923147873	2.9867424889496785	3.925643434149982	5.589931950761046	0.9974866484253444	-0.8987433887678784	4.460661400023313	3.2230048098253414	2.4959382947847875	3.1013383787055178	3.090498201196876	1.9391745279943748
508	-1.2632276979977903	-1.479586597521727	-1.4778492413402005	-0.1650695051555586	-0.358233242322553	-0.7220548969158477	-1.1087368698737432	-1.5604443510712431	0.5176720010085251	1.427307125302646	0.9987558697279871	0.9760546659622126	0.35308211952710195	1.8400500966345326	2.950372926892455	2.7754201818965463	0.3567371359401456	0.2562408142772942	0.9987093781051797	4.007261742964912	4.467449653790354	1.3802014554462956	-0.9790693496780509	3.2048695006517685	4.1763453378138955	5.831786140976839	1.1485652894585499	-0.8948984123524151	4.6122784498114155	3.256537667635577	2.53984164550402	3.1576151768117238	3.1380348126338644	1.9609756420216686
512	-0.9498817896702605	-1.1549841136382057	-1.1476838559738367	0.20305129834407998	0.08498517402411486	-0.2631698840172616	-0.5831797704277896	-1.1449375123680998	0.8194119313532724	1.7520787671676128	1.4174369537806297	1.4484463893560249	0.8381952622232074	2.0893936104474444	3.2845222867055472	3.1591966072429116	0.8164128044496811	0.6596973521742986	1.3818100655954324	4.256819237452027	4.7616510271015215	1.8211231185710515	-0.5877633079948	3.4353744896938228	4.386633861910654	6.087692245372242	1.479632373888799	-0.7749162296757572	4.735553729498954	3.325588456340635	2.6659963063640992	3.2277312197255177	3.2251155295007985	2.0020878264424065
516	-0.5543466196369389	-0.7586468439021667	-0.8720777012741676	0.548779367015039	0.4526008654134603	0.1464821692583114	-0.03597669294333964	-0.7128055077675999	1.1457954616228305	2.001646275235025	1.7868740513510035	1.9448627184402185	1.2186384170282143	2.415342801671621	3.5513646512967276	3.4942774684422018	1.3468794788687433	0.9019462443467976	1.774495120336725	4.428030479695542	5.007449614280013	2.3401067197845475	-0.31020134609105393	3.6279125122027063	4.5206389313049895	6.279864772200286	1.8770936680131745	-0.6199783667170232	4.812789904841061	3.3858213339198846	2.8111319470956895	3.275200835541948	3.3007407105079833	2.0091776797112497
520	-0.1922480757151055	-0.3899204721143003	-0.6540696604427491	0.7598329763302023	0.627144037093829	0.40981092945582065	0.3694447269648858	-0.38169068001700607	1.4085485899648749	2.0981168693975882	2.0129613825520383	2.3165142477676968	1.3925120795378338	2.7471826007147877	3.675398817319631	3.688979616388126	1.8013855173406716	0.8828025437954603	2.0473039098548584	4.479271400586679	5.125276552611679	2.778291456837417	-0.29234388396839983	3.7265307809203936	4.538522708878245	6.330545409431949	2.17394279884787	-0.5318979011457954	4.804218280106843	3.3718523894055923	2.888615124085122	3.237852326801405	3.2970333016123146	1.9242407034928946
