time	FP1	FPZ	FP2	F7	F3	FZ	F4	F8	FT7	FC3	FCZ	FC4	FT8	T7	C3	CZ	C4	T8	TP7	CP3	CPZ	CP4	TP8	P7	P3	PZ	P4	P8	PO3	POZ	PO4	O1	OZ	O2
-200	1.1628239125457192	1.9638700435646539	1.0163470481007795	1.025721070560938	1.6697552161974814	2.4102187095825074	2.2611505928171445	1.950646157108173	1.7416932538881698	2.3652868211156273	2.6788930825308785	2.5816593104985386	1.6253596503229362	1.9012991141953477	3.2673783219813757	2.8860695289224814	2.86691378823293	1.741683359517162	1.0232334111128731	3.0508508605224396	3.3357140933695133	3.20348834182652	0.7695723752619116	0.9011855102674499	2.8339786457989935	2.8970220015815964	2.755892269805957	1.6387366015068139	2.0800616688663913	2.0097699114602428	2.0463817067932215	1.0321593258547415	1.372530576101649	1.922405595694183
-196	0.4651632297215718	1.1770442694510395	0.6498597843928922	0.5762943014853654	1.0230020258824393	1.5806055029063273	0.991478679061088	1.1753269404301068	1.1636968821708955	1.7260308222107945	1.9979556748491405	1.7618392661435194	0.8168504813551618	1.5688447912660985	2.534410947122956	2.0645096249908614	2.3047823847754665	0.9572337245615191	0.3605504026846684	2.5529310638822276	2.5195529397294387	2.6158378058193503	0.7031862121948098	0.5011153804524872	2.502733462690605	2.176419014204167	2.2522711696980835	1.4017827475442128	2.009722227744543	1.5103656015410025	1.576237912966793	0.7523316721995136	1.0098136637941546	1.4611458741490961
-192	-0.1594612445381568	0.20952315575629082	0.371119468467234	0.16798490243461303	0.3127753428668581	0.49034172172724666	-0.5195360170598797	0.22914288880192485	0.600468872461623	0.8340900519293118	0.9332754588406054	0.5321834669981933	-0.08901658631738424	1.14003050039471	1.5407116374217225	0.9532901620638463	1.258906361262485	-0.0016040871810646914	-0.18871939134634427	1.8766101551359773	1.442522402936045	1.6935229258695292	0.4612433600701374	0.2326482379523154	2.10360836451617	1.261810657176478	1.5367461404148277	0.9989017818980289	1.8248118116083083	0.9167745090226471	0.9701476668659508	0.5128549324438743	0.6266605838212765	0.9062573886878722
-188	-0.5580936656212834	-0.6210089310225878	0.30621218604024303	-0.1586784120368145	-0.28591492699915777	-0.5089020120169953	-1.7053062872747158	-0.5271407948536372	0.1669047619658817	-0.10954731675146527	-0.19886681387283325	-0.6332560165629559	-0.7940908650376548	0.6387297494974393	0.4601632643048895	-0.13704222406119768	0.16486969548561475	-0.6978172046209323	-0.5315560089042269	1.0764013501647332	0.39787229795138634	0.7891973237139502	0.21959672812808956	0.09827673410398692	1.6166384179307094	0.38627469442117346	0.8649316408254433	0.6220442636997223	1.468791600333711	0.3314985922550112	0.3905283202801851	0.3153417698527949	0.271166860372651	0.40729424254582336
-184	-0.6714381558632228	-1.0655918094434285	0.4580903637764469	-0.37713560366780396	-0.6464977844128245	-1.1133654089474454	-2.1695456450046016	-0.8485672452483207	-0.11692124575659056	-0.8846013523655953	-1.061496731939119	-1.3242208924238756	-1.0962361069658515	0.07840828577749434	-0.5227375613366171	-0.9308171248776959	-0.5722289070940793	-0.8411510565501564	-0.6671730263077986	0.2106785470888611	-0.3818203499213875	0.18345537735397363	0.11981272667198925	0.022192723993060097	0.9969488357168939	-0.28738364504736	0.4126814295363114	0.41340654984049563	0.878638980554477	-0.19777931223049075	-0.0637892259536976	0.09159453190089478	-0.0635967923585261	0.058117557170285786
-180	-0.5385256992095061	-1.045423505050989	0.6907138210977595	-0.46252897265005194	-0.7190361004795303	-1.189999219750973	-1.8564305258610592	-0.714335260971898	-0.30027741117958606	-1.3102347817719313	-1.4257287943129784	-1.365707990059304	-0.9528592800878529	-0.5009263741243816	-1.239062663764673	-1.2726834980303743	-0.745635686422352	-0.4242361475247166	-0.6623911244834765	-0.6228688343534633	-0.780996916706456	-0.016615465241443843	0.1993001396392563	-0.08821882285256338	0.248324736325822	-0.6823630315718767	0.22957490326616614	0.41137573019115825	0.06636107696229523	-0.6391473396376813	-0.3527626982365571	-0.22601956072009644	-0.386423825242025	-0.10705845030934664
-176	-0.24784201321016605	-0.6544620974229595	0.8128519633751448	-0.38485202096094395	-0.5163646923379671	-0.7981088141318196	-1.0258401606408987	-0.3024685077183198	-0.4285235394149082	-1.2889375654102964	-1.2382692067354262	-0.8584583380006003	-0.46956986070333556	-0.9972493027304481	-1.5598977764800328	-1.1526238889203488	-0.4070198227619703	0.2887368790966015	-0.5943460449471744	-1.2740894523877866	-0.8000198582477832	0.1136139106862245	0.3924229731188769	-0.26651921801034645	-0.5217469917475959	-0.7819251994418442	0.2574237280545201	0.5552152381230576	-0.8244007208990876	-0.9312634444566471	-0.46384632470322923	-0.6259206517629029	-0.6543957574534919	-0.09295012778417953
-172	0.12465022472858525	-0.08093070963453679	0.7066897732058616	-0.12367050318488572	-0.0903950554830438	-0.1235519122938239	-0.07718688975158255	0.13671278919035584	-0.4849948572788474	-0.837038038047815	-0.6171668752347111	-0.09219653136102572	0.16254773694960703	-1.2579870192237905	-1.432977315145813	-0.6822804791390712	0.19177940439441987	0.9084357000303339	-0.5038462864552664	-1.582165356456161	-0.5223148451969373	0.38548168442676145	0.5860767945751384	-0.4520752120525132	-1.1170164318492992	-0.6018296464984095	0.3864870061653274	0.7329215984913477	-1.541133280677799	-0.9800211166434214	-0.3912277211802137	-0.9915782188176117	-0.7675887922934393	0.0753050221091628
-168	0.5413956032435506	0.4942096459308905	0.4173576225233912	0.2986534528344582	0.4757594156174417	0.6203209146096825	0.6633262617529966	0.4271421421710815	-0.39261600276049463	-0.09495039260256609	0.20652586169552178	0.6089792832258113	0.742186186823975	-1.1449985475241957	-0.9206096506717473	-0.046266768010867466	0.7369015794268864	1.1241337032546697	-0.3843259205651623	-1.4590015374540706	-0.07716796527691415	0.6018123015468236	0.6934992653503705	-0.5194130526780185	-1.3403094973103187	-0.18675173771914813	0.515107451568894	0.8436658361115257	-1.8270947887067313	-0.7086858135450604	-0.14217993581160818	-1.15264117426729	-0.6224411710282796	0.3549695304014718
-164	0.9801127885868545	0.9603634452414836	0.13916018570097669	0.7878288010733624	1.0557854148911607	1.2649279800903603	1.0677140924199426	0.5433273897758437	-0.08033864179831647	0.6941938978788291	0.9687482690194472	1.0227134201931654	1.1149386139376751	-0.6213499291944868	-0.21176168269098486	0.5497780428357293	0.9959237550386348	0.8542067386995059	-0.2068365807079514	-0.9648927425818854	0.3871053149463438	0.6437005384405777	0.6951494795414556	-0.3574735513244863	-1.108433720651181	0.3719693114902959	0.5856796488280027	0.8398011901633362	-1.5563569029614457	-0.13115912642743047	0.23890593587638898	-0.9855335925969109	-0.19205695342211573	0.6777321083123895
-160	1.3876659835112506	1.2784463134912885	0.10287866715444471	1.1839997738508978	1.4748508892969894	1.7064419941733986	1.1908144920801524	0.5794358834896102	0.4304152716260134	1.2483340470267874	1.4480839931167055	1.0862138243907524	1.2022657364054887	0.1910003716891724	0.4209300567013071	0.9266032553166491	0.8999767280744568	0.27010461619846826	0.03805469339418793	-0.31772917428860076	0.725341795043688	0.5031872378996488	0.624739824148239	0.047391421973262744	-0.5215735422317374	0.9258772111404732	0.5884225353643515	0.7313101273192688	-0.8194056728655867	0.6066696628512409	0.6557810886038639	-0.5024795519540173	0.4227832843119846	0.9491295194504495
-156	1.6562559562828332	1.4409294092037999	0.43055751811041076	1.3177040782084564	1.5450810155005956	1.8899258327451807	1.1572827071535206	0.6477649195529053	0.9883506273111731	1.346278544841635	1.5225753745738355	0.8694872238141247	1.0057626937268676	1.032106516139604	0.7216640096563975	0.9735912656045099	0.5376612530485112	-0.31120616119014055	0.31185674588622136	0.18923100781348215	0.8245527723475257	0.2578536563561995	0.5203130828118545	0.5790010080024269	0.1638105358517914	1.2947186198924656	0.5416891561183282	0.5597314224416419	0.09862173323765644	1.257731434507639	0.9767498945371174	0.12926536765840804	1.0131148074320602	1.0691196891494872
-152	1.652988429664496	1.4357750379552168	1.0499367687419867	1.0985407801549179	1.1514551610485437	1.796384568447353	1.0492149564955793	0.784262893604033	1.364335533512171	0.9326701736744395	1.2032422989030231	0.5055786358466445	0.5995981082082977	1.609509702433571	0.5743440971178831	0.6855652911043496	0.08390833416257962	-0.6009998306359416	0.5372505174424009	0.33212312972139096	0.6443746669712854	0.01505771275533315	0.3834816803786951	1.038226244212532	0.6575579030601323	1.3350310291916265	0.4704765963596919	0.3662811210444521	0.8502650239458165	1.5780230720733088	1.0859676572084516	0.6633889062344973	1.3539621795802312	0.9740815138065497
-148	1.297754284443212	1.247934934326379	1.7210222439229639	0.5874769076773774	0.3479225924767587	1.4528337680375747	0.8703373648604097	0.9234589314987516	1.3713484967894478	0.17218109921852853	0.6344520433619992	0.125725060383945	0.11480551184040441	1.734840627104934	0.07987657169202306	0.17737856462517548	-0.29002714083879677	-0.4825223672128394	0.6434697492565902	0.08372557887157908	0.24901822146487157	-0.14097540044954465	0.18227969063990856	1.248685118383628	0.7877900580543563	1.0188944314027586	0.39626169104665454	0.17714863970853492	1.1991490095380526	1.4514383040976166	0.9436326599138517	0.9059154368416591	1.3216396536837496	0.6785637123141961
-144	0.6410701854732808	0.8926224089974132	2.1611421053682256	-0.0006106164058154981	-0.605116842649473	0.9526725983408877	0.5949401840447954	0.9546562409140045	0.9822959279055308	-0.5922631606407571	0.05063300567002696	-0.17531800225817026	-0.29433736130787974	1.417258616683912	-0.46923947215817974	-0.3455654075957777	-0.48479348298698216	-0.056221745766314085	0.613313136936488	-0.35787913112883646	-0.20007885942011952	-0.1799545730577357	-0.10900179269211642	1.1559833259006975	0.5920348152471991	0.4695189583368259	0.3343908182284677	0.006635179260757233	1.1346324653589002	0.9599930619797844	0.6141417011014187	0.821804461788516	0.9650028919651522	0.2849668257194317
-140	-0.11796640574950766	0.4473821211486822	2.193618530457129	-0.3806800832673908	-1.3127047982451872	0.4557723689493067	0.24707969960773585	0.8134484866585507	0.36819216516041575	-0.9791584586217651	-0.3058218650249169	-0.3432742944633633	-0.4993971275595628	0.8567358829802298	-0.7223743778110372	-0.662338433977628	-0.49368792647648874	0.42806446444200724	0.500638543295488	-0.6663749797209157	-0.5020758496959729	-0.125693872253645	-0.4658120262783139	0.8635030367030736	0.29310461804774746	-0.07756873945679142	0.2948929660027508	-0.13118326630850358	0.8643540122143833	0.3549694409945049	0.24245615242302093	0.5563114271423542	0.48719951387423327	-0.05185270668885722
-136	-0.7007729989478814	0.04626834008336945	1.8287993623337142	-0.3409248283838612	-1.4192608559061517	0.14223542773575396	-0.06524525566317531	0.5391309247710274	-0.17962361826845594	-0.7524446230010778	-0.2836883358945499	-0.35833316950926664	-0.44952335840218727	0.3353082529185342	-0.45543753985812635	-0.63437962371878	-0.380246966117224	0.7080598455672097	0.40481370585279103	-0.567221222875918	-0.5094400035393797	-0.03437066069508277	-0.8035334924437766	0.5770947918626779	0.16722491341332318	-0.38115981124965437	0.2812168889098229	-0.21704843585527991	0.6854018551687882	-0.06493323279914452	-0.013891190255379165	0.3533354094644355	0.14206226134195746	-0.194021373497341
-132	-0.8816866256387929	-0.1737795765780792	1.2387099234777827	0.12949074772089597	-0.8039952496256857	0.12993863192176863	-0.19558659146519097	0.25853589111857617	-0.4034228314704689	0.042555455010975546	0.10310845796063488	-0.23311655164513326	-0.20115221986052478	0.066321804952068	0.2916795902040553	-0.27934896875424536	-0.2316051864737019	0.6379488690482085	0.40977597133174815	-0.001958127128604464	-0.20985847658578938	0.03603076180659501	-1.0163642142384315	0.4852110731272242	0.37896311187432585	-0.3171541980842266	0.287620573509744	-0.23465871751667455	0.8069916347156243	-0.10612814846662173	-0.0621202288489751	0.41492795839454627	0.10128734235224905	-0.0890108791726614
-128	-0.6133660658609149	-0.14859671853218562	0.6444948895394939	0.8058637360253872	0.3125946513866777	0.3983524431661623	-0.05585050941313874	0.10342242542619656	-0.22419559898992977	1.0687099668223357	0.6652318818462993	-0.017066590444868003	0.0983452645441444	0.087486728804958	1.2052766054240711	0.22040417734766196	-0.11726345092254328	0.24305123029379483	0.5256037698826949	0.8164342025171014	0.2485969656389851	0.04705009970110852	-1.044781682237668	0.644419847291911	0.876226005726127	0.04658504936258387	0.29468184635148936	-0.18953250300715604	1.223309752236757	0.21514724140684052	0.07733036558177528	0.7784318308250233	0.3621606221592102	0.19696301172119154
-124	-0.061886660598431835	0.06636168045932206	0.18923988890553126	1.323610779281495	1.4332966768317132	0.7744199614046103	0.3082223526802179	0.12077780037427222	0.2108751381079952	1.8369435025566825	1.1106959553332745	0.20804615266248572	0.275983660716401	0.26055627995510416	1.8367699338315349	0.5928281530671566	-0.0676014421663589	-0.3110326818719598	0.6731054765873152	1.4974427185398773	0.6143707021460677	-0.01196166683693665	-0.9220979190433866	0.940510926256267	1.410176869646738	0.47190225005215264	0.2706766121706112	-0.11967316984718061	1.7116463141141773	0.6768509132462549	0.28039756346480893	1.2861318555785128	0.7498235683583423	0.5044057952543604
-120	0.4702090311099707	0.3129471532549894	-0.1253155764753719	1.3624091113978942	2.0066766688227884	1.0028821204614353	0.7221096139796134	0.23870237111383377	0.6104798897588879	1.9352576683774938	1.1757853001472722	0.35374349266385985	0.21886955146366574	0.3713844111125917	1.8235658361170692	0.6052081569650383	-0.07198519241516724	-0.8104073980851436	0.723872719367618	1.6687799650021287	0.6509509666220402	-0.12562850085965263	-0.762802956562572	1.1513090104599233	1.6688823657815943	0.6644079072390047	0.18237225665301104	-0.08491764941233541	1.9567738722034806	0.9645630096878204	0.38276418946902285	1.6661221938983042	1.0130226586514701	0.6551122648865279
-116	0.6957121473867147	0.4072139252871913	-0.4004905511758245	0.8204192498474332	1.7002325015056654	0.8716864563868497	0.9703872775373429	0.3102870873723469	0.7033712250117256	1.2321507899646797	0.7519034128278836	0.36116704253563536	-0.0652419252536569	0.26609700851014595	1.0751205655610332	0.18086059345835656	-0.09706725900700011	-1.0946174832364175	0.5724353179784153	1.1668879956348237	0.2558354728915226	-0.26566499404590466	-0.6969851237819688	1.0727419826126319	1.4457935058330598	0.42075520647629994	0.0065281377009140575	-0.14025548065060392	1.7268137888225874	0.8320540764782144	0.26019212537876835	1.676183457910988	0.9566037630724785	0.535766659814464
-112	0.4949914204497907	0.24117430983687893	-0.7294039111795197	-0.11343154282541403	0.5851474985607915	0.3335780492943625	0.9219115353196444	0.21267834252067125	0.3941900422157491	-0.04698555532156033	-0.04941426950138156	0.23535594284717434	-0.44336804635641813	-0.05596388117250559	-0.1710909451695002	-0.5522071705227726	-0.10656315806425544	-1.1118099661413139	0.20514938183487658	0.12502862481498644	-0.4768048214795179	-0.40214553373847955	-0.7837530354739115	0.6419357641225236	0.7548020463006374	-0.26042047077232633	-0.2565569275100624	-0.30165827198161116	1.0081127856551384	0.23204129875726118	-0.10893674167308891	1.2382515637606173	0.5450003133365309	0.15428452154783934
-108	-0.0200128908695153	-0.15109752080439037	-1.0927602025099055	-1.0391031477442536	-0.8799685813621246	-0.4496430743309164	0.6105122550809192	-0.06464861317048003	-0.18222105457075882	-1.4190567696029561	-0.9337962842253378	0.050922442099035195	-0.7180442195883272	-0.4494944501495442	-1.4597344361643783	-1.312593933606185	-0.0767073405832529	-0.9125589705315509	-0.27842232514658427	-1.0903334590086473	-1.2879664865400673	-0.5115008341272858	-0.9644893383470641	-0.016688752877300452	-0.1745791281822388	-1.1644400328800788	-0.5764137491931938	-0.5294306264861921	0.021957414169306702	-0.6522985084277201	-0.6315430386810809	0.48653352137751693	-0.07965878377114424	-0.3622736027630967
-104	-0.5683384523347672	-0.6054177865001841	-1.336472865545103	-1.5444852074729252	-2.0727577157140553	-1.1757262915490936	0.21356096809827682	-0.4031493653609299	-0.7413439135907804	-2.3736116826210982	-1.5553153714012702	-0.08632870741744364	-0.7281287890170592	-0.7248253207980132	-2.3386745393835002	-1.7977957680134922	-0.009756542717619448	-0.6021509751375823	-0.710584459894942	-2.059524530933013	-1.8709799004047087	-0.5836628064678299	-1.095068094349782	-0.6540232284245863	-1.018071887306935	-1.9551740835417484	-0.8991389251896093	-0.7449423055914305	-0.8867906905673126	-1.4923949203958833	-1.1432336539968522	-0.29913696571165543	-0.6735697967689432	-0.8278253057560113
-100	-0.8539133646386622	-0.9103785730265272	-1.2511677710415445	-1.4161722624309785	-2.5161743100535205	-1.546922202973059	-0.051817260551756845	-0.617735145916565	-1.0097476218479102	-2.609390013782407	-1.6735950666135069	-0.09576858555933214	-0.43303972373349253	-0.7684549669891285	-2.5670602256812716	-1.824540252847397	0.06782981736223921	-0.2816640131514766	-0.9402604079349086	-2.5013444360522663	-2.0090439268887113	-0.6186264737722857	-1.034068820249945	-1.02740514019017	-1.5165822467660908	-2.324331516119542	-1.157798883375972	-0.8669808485076475	-1.418914552920881	-1.964280957984698	-1.476848836984816	-0.8302557447452364	-1.0115195487233193	-1.0788007947387532
-96	-0.7231677156309947	-0.9170055962298579	-0.7085308414690357	-0.7461078744170705	-2.110159868634761	-1.4165691101548912	-0.05273922146952457	-0.5640597925250131	-0.8733157493476714	-2.157226318634948	-1.259880897202102	0.03384380779066268	0.06775232387364627	-0.6067767127929873	-2.2025802079857724	-1.4053603375238888	0.11936502873563103	-0.0062606572015469425	-0.9065652466773598	-2.376151794156433	-1.663919802279414	-0.6166363938975495	-0.7328132372474196	-1.0243291828996572	-1.5853218992262068	-2.121179098495856	-1.2848981586440666	-0.8477538206631247	-1.4546046220293807	-1.8875305604962842	-1.5229402742082292	-0.942603704933692	-0.986686584842535	-1.0370169851823818
-92	-0.24311155019415523	-0.6153912528713352	0.22748236300731967	0.12234505980120058	-1.1632775038913148	-0.861808417051743	0.186326607591361	-0.22752514424099918	-0.4298304010506316	-1.3318643536319947	-0.5032595383335788	0.23608390927313946	0.5867319092242107	-0.377072363139857	-1.5298551282404533	-0.7274756413212595	0.1157230582891796	0.21869814340688568	-0.6644031984720793	-1.8564478112080005	-0.9772064661149442	-0.5703770503902281	-0.27245819499844953	-0.7128524166229196	-1.3198240962084749	-1.4056186640536932	-1.2281959025845282	-0.6913624984452124	-1.0874775620660897	-1.291662689762547	-1.261291500721795	-0.6600057466055879	-0.6441892369218574	-0.7301225047751176
-88	0.336880414827483	-0.1387565281464157	1.2862261501263095	0.7797440866810852	-0.2050659800358852	-0.14296506309176857	0.5043355213783476	0.261932342583237	0.08105050006907169	-0.5424240813865533	0.2845654182402053	0.4028258313499059	0.9405871009920976	-0.22335013690824781	-0.8771162606982446	-0.04899195941834325	0.05211047815040848	0.41169765487677734	-0.3426374784401909	-1.1946604221699295	-0.18888375115389744	-0.4634115982276575	0.18211454107081412	-0.28804868386976235	-0.9057820416469886	-0.4057192196139326	-0.966556367818011	-0.443021415545602	-0.5482689128384713	-0.38564944169905824	-0.756429610726765	-0.16036340553803818	-0.13981226051317314	-0.2655925744026854
-84	0.7132296544187506	0.305427759114657	2.089354748219149	0.961996612504206	0.31219395916318676	0.4270924318974643	0.7006053906871961	0.6958637219979958	0.42220926178192447	-0.0716633124330316	0.8156073668868647	0.44333937652235356	1.0331847641608685	-0.19167539428954944	-0.43106520067100335	0.42900419126916345	-0.045909877750595275	0.5829484448020004	-0.06207434817377508	-0.5732844457457417	0.4794720101171931	-0.27873724628645996	0.48238310096067333	0.04798144835040466	-0.4952787744415274	0.5911251291609338	-0.5225895630040135	-0.15918655653340294	-0.06917387229620847	0.545610486083556	-0.12699568239573636	0.328922777537546	0.3465736797642525	0.22271309736765801
-80	0.6812592131580681	0.5381482825997412	2.318719858037397	0.6744457466263508	0.25383010442544	0.6314455254824745	0.6437606199223597	0.8919618107210354	0.4872295248128019	0.0546106135956515	0.9470793580939314	0.3293455532818705	0.8857362247992535	-0.1965763563915098	-0.15502640565832435	0.6442394240326315	-0.1350100782085174	0.71631806907999	0.13262748684776499	-0.0258557218405481	0.91235571869338	-0.01776090446100691	0.5822080359064699	0.1965624685093122	-0.128792553814921	1.3525594438736288	0.029587933718961627	0.1162611764714338	0.2290307724653854	1.2582594124497262	0.4896953093562896	0.6413955076236435	0.689516244577956	0.6216868742505515
-76	0.2320257270438529	0.4884800302570324	1.8650294495225155	0.1641629930166196	-0.1489229347522177	0.43783047684754145	0.33045998132242227	0.7787187675842476	0.3391314438363871	0.04223934922878795	0.7204989176679146	0.1009668630792621	0.6024171098758325	-0.08613556601711722	0.14859993718299536	0.6703377349141578	-0.18045714452005174	0.7710605244242615	0.2865655414975609	0.5326260910891778	1.1183737488166976	0.2813732616949963	0.5532823787071612	0.20023147711268158	0.2541555755874143	1.7685406163386972	0.5700898156077807	0.3547054222211389	0.3691197326400685	1.6258205134351758	0.9659640764643734	0.7304945569668663	0.8497265555862751	0.8605289437502248
-72	-0.45086455231321454	0.21193630939857466	0.8750006534419282	-0.23716376661980884	-0.46287038805446334	-0.0121560496902519	-0.13013508883045233	0.4163848747231128	0.14687089584939383	0.17145472721680716	0.3086753479793672	-0.16448658663228818	0.29910674615683064	0.2378575646832427	0.6760587675191899	0.6414200051325843	-0.17980790092847498	0.7005035263495322	0.4860245573170649	1.1960076063477416	1.1813882559513025	0.5415273295081716	0.5213723765561283	0.19168782185795372	0.7310336213728539	1.851754303071657	0.9590220427142001	0.5278930054688035	0.4633259463533315	1.651025171879841	1.2043381898990966	0.6563150270104138	0.8550869204866819	0.9080687142333784
-68	-1.0813746425029458	-0.15555109044379622	-0.3244372300062989	-0.30305603070038745	-0.3258576384900327	-0.4980325090231979	-0.5887486323750943	-0.05161731677136261	0.06611433608528987	0.6062950476597734	-0.09238087362568939	-0.4008375098121861	0.040976297006863935	0.7288837414458783	1.463451143384609	0.6546308977765372	-0.1712899501767416	0.4792409229099823	0.7807982544259212	1.9555097769002758	1.1828848093685445	0.6661838872302484	0.5670045003880618	0.29124396965881416	1.3006110158507944	1.6878424840274868	1.07765876974774	0.59277754872387	0.6171272381460355	1.423814054709048	1.153392311998853	0.5214022384830854	0.7547530512827557	0.7599140982515369
-64	-1.401442643441983	-0.478207616790765	-1.380611177773447	-0.031333774249121635	0.32547581113656554	-0.8437311628020345	-0.9373521185097257	-0.4820476758230467	0.14015492761512172	1.2782211271438957	-0.36717617419046195	-0.5891559109118163	-0.17712762907130464	1.1934254139333016	2.325324529498993	0.7062110287002344	-0.22058746162988355	0.12340252070265215	1.1266037197279257	2.6568369798338796	1.1425647706748716	0.574708341101186	0.6593161804719223	0.5170361982643112	1.839137907153193	1.3709647620873529	0.8702723361931239	0.4951936292066807	0.8499957301614012	1.0574027273184128	0.8198659995360249	0.39961904186444147	0.5798837527893217	0.431231318815573
-60	-1.2929259506007271	-0.6874120814134076	-2.066395754365372	0.36912524606969627	1.2039588659407037	-0.9983595584458761	-1.1472049922589203	-0.7969733456517151	0.280261933095965	1.9100356053765983	-0.5223399387523244	-0.7556237559314363	-0.3987979282800888	1.3876194918884432	2.9296781942786887	0.70049434723426	-0.3850224306399266	-0.30611559671362837	1.3902932370370271	3.0565800589637853	1.0147521470199063	0.24360537467487253	0.6732043606927479	0.7661460618702935	2.141663784341964	0.9656187271534167	0.37366855050158493	0.2014405424277366	1.0808820697197656	0.6422963126178597	0.27801966596982075	0.30279508156621965	0.33730074678137784	-0.034726735116781655
-56	-0.8283353427000667	-0.8025915602447693	-2.3504457414411832	0.6066508873881841	1.8234838201260652	-1.0381469700351809	-1.254875418355792	-0.9993908380071762	0.32868233240112915	2.162824863695276	-0.6536931379026536	-0.9390971040857643	-0.6510442478908782	1.1566610307100826	2.9670543595743375	0.519699333786152	-0.6758913976770832	-0.7143812757575484	1.4163144791130535	2.94434808941377	0.7344610672527198	-0.2698334746700696	0.481324611879102	0.8731685258754479	2.0246658274077416	0.5053800331707544	-0.2843860976668513	-0.2603131526096792	1.1781781882103837	0.23198895097811933	-0.33711936984778423	0.19470588813737455	0.030558703390096562	-0.5560380206374598
-52	-0.23621436893906222	-0.8993403888884414	-2.3559379518155	0.4713031935713501	1.767680640526049	-1.0966786118475467	-1.3142509427267572	-1.13693344306	0.162313952632227	1.8224036647561728	-0.8642656781310493	-1.1490176887112529	-0.9039015151090729	0.5322824107082706	2.32009863267686	0.11182843120474378	-1.0370647881073711	-0.9940272544559596	1.1156707973922475	2.261088603986735	0.28127267885719176	-0.8346098640350856	0.06208630263031266	0.7087587696300812	1.4299316370147697	0.01762380073985362	-0.9204218960411789	-0.7775477747359467	1.0383650038252188	-0.14437055551318492	-0.8584696032784345	0.03477476900976875	-0.31174012939901274	-1.0142062876844313
-48	0.19940122911654015	-1.0471746895100686	-2.24779533772391	-0.0569651609711079	0.925077137995673	-1.268638965264707	-1.3499560322057023	-1.2458831040398113	-0.22910228313777412	0.9230243540347913	-1.1834282845182342	-1.3416875566940465	-1.0718140575051114	-0.2730763547678544	1.1403958768662605	-0.4548217642745065	-1.3546202148568902	-1.0559060546918815	0.5278469310785084	1.147318002665129	-0.2799249284352558	-1.285134073827492	-0.45241823678232956	0.2593488090642929	0.46913784623909427	-0.4509218919813437	-1.353560205856881	-1.1757773131248925	0.6447203739101098	-0.4616809475686511	-1.1345360250438972	-0.18278717948540615	-0.6258335097724613	-1.2810528246007356
-44	0.2587989860199505	-1.2554396359218114	-2.1198394245032666	-0.8072253445271985	-0.438956706607729	-1.5450127085778556	-1.3415223326191463	-1.3136717047902924	-0.7368592005245581	-0.2591471069468822	-1.535459752974533	-1.4314812385657278	-1.0583603355389566	-0.9775016879197713	-0.21128043479028338	-1.0047776673697966	-1.4968152008412663	-0.8561212398848579	-0.18772718262959584	-0.10736874463868332	-0.8100445846133119	-1.479039188465492	-0.8285902121604828	-0.3619385054510155	-0.6177129133841199	-0.8319940546010771	-1.4669053517499113	-1.2870464292456374	0.07351008784092845	-0.6918118578610395	-1.0834146710698778	-0.4211030889846532	-0.8345514514833532	-1.2680503097943914
-40	-0.11780539870321464	-1.4576344453249537	-1.9476287315786818	-1.5119528732273637	-1.8073708965446151	-1.8132387353893584	-1.24133705779427	-1.2827081647912584	-1.1946814030048376	-1.3338646855056064	-1.7732714369825757	-1.330725904919659	-0.8162277320281208	-1.3775023187191013	-1.3270751204363838	-1.3305637802862793	-1.3671331371122855	-0.4127376367161926	-0.8265708664052356	-1.1847627133020966	-1.1544638842999195	-1.3500014509449065	-0.8570048787414221	-0.9752377247029836	-1.5663326939137372	-1.060790416900314	-1.2476599184960797	-1.0333222124713735	-0.5500124082983944	-0.8148313144138486	-0.7301354389830013	-0.6265289171613001	-0.8885936714625713	-0.97493558875938
-36	-0.793766019724449	-1.543511148370465	-1.6346116024709028	-1.936493630288436	-2.662586443854398	-1.919953699032893	-1.0107364629022373	-1.093433734994167	-1.4660508595645687	-1.975367898722087	-1.7585583880847862	-0.9988601778560807	-0.386978088832392	-1.4450660907500574	-1.9308923434144551	-1.2927142349030194	-0.9500943994376375	0.1853792513696928	-1.2363986937778075	-1.8649722290636757	-1.2190039127090542	-0.9359556412908088	-0.47982260463687676	-1.4244153463640241	-2.1969649736249495	-1.1130274506124223	-0.791915116694912	-0.4810780274642888	-1.1144834728713193	-0.8388107993882488	-0.20771394617566882	-0.767282484024712	-0.8017734864972925	-0.5090569244883755
-32	-1.4831002913223652	-1.4189456665453752	-1.114740011261785	-1.9718583772465728	-2.7252945831156303	-1.7564177468777273	-0.650856135632442	-0.7367834430212399	-1.5042655430008007	-2.0571463056124792	-1.4407302104814634	-0.4737454938848555	0.10438564393391557	-1.3176546063534178	-1.9821535298847646	-0.8910769797715786	-0.3274155548889161	0.7885575274585466	-1.3796101773716165	-2.096305603456727	-1.0194975111970734	-0.3689545979721352	0.15974909026821163	-1.6414599377197256	-2.4701678690533426	-1.0263895962550509	-0.27038600972574245	0.1698145415071802	-1.5635118445022191	-0.8080321529968412	0.2864027612130903	-0.8535814263727461	-0.6538363678636872	-0.055443897703378514
-28	-1.863545532289934	-1.0605875226900108	-0.44178488739053606	-1.656272049536882	-2.0612633176260107	-1.3190325465278563	-0.21318268722116487	-0.28250393200120844	-1.3553271259421416	-1.6804374413978673	-0.8914815164946479	0.13066464629562227	0.4975416349723895	-1.1926962107109604	-1.6587909418187303	-0.2719649069595338	0.3433327070150957	1.2207992046051561	-1.3279312815517759	-1.9809780070834722	-0.6783396584550511	0.16920672314361776	0.7816555480295612	-1.6554117160963662	-2.4681048330935855	-0.8903323389462797	0.131524681712915	0.6655828935984954	-1.8956807803930042	-0.7896017412277302	0.563527165420645	-0.9268003678764236	-0.555373130826669	0.19536729107645479
-24	-1.7149155096625641	-0.5339402542938677	0.19700661251873466	-1.1300241918643703	-1.0123678420256208	-0.7122100573677971	0.2141198957520857	0.13695940340749138	-1.1095715733170703	-1.0914469929795296	-0.27429667045958234	0.6602084023973125	0.6643187982952904	-1.1930575340666767	-1.2361100880885336	0.335118799555594	0.8787145592438613	1.3318843807925886	-1.1969706981955908	-1.6921611981584288	-0.36685219314460327	0.5081775175615796	1.1100301714528142	-1.5469189843222493	-2.3189296663864765	-0.8042193034848307	0.27730598975740445	0.8098304251251746	-2.1297042316072665	-0.8403684475662314	0.5180900083812795	-1.024271366394371	-0.5906311854709273	0.13161651756912082
-20	-1.0268535588088112	0.03438551342746524	0.5604760036622962	-0.5585893974506287	0.0009702069194706433	-0.09309224760870703	0.5353668318583201	0.38199779294843583	-0.8383839109234452	-0.5379175530203982	0.2366342687592835	0.9753523444345973	0.5631032571880726	-1.2861157623244641	-0.9294548011201491	0.7223524433018153	1.130482551581536	1.0540400716872544	-1.0586575242970564	-1.37074589383229	-0.2201260173723587	0.5467113242651334	1.0135886643568282	-1.3803106511552483	-2.1112792438608166	-0.8225912430975647	0.12561072377439325	0.5526614771241036	-2.2606570663596504	-0.969418582852899	0.17172345475709852	-1.1420453758016103	-0.7675870637587453	-0.22350148800211161
-16	-0.017464917109025365	0.5128492700026349	0.48382460948860434	-0.07016248983311828	0.6875788552090681	0.4060557474374848	0.6802118403427193	0.37230843211588927	-0.5596397504982088	-0.15031042657095736	0.5408421145135638	1.0009142135144995	0.25265017088044545	-1.3078416552902414	-0.7897416929333094	0.7953777293151064	1.032916900887924	0.43873011955118746	-0.8938151575410022	-1.0611625883013518	-0.27180984547654213	0.2837267212856883	0.5652180299793642	-1.16475450698512	-1.8522845459902402	-0.9219915843573757	-0.26017033988115795	0.009472385024950798	-2.243070835172362	-1.1228705616257788	-0.33755767260203345	-1.2254024713095375	-1.007536647160194	-0.7178008538243237
-12	0.9538345908878502	0.82117455990412	-0.015150902754559041	0.26978930762840253	0.9946671699206526	0.7350022178212692	0.6299827082940901	0.1296793964211338	-0.24943363603558485	0.09327884739928588	0.6540956480678055	0.7518520932288617	-0.1386125978308077	-1.074759242205317	-0.7029487472906242	0.6085745676888082	0.6204577668737413	-0.34561580332280806	-0.615319310065273	-0.7158057075547943	-0.4420346308515144	-0.18773889494226462	-0.010581018376457989	-0.8657696821288695	-1.4882823191260544	-1.0098600362076726	-0.7418250422821927	-0.6007028802964204	-2.01320266215348	-1.203330513777068	-0.8179163316103443	-1.1954675882674402	-1.1830654114417578	-1.1405762405208955
-8	1.5456374844628138	0.9577003097196429	-0.7156230789236636	0.4525842953222545	1.0756796571276148	0.9343255138649623	0.4318872083250254	-0.2240450227564461	0.11623012245158423	0.3124858133055926	0.6888091546787707	0.3285486391832355	-0.4675511109945347	-0.5117951022577989	-0.48365828272777855	0.33012074148753967	0.01362364363210942	-1.0579006645196094	-0.1451566364676593	-0.25531488592536866	-0.5820985421742939	-0.71682339725712	-0.46222489955549795	-0.4527592051519063	-0.9672017669100095	-0.9706862544347814	-1.160029766014993	-1.0604447099614895	-1.5335000714685556	-1.114170786905617	-1.1064757080752528	-0.9944624279663661	-1.182179805631921	-1.3209123578100364
-4	1.5932300050564605	0.985963103666078	-1.277904984108805	0.5087684380083909	1.154639241164406	1.0962232323626124	0.19556650469995238	-0.5139711486237648	0.5220519291094968	0.6235786064616566	0.7854586819844978	-0.11535797984085207	-0.6282588227622486	0.2849051051099227	-0.002978930707950429	0.15656262596656428	-0.619903086050862	-1.4652070962152586	0.505607484494643	0.3568780115177166	-0.5512609467893522	-1.146759626354283	-0.6333396418793646	0.0541067718093469	-0.29919019265930547	-0.7248454075632518	-1.3902147973247008	-1.2473024098376195	-0.8291082957315624	-0.8050068596542596	-1.1319096059831453	-0.6207419618193128	-0.9627169346344979	-1.2028930156855213
0	1.1831016510656898	0.9900454257764376	-1.3948740923950296	0.49256452793692085	1.3726105655347356	1.3007487025798778	0.06257574989494034	-0.5850742444525475	0.9017682052733029	1.0519009802009558	1.0300056908351545	-0.4244379986537389	-0.5833258018071207	1.0823495360704307	0.7188330274552932	0.21617188995142608	-1.1169679136685746	-1.430646177494533	1.2008235424241447	1.06704234807502	-0.289298921093092	-1.3659359182203497	-0.5172008262927652	0.5683190808252641	0.4208278347357754	-0.27192714741716395	-1.3811430896220798	-1.1694505185165376	0.0058809053004321024	-0.29686802550704156	-0.9293484664341383	-0.1342975642866713	-0.5698757753289327	-0.8610277750210906
4	0.6038690790188952	1.0267300579851484	-0.938083348289984	0.4692641484810544	1.7044002966764171	1.56531047425842	0.1542125042359713	-0.36837884690738093	1.1624641389107633	1.5075279436197002	1.402340170180745	-0.4944578098687863	-0.3662635972789324	1.6222431618740785	1.5060305557374334	0.5079616295387482	-1.3663457597567905	-0.9711663698472349	1.719297643135387	1.7384138063409076	0.151803791139712	-1.339681145146683	-0.22337844911444465	0.9659625863482577	1.0436284515734655	0.30481430811217747	-1.162249800608692	-0.9319381690338011	0.8385772683906084	0.3265495888094832	-0.6027073248905113	0.3717966368348175	-0.10825924547995995	-0.4490347493278746
8	0.19584150562909053	1.1003762455814972	-0.024062886773391644	0.4990992831503721	1.9887856194828883	1.8352312995351876	0.5146120177627718	0.08692712314831652	1.2294840781641616	1.8353997422608976	1.7833116009510623	-0.30861428302094895	-0.05851033315191245	1.7446029142201789	2.110060686506105	0.9050132609406166	-1.3378578390676072	-0.2599292092913279	1.8528177691410546	2.2096080724242055	0.6323931797273659	-1.1128157349147145	0.10782091292338841	1.141738411881792	1.4323959314421417	0.8748815633619677	-0.8199117759030968	-0.6612932069294857	1.5477111300493143	0.9557348465631367	-0.2580509775322303	0.816801188314057	0.3145463458702755	-0.1114225906300734
12	0.172988459031134	1.1686851948795538	1.0338821385029797	0.6130977257508136	2.0432703443438016	2.014640087763254	1.071095225490935	0.6284967048989466	1.0829687091187943	1.90353774543817	2.0119161555038962	0.05313654230530388	0.24194171963642455	1.4538722001562299	2.3312854707986403	1.2141735523086519	-1.0877847644044865	0.4388578523046186	1.5132904014527466	2.3683288037587036	0.9870639418476553	-0.78758209744926	0.3813272108940834	1.0601086589750943	1.5240199527409646	1.3125172820331972	-0.4594818640075376	-0.4382220495604048	2.0609297700346896	1.4933714828934177	0.04812022658954288	1.1615509957551098	0.6358973963895085	0.08730850346694896
16	0.5146310316444072	1.173730847256341	1.8589483452593043	0.7884499410749986	1.7878617003124382	2.0178022333698946	1.6408719975051456	1.057038662149044	0.7655045966848404	1.6763621526355734	1.9614467571327838	0.439282624804538	0.4462578583417673	0.8965607262863591	2.1134190506028507	1.2613346544845034	-0.737926898523724	0.8733565785292395	0.7911613563589854	2.199834102798614	1.0905933352592119	-0.4873262035463835	0.5702595100310278	0.7703667263608276	1.3494378294253335	1.534738179146704	-0.17303326682273076	-0.2777228348395887	2.3564648568739845	1.869990701722514	0.31229057829212375	1.4025908673160372	0.846215722808579	0.1720793987936373
20	0.9887374614547887	1.0768872472277153	2.163762087127358	0.9421368813569898	1.301410671763082	1.8099670364458975	1.9923570105795234	1.1993571489570827	0.3594572236999254	1.2300627200541803	1.5939174850275641	0.6792941076294297	0.4907968627936024	0.273401378894994	1.5605796536145415	0.9606183147018997	-0.43610742578072476	0.901293394674221	-0.07183047365888215	1.7845935776476547	0.8955306388179515	-0.3207870117671475	0.6818593723247962	0.377936719893885	1.0029810641715127	1.5068002901181192	-0.02677862153146866	-0.1623169477656194	2.431700461923901	2.031327480909599	0.538372694086754	1.5365319213220459	0.9548000073168398	0.2023477698224111
24	1.2909030881714472	0.8788200594648474	1.8569441986884365	0.9569493508020137	0.7821094970030245	1.4197972977077757	1.9420480679117413	0.9718799566526843	-0.048313759145349654	0.7079359871156791	0.9715899204519395	0.6476566179136218	0.34666219266152054	-0.2542675429123422	0.8755983688182267	0.3424015334544432	-0.30750107687561196	0.5428608642223646	-0.7801546434732615	1.2531599966834872	0.43293556461701055	-0.35502302557002263	0.7071035486488477	-0.005448507131291029	0.5856137260910476	1.2250128953522692	-0.06346187724541763	-0.09482182538411017	2.2690553607872994	1.9192053031149827	0.6808546764349989	1.525212760889198	0.9438756680499875	0.19482809256001676
28	1.2142381637434254	0.6138436182736496	1.0622496578100207	0.7326487880328996	0.43690058478674837	0.920002517761598	1.4432489835540225	0.410462706244794	-0.39522108335847067	0.24364097354887476	0.22429946008318866	0.31429323474687587	0.02499471971042536	-0.6183080657606995	0.2554838948952026	-0.4674871254085299	-0.41279292002408224	-0.03689337139947747	-1.106437084265536	0.7229478340969734	-0.21579851155633453	-0.602886436847609	0.6008303150266284	-0.30428141278690857	0.15523086449054893	0.6975881439716389	-0.3085808448153144	-0.12743946877729107	1.8290219260767435	1.4714189730687766	0.6240444763640449	1.2924761739523876	0.7484719138321834	0.0802449507475467
32	0.7570720295865322	0.3275864116027334	0.05324608446625358	0.24107824205090472	0.36653831508600854	0.3933157910907133	0.6214856489702978	-0.3430717280786056	-0.6532241685587448	-0.10172333542651905	-0.5048077689777107	-0.23998030959575287	-0.4198239733110028	-0.8376172759842797	-0.19759175131501733	-1.3003172841620827	-0.7279490214088705	-0.6061958059264729	-0.9821959709164948	0.25230002339559643	-0.9530159210939272	-1.024108168877388	0.3106864384913337	-0.4958559560177526	-0.2864099733750899	-0.05470228926437489	-0.7663408498489278	-0.34047430667746387	1.0839067670159008	0.656725762616524	0.22844234051248719	0.76583915755512	0.28798493670233605	-0.26522388987335804
36	0.11240396620266127	0.05736118913115691	-0.8573459365179658	-0.4428428400303058	0.5127741085457629	-0.09307297295675146	-0.2653937333082167	-1.0883383723437625	-0.8201847055708342	-0.3530417969850132	-1.1050679655785018	-0.8498594739437886	-0.89462989342838	-0.9700509881323691	-0.5029793368991972	-2.000529045776176	-1.1517610520847588	-0.9716815923953727	-0.5204629884930861	-0.16441376465771773	-1.684276457348868	-1.5349533519138	-0.16230800706892567	-0.5991701468598909	-0.7649603466747704	-0.9735870932793862	-1.4003529513289505	-0.7780430297281351	0.07614803294983455	-0.46696317077995464	-0.569114087575271	-0.05427458496099803	-0.4600552904911515	-0.9224884486749689
40	-0.45209386830628084	-0.1753036226376545	-1.4218472206457156	-1.1585189074830409	0.6940182429911196	-0.4964557277542907	-0.9325602031051066	-1.6327707726263072	-0.906109628773847	-0.5858075603953677	-1.5205399951691843	-1.3282886710009467	-1.2843975988385066	-1.0669614049676195	-0.7616052012288346	-2.4662947592456166	-1.542968626895089	-1.056241271213252	0.03359277165395403	-0.566416858196705	-2.322390788890555	-2.0267159887642596	-0.7201250177321826	-0.6524588449217611	-1.2880022493268424	-1.9371545265880368	-2.1143858379386664	-1.383701917015827	-1.0417503092213347	-1.7126089291248696	-1.6606988864931735	-1.0431903574354724	-1.3903514111701811	-1.8254952384635774
44	-0.7483041863622089	-0.3611133685531507	-1.523213621108479	-1.72381484073293	0.7047598940221965	-0.7959080318383343	-1.191414234014368	-1.853337640851473	-0.9263800359225288	-0.8697615243886885	-1.750298376432667	-1.542032237928032	-1.4853415451695509	-1.1572368115771592	-1.0809131833442598	-2.6684536866526947	-1.776254530236763	-0.9168691015936669	0.40089437264315825	-0.9854518150244855	-2.7903597284439106	-2.3936812817220385	-1.1847375601420649	-0.6962363106315461	-1.8168649627590483	-2.7657923628595746	-2.7564475466752825	-1.9867933938409457	-2.0262308069570127	-2.7862830091701456	-2.749963991851564	-1.9609045932852758	-2.25987529184075	-2.726715081006331
48	-0.7592841963671408	-0.4970889376964634	-1.190316197251088	-2.0131900259688194	0.41835981501811437	-0.9903380845815458	-1.0316300366104725	-1.7317879156258247	-0.9047126747177732	-1.229758140320147	-1.8397355033202023	-1.4690233431920126	-1.4475742541958734	-1.2598859039922505	-1.5131020507757318	-2.6533031396633584	-1.7966482593951736	-0.7020988446629177	0.37298959399466264	-1.4234075510327062	-3.039674274399535	-2.5680847103130846	-1.378130551673448	-0.7702199797257612	-2.2798647822993146	-3.2799565709272795	-3.162519685390039	-2.363516801588846	-2.631690972359525	-3.388234129934301	-3.4512638958579296	-2.5358424122682677	-2.7665471960791046	-3.2767743981600455
52	-0.6205961688585603	-0.5876909479562255	-0.5736780152141999	-2.0112793394807236	-0.1608448024503512	-1.105198261331652	-0.6228113158714003	-1.355839845095205	-0.8799716211990005	-1.6441158014749222	-1.8719285679285589	-1.2129807441604183	-1.2077951400780518	-1.4034261668058106	-2.0384752698930177	-2.5334329541139504	-1.6508716303152873	-0.5742282256887323	-0.1149837222772523	-1.859709854199032	-3.0822079103852875	-2.5530269081507844	-1.224198219069536	-0.9145109034337272	-2.6184384756736243	-3.3909106168965373	-3.230209342430443	-2.348719590932846	-2.7305347850524737	-3.3558719073444987	-3.4728016765652705	-2.587938540600483	-2.690767519833052	-3.19300221590695
56	-0.5101199137206159	-0.6527875049322228	0.09989912782719332	-1.8124278738038813	-0.9143443084520005	-1.2000298469763193	-0.2327328318441993	-0.8859716035408772	-0.9022354460825176	-2.0721716828481034	-1.9555491159657283	-0.9648629998642175	-0.8902655817442998	-1.6230186183006483	-2.5921006137253504	-2.4634101328643494	-1.4771479330915438	-0.6362329705387467	-0.963419434976047	-2.275489562965268	-3.0122265739683454	-2.434584849886589	-0.809894857746014	-1.1594345540337687	-2.8313965725938424	-3.1712908664744615	-2.9839026852611696	-1.9361317108862734	-2.393836492216642	-2.7703404356630337	-2.788126223200526	-2.1249213165039857	-2.02407168831012	-2.4265437064895328
60	-0.5228253589781496	-0.7330432515710271	0.5890557155042019	-1.5661137064493853	-1.6781978564807312	-1.3623936141902917	-0.10197488192799731	-0.4972280847393402	-1.0134885285538584	-2.485549682063824	-2.19997929971292	-0.9231411791382562	-0.6644052846346412	-1.9281389664606525	-3.1064059655915273	-2.596309416891604	-1.4501123391732909	-0.8938106871926552	-1.938104743832647	-2.6693441800433906	-2.99030017097805	-2.3570260942077725	-0.36083477644417383	-1.4989004097288239	-2.981170646770143	-2.850632898762927	-2.5862564975291678	-1.3031803336619954	-1.873628969230418	-1.9522399853054428	-1.6884733395861968	-1.349377032687816	-1.0031539176409248	-1.2237554757692621
64	-0.6167442783043205	-0.8823712445869546	0.707800624967736	-1.3964164221793436	-2.3171946943907344	-1.6784644084514937	-0.3369888356760557	-0.31813815155769454	-1.2223463027610402	-2.8761656211716073	-2.674689524573352	-1.2063966959058623	-0.6702396852737499	-2.2681093158678127	-3.535753002776573	-3.0251202506936044	-1.7010990338292222	-1.266154643676741	-2.743307821977012	-3.0457546634070103	-3.1777317443726285	-2.4616091189223637	-0.13368079032525396	-1.8613582802507784	-3.1479480187093	-2.7159733703706097	-2.2724478187407704	-0.7327271681405813	-1.4765832386883675	-1.3238387074425406	-0.6619514806247232	-0.5575716481436586	-0.011892336390689592	-0.027349483152718526
68	-0.6667094809865507	-1.1469365329395298	0.38515567682298557	-1.341746922920093	-2.7670111586328647	-2.189800733759615	-0.8744780995225017	-0.38965991041032255	-1.490163322501127	-3.2395303167568854	-3.368141642649824	-1.7995821192129007	-0.9468647813732818	-2.5302784379018224	-3.851852884104352	-3.730563869594293	-2.250607484857313	-1.636235709827642	-3.1173777501555007	-3.3828134451335337	-3.6455426124084385	-2.812087051921159	-0.2797878079502962	-2.105049843241779	-3.3571236048816218	-2.9566171094633598	-2.2281179371846016	-0.4637172210429717	-1.3872225249552415	-1.192780372469171	-0.14215987884869188	0.0210782214467025	0.6118479951669633	0.7490256409807488
72	-0.5880647286826682	-1.5423146447342646	-0.30866974514277246	-1.3506772484056637	-3.03733753391166	-2.863833420198715	-1.5348219832770467	-0.6617673618774769	-1.745595450762473	-3.556640377601767	-4.175941933579074	-2.5630831653733197	-1.404553886682114	-2.590276711599828	-4.02833603795565	-4.569482314970735	-2.9891512318482603	-1.9042094897830926	-2.9258270189801845	-3.6102561859533386	-4.312528599341404	-3.3465804969217903	-0.7564861159298694	-2.060850376648049	-3.5331690222227943	-3.5399236589702667	-2.47425054879157	-0.550990222493466	-1.5434815844667311	-1.5731863935805763	-0.2577980750250868	0.35322099834907794	0.7615838627660588	0.9524221992288184
76	-0.44260588176559945	-2.0422127195295774	-1.181904432173754	-1.3333239521695692	-3.1867279925951544	-3.5989301113817147	-2.1272115653690533	-1.024959919249078	-1.921435828126136	-3.7941722774079407	-4.933412539424213	-3.296598426125131	-1.8588265133656912	-2.3912360607809466	-4.036263932527919	-5.319704042355172	-3.7146568204553776	-2.0179600664688615	-2.2234919015059735	-3.622078171168242	-4.955821501617392	-3.882595052453249	-1.333606239766513	-1.6135088164600342	-3.51670717305171	-4.195171345609382	-2.8241803574783946	-0.8122189024445836	-1.6433844524853747	-2.149337286290974	-0.7261580210471814	0.6236116274347788	0.6339441521851504	0.7962174991532267
80	-0.44720172769172495	-2.5893590384911835	-1.9917938658971073	-1.2386950223166264	-3.293076506883535	-4.269383896538957	-2.547353738075386	-1.3624497617655282	-1.9951165864163671	-3.930335273356276	-5.487034783815026	-3.828350057473017	-2.115439648055635	-2.00234150380993	-3.8647625348743704	-5.773046002117575	-4.214312065928488	-1.9721594999112178	-1.2518548933847804	-3.3301780139767523	-5.305399404482351	-4.184103001521116	-1.697507019525547	-0.7818449715901792	-3.148158542314115	-4.532794940948371	-2.9509897157550338	-0.9006147361905218	-1.2973060575156328	-2.4207937656318577	-0.9686811541895997	1.1259945602598591	0.632989524196838	0.7679008226080507
84	-0.8642038085099286	-3.1220531384798784	-2.543452971712554	-1.1094119520787649	-3.432559004700321	-4.787456977201163	-2.817029230634877	-1.6002583463320506	-2.0083124586898746	-3.988081445161775	-5.770455822680756	-4.088077534844612	-2.0653965421028797	-1.613810773589704	-3.555146685207467	-5.8355331273565385	-4.3566474804556	-1.7840248301286439	-0.3621044447816512	-2.7342116763700943	-5.182705866126351	-4.067638863784154	-1.6017355878444341	0.2499872290736998	-2.3767406880453272	-4.2482523810893795	-2.5451340611095548	-0.4751085627004601	-0.2561655038088107	-1.967341775695476	-0.407597332163741	2.075143093591944	1.1463094920780756	1.373296495785079
88	-1.827671046410965	-3.5971863178985686	-2.768959753674942	-1.0772443982583078	-3.662045946412182	-5.1416573394660725	-3.041898481318358	-1.727787132669312	-2.045740599235636	-4.042555798814524	-5.836426243351599	-4.122072209441401	-1.7378549531929044	-1.4521048032338122	-3.2161025919777777	-5.577257619128007	-4.143306244879733	-1.4682966433647457	0.11923736303742506	-1.9609702776036524	-4.605917918974202	-3.491965046649334	-0.9818161105163004	1.1828329533277209	-1.327751871571455	-3.301025859127869	-1.4821679554711424	0.6202753170565445	1.409419652241423	-0.6947936398130449	1.208129283715819	3.446350804210788	2.3121352137363944	2.8505086826835284
92	-3.2071924128620903	-3.9943020242934084	-2.7444348265975793	-1.2947308984492583	-3.997336139123395	-5.383490548846958	-3.3161363517960174	-1.781540627749967	-2.180475229480181	-4.1827082528368935	-5.817657932852109	-4.0436615841816055	-1.2789115873472305	-1.6542059141356042	-2.9927027149935905	-5.195999132389176	-3.694433918208462	-1.0297023031940138	0.029686355888398498	-1.2370460002184338	-3.7963306807990977	-2.5833768779380497	0.01931914496014547	1.7215617851661087	-0.2791770689591471	-1.9653327415437492	0.08966661967050228	2.2600943985143913	3.2847897923506237	1.074537751345891	3.6237320808472937	4.937351214341027	3.9057106873131007	5.008076655141466
96	-4.603030669988573	-4.2912354360956035	-2.6278300218993027	-1.831691141272336	-4.381301391983931	-5.55977438476663	-3.628343811411212	-1.7988537504555844	-2.413007730113796	-4.434133995305132	-5.824474320011412	-3.943541516837948	-0.8624609090964518	-2.1714148466600385	-2.9861693306869657	-4.8975143308966835	-3.1718058506040205	-0.4694280612537729	-0.5470688925282382	-0.7889670709717642	-3.064924232374115	-1.5753910501759623	1.128277418148993	1.7120571093249322	0.4571070957563922	-0.7088793498261574	1.7992379619948364	4.079996575544946	4.773400294649983	2.730432980319454	6.155636771873062	6.088121398813541	5.41918657841992	7.283555966107859
100	-5.488906369656248	-4.430377472182292	-2.545531743298492	-2.595992081763621	-4.665589797638242	-5.634102330288198	-3.826937904232564	-1.7698835089820963	-2.64328550625054	-4.694582927295267	-5.839842781581498	-3.8111321829895104	-0.5839937314547873	-2.767348044084285	-3.170010797126497	-4.756669509322351	-2.6800367764519413	0.19859136590886042	-1.307469245470625	-0.7211365085514672	-2.637711279885219	-0.6924355608623944	2.0774526543618697	1.2194939820971602	0.6873717886736412	0.03853197758602185	3.2177197851957406	5.635971055106478	5.36655901507623	3.6583139804029274	7.989245394562981	6.497916205212991	6.295359595616976	8.992131210512383
104	-5.437872396091248	-4.308329571336869	-2.492486947442427	-3.3298540031285713	-4.634553420763477	-5.457422719528217	-3.6716501620098816	-1.620504017553213	-2.7011041573039027	-4.736163604222757	-5.684442505789764	-3.516138544741988	-0.399019329732548	-3.1218562047340375	-3.36149691686704	-4.644015300469813	-2.202226871652436	0.9320919490169333	-1.8589080525195378	-0.9433302855516695	-2.5200617249759567	-0.04066373025045094	2.721844666284741	0.5010407554374168	0.43524500617764705	0.10048211340568891	4.051366318964399	6.592871172472032	4.879087912638763	3.5277504831892337	8.541820504557023	6.021882041986151	6.1903033100240625	9.631587004185999
108	-4.319379795613169	-3.8062240981325175	-2.310007327923285	-3.693872919293252	-4.077672471241732	-4.820057379950886	-2.9480543062165463	-1.2396808831387223	-2.4240386424852374	-4.290817726746073	-5.08718203213901	-2.867206327828749	-0.14659625254812345	-2.987365476695298	-3.279623261754537	-4.2707877051291625	-1.6093525845903398	1.6634905296288256	-1.9037904691313794	-1.1953065365176636	-2.4828987058894865	0.4320348490297613	3.0781493109234885	-0.12222120134967003	-0.0703363267791668	-0.3661619117552023	4.256903637628817	6.84452102840406	3.5259890467312784	2.4333519874171676	7.69986246072329	4.838689791860631	5.124776827271143	9.082706428484386
112	-2.365182155359666	-2.8533484863720373	-1.7623203948349315	-3.40776204202489	-2.892725460378455	-3.569841375874712	-1.58540558414726	-0.5400450216009949	-1.7453495219987505	-3.1900508323237036	-3.836572160571155	-1.7200254158462571	0.349889784167959	-2.3169093073522706	-2.677324049865773	-3.34181498637474	-0.7407135348692274	2.3163227976491614	-1.3872725928567262	-1.1691691845939078	-2.1889388505983387	0.8827413894300752	3.2721300042508727	-0.43002882491258787	-0.5182682858733526	-0.9727646683928517	4.016384114615464	6.505709631706987	1.7992018415801938	0.8157610872653525	5.809070095654553	3.349795333034279	3.444226256257778	7.603253345366619
116	-0.07321190070503122	-1.489186044747857	-0.6737426502383554	-2.383462184610388	-1.163256165428539	-1.730369325083752	0.28828534411124557	0.4808380293627066	-0.7407936435116034	-1.4796272478893613	-1.9285870741789424	-0.07594998906748772	1.164492604176638	-1.2879337039855236	-1.4785379134041967	-1.7352145866453104	0.48775324102279866	2.8249025273526702	-0.5296783433892532	-0.6664177162511118	-1.389430280992148	1.4591360055323443	3.4305279168300826	-0.4160742153153278	-0.6795737130173651	-1.3187615838133915	3.5934665112368176	5.792718872703892	0.21699117069295654	-0.7810618857690972	3.4417679222948685	1.9690262029525758	1.621676560122274	5.6394023752882445
120	1.9999241778425225	0.1185316440450662	0.9511823630159758	-0.780476031717079	0.8435110428494348	0.45726472023910275	2.386247152025842	1.7166740850975772	0.3948855986161994	0.5650033340494254	0.38096716903822664	1.8859106254646687	2.2031524125741715	-0.2091958368503332	0.16006956954119858	0.3941045393530347	2.0088088461703104	3.1528110424549562	0.2761423580827148	0.2961172454033463	-0.07864056507759759	2.1921346132245474	3.5833537488111777	-0.28840565608642094	-0.5204591737958302	-1.2024219005744061	3.1598274628016214	4.8704914923723805	-0.9154912806285176	-1.97469841935366	1.0853242846743705	0.9222839451392608	0.021225053763445658	3.575860729726092
124	3.46173404773274	1.7266043381013754	2.903950445472795	1.0506304475961314	2.77878999008506	2.615405314517952	4.384555328743295	2.988049738015592	1.4388978444964047	2.5508489544361903	2.670565360002466	3.872432460544703	3.2381560720704137	0.639593122774831	1.9113652657888907	2.6610412530471415	3.6146588234239125	3.3017618572796974	0.6626735908943538	1.497933622393008	1.4926855526430745	2.9671254083107304	3.635879030584692	-0.34817272336792715	-0.19461199592092918	-0.6966461521679869	2.7029344967310442	3.7624003792185037	-1.6008343656177055	-2.678738587292011	-1.0636028024522954	0.173598810592093	-1.238731142731269	1.5759061535148107
128	4.216750611149382	3.122333995565351	4.864692675706113	2.7157928875066855	4.3721065410855156	4.402940262168556	6.0622668113238865	4.121276368226369	2.250335926096402	4.156577099796179	4.554976928654818	5.605774388465188	4.029523839313735	1.1435197562910517	3.4388427647552566	4.632587898002326	5.050139891271839	3.3129246151250493	0.47386175274419634	2.6402187280752996	2.9578442498868975	3.5928347020037936	3.4275071534404926	-0.8162288645163687	0.07782205174586669	-0.05207328485216254	2.070430273550742	2.376128905972897	-2.0595297761417397	-3.044040672246177	-3.090700618570022	-0.4886573838771138	-2.2546520176229805	-0.4046869565759962
132	4.463081825432241	4.225755204022156	6.5543293787460986	3.945813169053893	5.561023698117968	5.687111363357489	7.385485153625171	5.02813147229054	2.8368403839967242	5.292620168674772	5.88396547739295	6.948856813052747	4.4623665696967425	1.3853610719036056	4.567270267399415	6.047549709310262	6.138024314642139	3.263391486511705	-0.15736839135492606	3.512482872677854	4.046921719824009	3.926293601613551	2.8441858219817187	-1.7026328997539995	0.16683727460700512	0.5021406995493247	1.119079825436924	0.6248330458124324	-2.5251018937254384	-3.2656872190040778	-5.170691000281442	-1.2669814793069776	-3.1785151878215783	-2.4608919558382367
136	4.570832717799356	5.12856243746056	7.859383563225812	4.701172816804996	6.512079222450182	6.612635595792493	8.493048646464828	5.740805611421386	3.338033190882579	6.136667712930476	6.820692521994495	7.9586782254507025	4.618799674770536	1.561417814127257	5.363996969031672	6.949478608705474	6.866752130337678	3.2534739889018565	-0.8828490950229124	4.103775967727341	4.7454690813415965	3.9768507380215508	1.914880509310289	-2.7912549902061765	0.12693099645515718	0.9299939251307814	-0.12917485800554512	-1.4384667837064773	-3.0551996153942724	-3.390629759811065	-7.328314762686749	-2.1892962400475096	-4.043902863783047	-4.556348789155505
140	4.908935534481129	6.036667331713226	8.851700760427482	5.158788191168427	7.509077530022115	7.514433841806687	9.589115118612078	6.3772063094301075	3.929262866590185	7.013834935599874	7.741103152757839	8.832217194192495	4.734208095041902	1.833986992973998	6.077739223394198	7.649218539952717	7.385328751037675	3.3795170698671977	-1.3242484297696921	4.590622413489139	5.298801408740953	3.917855729701871	0.8320757129642132	-3.749428739618075	0.1673755790537738	1.4196066820542654	-1.4319713079538339	-3.566111555632664	-3.4757368476851793	-3.255711785679654	-9.318079924899402	-3.06614541233319	-4.697242724957008	-6.446736796315107
144	5.6967820977385895	7.138207417585669	9.69021317896474	5.589012608722352	8.761610962681305	8.710297562542305	10.803139659309167	7.053452950789155	4.698541152535517	8.182983377777454	8.997794128588906	9.77170274174728	5.056625353444185	2.2150962296826884	6.966433030659738	8.529032685680617	7.903869132113741	3.694702139109274	-1.2702678409930164	5.2078118192795175	6.052293285348091	3.990133275448343	-0.11912094771589204	-4.300062168708816	0.5142010437380831	2.250133031886099	-2.4192016063646373	-5.384949670547376	-3.4892814071297424	-2.5980067187519427	-10.706683131842736	-3.597916355585934	-4.881663786960872	-7.767206172406291
148	6.929571134237913	8.467576959212243	10.472713444017925	6.18656633722466	10.241823170553015	10.284994099399096	12.092447250353295	7.7921824258527534	5.566341386092823	9.650194143726422	10.67788884328018	10.841866465852016	5.686962590164505	2.5539691383730148	8.113535860557771	9.79631040007138	8.55194471107443	4.167639245001404	-0.7808669785811737	6.079981311706407	7.219654065024079	4.348185528267492	-0.6950387937163871	-4.36185168118709	1.249049779599443	3.578437080885359	-2.788870566002602	-6.562428934694887	-2.8751940654642216	-1.2641776768238222	-11.111507387717625	-3.563169947211136	-4.419653404521379	-8.234523752403186
152	8.391236284050981	9.842743848745652	11.136484118001244	6.946392041788218	11.655415505546049	11.992213218929114	13.242394413892828	8.484350183046848	6.301111682241857	11.125740023179738	12.498420683776553	11.903409927832522	6.494126303489161	2.638378851905018	9.347019171957685	11.330093355183326	9.279925322944953	4.663093078284195	-0.14041195774390544	7.119523507262969	8.71921918574976	4.94432352725067	-0.8177379945136266	-4.079115380478812	2.2296836319896087	5.284036623011629	-2.4884958204383434	-6.974999887022387	-1.6531443554148348	0.6218628271614841	-10.44413850054759	-2.968274824277677	-3.372071257660655	-7.834543208369094
156	9.736273740982236	10.918568583578283	11.479337663278201	7.6546616360998625	12.576145140367426	13.342237438848269	13.965831721331462	8.931095100742168	6.6313056778376405	12.160293548399773	13.912610972564464	12.666302648989898	7.164066773446894	2.3477663934560047	10.317516300855072	12.715908018432527	9.866078351860565	4.969728934138431	0.3113897434955853	8.059179285682802	10.182811711351418	5.528580174792897	-0.6181746109613844	-3.724039068356494	3.149944297467077	6.979704362413341	-1.766330595325295	-6.776777250346337	-0.10341183815119506	2.6522381238732002	-8.999952293561485	-2.060831779998926	-2.060851568740942	-6.8689098184730994
160	10.606137248917879	11.337198228822615	11.297753305521326	8.003074625790273	12.676381079140233	13.838535273898948	14.048758471305197	8.948052383719375	6.396379931513047	12.389187781525484	14.380344354562261	12.838442770015247	7.360961895477858	1.7610650018098417	10.695092174230398	13.455579723718357	10.03119084686606	4.877036082352195	0.3696044972148028	8.603892304632241	11.138176889908591	5.77355860206135	-0.3740507354829198	-3.5321845919121695	3.7094664480014408	8.191792467415857	-1.0530812713738182	-6.324475749260505	1.371461626404946	4.307306755635105	-7.330677013962523	-1.1932859390648793	-0.9289218163879132	-5.821977123820208
164	10.742316218910974	10.899573298592063	10.552271816314617	7.7631463808516	11.92187496990016	13.23720261092742	13.463324512822338	8.473932244840729	5.650644764938816	11.744765252024564	13.656491245122725	12.289699523414852	6.912524682712347	1.148095247231038	10.36839959387846	13.234845128023217	9.60046193560003	4.277504910159811	0.07290430348586384	8.60974023552568	11.260229082288427	5.458860383556569	-0.3706352999389459	-3.564989319383667	3.7916717433566367	8.605865456787903	-0.7348228078409482	-5.993971809512672	2.4587697920710117	5.209444509705083	-5.969863399691948	-0.6203109010293856	-0.3148528627552591	-5.119016157577436
168	10.06632802329102	9.667431806951944	9.446193671219014	6.924104673070074	10.609210941231895	11.685113877358274	12.386505095680207	7.619579772785116	4.657095897360615	10.508604976825257	11.935863464737889	11.138278933060189	5.913623318046831	0.840004620815441	9.52402589300737	12.09723278806094	8.619207360440742	3.2417449869325683	-0.32793363845999574	8.179203966471077	10.545299503404975	4.607840049554066	-0.7576683740560044	-3.67712782885091	3.539939871433605	8.231825807768884	-0.9465687251034298	-5.989278778213485	3.0945424955439647	5.3098296985080315	-5.170749651251753	-0.35398712664876414	-0.27452096273730586	-4.914422022809562
172	8.709164597457274	7.944917658774019	8.35472486293955	5.7203783844526965	9.220820403660584	9.66253659669819	11.119502993166188	6.627997858479537	3.771565666213186	9.172929740634524	9.775096868630799	9.711585020341445	4.688856589876863	1.050427434176539	8.557709672302552	10.429839107883495	7.355155926254235	2.020784134531189	-0.5174497948933634	7.614734153595689	9.311642623279914	3.4956755549865233	-1.4743968211142369	-3.601366510835402	3.285430899908209	7.3935904316198435	-1.5035129747577667	-6.247189029179756	3.4808459194038477	4.901782977126141	-4.8048424599453545	-0.16061463911513216	-0.5545254931754582	-5.029764639553262
176	6.975015622648567	6.151206954684539	7.6332258985441195	4.530671585088253	8.175976732592506	7.760426024870919	9.956395124093476	5.764630779970853	3.2738442338302853	8.187381723713614	7.83171842505103	8.401975610500918	3.6363375095111468	1.7492629245462432	7.86436555784214	8.770543076306215	6.18237112391738	0.9616448258916298	-0.2897382669286222	7.254472714228163	8.028679827446817	2.5208237107528415	-2.2789452018420415	-3.09977602176061	3.3656034384631175	6.549866659793743	-2.0077271410796578	-6.486744387461656	3.9559736151952323	4.453814972123118	-4.473842609554243	0.30060863418976663	-0.7327495198823156	-5.073137270516755
180	5.243267522925352	4.649548042002475	7.411118011836821	3.6988191511228052	7.619783859088311	6.409586413413297	9.066446281430713	5.193695532083712	3.233370295944191	7.733095626380352	6.558178408277397	7.489209633038585	3.0329184455591696	2.6582372121454076	7.625734309970505	7.543219547300416	5.403386102385594	0.3627600064655582	0.34685847075627035	7.282977562636419	7.072679024959364	2.0049817511482346	-2.8699147628805046	-2.0964562839983385	3.9351994891948254	6.047912582386738	-2.0733823723897244	-6.377762778392325	4.793616759595279	4.356082428424557	-3.7683827781902157	1.2743573156607308	-0.4503506708695809	-4.673111903789906
184	3.838233938063297	3.616620293069229	7.499936561722439	3.3686783228700268	7.374896030879689	5.705754742521845	8.447120645176977	4.90707157803442	3.4836027534270384	7.653485755670703	6.014459117963144	7.022861939819027	2.9060585425438887	3.377415171679145	7.7194595142016444	6.867968541925183	5.105177866444161	0.3347812882554055	1.18854093251558	7.628049354367736	6.549619658146417	2.031907791729667	-3.034917585339889	-0.7214443665409548	4.878727423748071	5.953192219008941	-1.5419614276102176	-5.7329616401887495	6.047630294789795	4.724756228915864	-2.519654267625301	2.759807818120656	0.39604836602354204	-3.6929807569725064
188	2.9206650183370892	3.0119221134436014	7.482790928068218	3.4251449021647185	7.084801179164598	5.419161782887756	7.966285685453468	4.7446946977986295	3.7218568231074873	7.579931240017786	5.896143898382711	6.827837449954971	3.0435419005799553	3.5787007718331796	7.80522439893384	6.549641115818482	5.1311335434111	0.7441040854740705	1.9565925548745318	8.00797555808991	6.285387500152651	2.4180922447188786	-2.747836106038455	0.7533711772017719	5.876690372888613	6.053086742377337	-0.5627452120878109	-4.61452292230941	7.530447464050192	5.373874173901754	-0.8962838031074317	4.504018295360624	1.6109528500892292	-2.30258249655165
192	2.4495668349409265	2.6514131955915916	6.942222577687416	3.572701683560972	6.462991698160054	5.172250734621986	7.462126713032499	4.494703758335802	3.6810839083239544	7.175414544109161	5.751989826938804	6.625301344356706	3.1284911553551034	3.1645197788450723	7.537774066967485	6.241427405811735	5.183343874242416	1.2722721067731733	2.446292394183813	8.102603891896408	5.979711517495453	2.829396240720231	-2.1701140348957444	2.046086067755882	6.586512548983447	6.024578556108981	0.5016983138769188	-3.301950684793869	8.928907371865856	5.9603700487332505	0.7005344015554479	6.1367697560820735	2.8225595879817544	-0.8756192900484902
196	2.233278268897647	2.3340756834228213	5.702515587714348	3.5044319541190787	5.497432218023394	4.677091586702221	6.844701272849406	4.018865575180488	3.280129901233849	6.352927191907178	5.262025819844545	6.201007827361538	2.9218029902122677	2.3133656920200307	6.7842383213419035	5.681280598601702	4.998368727462119	1.5711340864568517	2.6206185751554245	7.749462108120036	5.424667821539626	2.9759828969205695	-1.5627975424410343	2.988643877113213	6.832781297598739	5.659703717247487	1.285272952649468	-2.1458165591422707	9.981682752203458	6.208404048503754	1.8728228760165109	7.364504318717205	3.6941859628868223	0.22011235300757845
200	2.046607727605639	1.948649997559685	3.947792758511175	3.0718712729144366	4.478420246261435	3.8952214619520102	6.145499213915258	3.3326435004970167	2.668916695532141	5.336453901169083	4.416877735430487	5.527184472434361	2.3918297230414107	1.3915479148063814	5.716834530701878	4.859405028472149	4.49656485375957	1.4369399511297658	2.6011211806428833	7.048499566402247	4.6516976239062275	2.7711870600352855	-1.1604218453673356	3.5789689927339916	6.696164591095519	5.009762751328616	1.61571669170623	-1.3951523268761385	10.610663387212115	6.0765695418480785	2.446210378192809	8.108663538487553	4.098254193449289	0.8128438571434757
204	1.7565215781686638	1.5092359743160713	2.1473631804609976	2.366065973030164	3.829491367208295	3.0368897838212376	5.494774327710281	2.5994582110578484	2.1449742263044316	4.5293369178858125	3.5048222453320825	4.7740230439770235	1.7228269533529168	0.7815671543415825	4.725868213165986	4.022940148687047	3.822935094718134	0.9120358801703227	2.570882790750356	6.3132991631376	3.9207627674295167	2.3651432931313705	-1.070640918889604	3.94172500568836	6.452747805516239	4.364034164854676	1.5864896734236977	-1.0937570305866124	10.93396374802916	5.774333462441473	2.5470304424829404	8.511507966486583	4.158336628905506	0.9920051668870598
208	1.3864054644867232	1.1139315338620928	0.8324213006937484	1.6697924094957273	3.841384877996748	2.414059632882136	5.046825396193538	2.0468335099994786	1.9870979735749787	4.27072142476434	2.927072279215688	4.2102889908348855	1.205487963493911	0.7126475554593439	4.204647530430428	3.5232760817265314	3.2604193605121288	0.2592195265901015	2.6565582685156133	5.8975133746976125	3.563575020376007	2.0407710023853904	-1.2429578272909103	4.230773438262416	6.40371607117348	4.081203927226468	1.4707922898351904	-1.0939491959608831	11.163306208082451	5.628216729259357	2.501238339784834	8.816717125567077	4.1466674699994215	1.0219732497162133
212	1.085175749899965	0.863056776728767	0.3439728310960449	1.3061259951993582	4.466623771834431	2.241776222291109	4.897395598444591	1.8497470570592687	2.296728605193749	4.621940601123691	2.9535932466322494	4.050099362638251	1.0752556296857532	1.168625709444218	4.327204693359526	3.5978975205182326	3.064245693099705	-0.18144728197539947	2.8605074810286455	5.993646606571598	3.7752416038564927	2.034029717078314	-1.5155881605030366	4.532732952117961	6.694179518010931	4.373932827396823	1.5345094165206337	-1.17050206365701	11.452625245743103	5.881684765271023	2.6229500704345723	9.200372672694144	4.304733742335938	1.163988229673822
216	1.0210467551201639	0.7903258780552781	0.6899000388846958	1.4678606949939592	5.306793676329417	2.5075950559247904	5.034238802597386	2.0441455789454737	2.9359323904298904	5.311264978350599	3.562369099205956	4.331753243000142	1.3883779013866506	1.9113222312354714	4.946788298515199	4.2177448166217255	3.313885680414981	-0.1726389969996982	3.07569717584362	6.520626051652236	4.4817023164130605	2.3877849518571646	-1.7048777298798627	4.824957835413367	7.2271175202054305	5.176210390373708	1.8671905947273253	-1.1578153342578885	11.793547600534213	6.549919111881013	3.0257418079277527	9.656553244052164	4.698424327432052	1.5185534915731256
220	1.2630492416917836	0.8465744831645763	1.577153201889653	2.1185233539499486	5.811952099431456	2.9836640282640916	5.344073758937931	2.5136985715343805	3.596942415692763	5.875102028318649	4.4517474062103695	4.894959437409482	1.9997996041352566	2.6010980540407687	5.675032601333541	5.090640055201568	3.8668961427333635	0.300232767300762	3.171787492373476	7.166313153293517	5.364795671269646	2.925600998167767	-1.687059517415694	5.01010368989587	7.7224602504306405	6.172140105876805	2.334181541271675	-1.028360960271375	12.022186248943772	7.412491302848979	3.5690879731666536	10.00704667425856	5.189535604726052	1.9782822082163771
224	1.7201461748562672	0.9380242204825161	2.580986731688591	3.0080492420544536	5.583499417513127	3.365379324999328	5.666729912755871	3.0503492278332764	3.963129271991741	5.913928970664468	5.208543764315511	5.463609204803125	2.643222563745816	2.949346534912014	6.092426761504087	5.813326820955085	4.436238754516126	1.0262939904050725	3.089910737819453	7.5567927169744	6.0265836563541635	3.354522458190191	-1.4389884435562346	4.994757162835007	7.880120734346551	6.96242521435516	2.6707909039777262	-0.8764988757892198	11.925916641642885	8.137185076196305	3.9610960383542966	10.02030751559471	5.528959737169869	2.3089904726859842
228	2.1755025331884146	0.9893313621338312	3.34777235139571	3.7912282848006273	4.610938537400247	3.4500460537589537	5.865846619101294	3.451702586042369	3.8744029900960024	5.319577203671409	5.530663476331827	5.7856211516219584	3.0640680712587227	2.836198084346246	5.9726385919456835	6.083906158345668	4.744790065230029	1.6834703641349609	2.8863983081422324	7.458096485381542	6.197969420997139	3.4341511639675413	-1.0284092400335212	4.761373507876148	7.552679996495281	7.270536881210309	2.6557693414393584	-0.8292633274122317	11.385049791201801	8.457440354928755	3.9479219813807216	9.565214132954647	5.509242043890794	2.302639955429069
232	2.3948125778770195	0.9871452425829237	3.722278585572853	4.183261383939013	3.3006513035410463	3.2450714029397947	5.877773746909315	3.6002457050978753	3.4032430562880083	4.3411311993668456	5.372824655319199	5.748306736738141	3.1295630852840377	2.345255130568668	5.3921794755217975	5.849783882630618	4.6633019329589604	2.0014064261450546	2.6974556377971233	6.893372518301474	5.868257984604239	3.1062743585361954	-0.5729165062744721	4.387645710357806	6.825140458994984	7.066099625867089	2.2495052757689096	-0.9519457793043317	10.458675358115867	8.294464090386617	3.4658355625386688	8.701124169315953	5.077194677885662	1.899807925196122
236	2.2482607307891413	0.9807739829096785	3.7506735230164217	4.076243867119362	2.276203388189296	2.9485216066304054	5.724631295055973	3.492532006029006	2.804049007965623	3.4529750259958214	4.9429092282430105	5.416442857418547	2.868062012106984	1.708976145244271	4.669741141927078	5.315472112586803	4.263216007913172	1.8860409212178186	2.649765484795581	6.114986881076034	5.2696871624460515	2.5169014867179444	-0.18992373299331278	4.00413321437784	5.960533603878101	6.545084459946198	1.6172028739153073	-1.205569621857047	9.364432311256984	7.763337592551556	2.6703872613243265	7.652713756313521	4.347884167184269	1.2157458036245676
240	1.7810683205459594	1.04241847728758	3.5854394345358926	3.567554941706901	2.056406015926238	2.8186552453402447	5.489204869716529	3.212433568473247	2.368187183123075	3.0989086549720284	4.561785209582453	4.97873591119699	2.4289824901290054	1.198377606227317	4.176700581495861	4.813732611900448	3.760171165509532	1.446112509891092	2.775590412761595	5.454834447440025	4.734026896922242	1.9236381005357368	0.0402325129983315	3.719853868629512	5.2497019635218996	5.991168483866674	1.0267915699784014	-1.4784480296001024	8.368133523794368	7.074926835317458	1.8344681216654104	6.6906146834252045	3.523318043396347	0.4638111579629005
244	1.1933326691062653	1.2136430709714903	3.3686203871554516	2.8959376738865803	2.782578938134576	3.0121672077422987	5.268268095066822	2.8744723724271033	2.267969125743655	3.4518268021217673	4.474070060878131	4.639214503973144	1.9961782643464259	1.0042684052861213	4.1277160540316435	4.618685233852856	3.38777183631059	0.9188253856349008	2.984602443789066	5.14021967543772	4.508698928893729	1.5488226374622793	0.09432365721491581	3.562761536186166	4.853375422621894	5.60792730822904	0.6890530568845759	-1.661361451722824	7.64871261572914	6.403993113561696	1.1873495548788175	5.991136058939998	2.7758173872483267	-0.1668749298412469
248	0.7450787406229769	1.4727520905504572	3.170444003683631	2.326492303696484	4.140710343397029	3.488874665034822	5.133148180399422	2.5749261314231306	2.476912492220518	4.3208875547036	4.72159622907643	4.522267807033299	1.710865374060302	1.1611770362147331	4.470894325412516	4.810309397950351	3.2843143857050956	0.549644766850348	3.1148221414125636	5.1820297110377265	4.6408243062151735	1.4728454314239399	0.010977870756983458	3.4734291942638817	4.728998172264529	5.425088391912099	0.6456204040439459	-1.709620352243377	7.219100933921959	5.809513077373405	0.8012143353260662	5.562444672845825	2.173143142935582	-0.5979701861543024
252	0.6371540411121354	1.7391037897070853	3.002171747257281	2.0423028417522504	5.516737447161665	4.03132819111582	5.106862532119839	2.370895379756252	2.8058197427481395	5.252482400984362	5.140733705892965	4.633437621816099	1.6326104361322664	1.5433009823935175	4.933431136073336	5.256320940098206	3.448394289847108	0.48849072929074255	3.0312361640692767	5.393440232964903	4.9846649044071185	1.6227692324675378	-0.11871037602255455	3.3542106066895134	4.680278289422447	5.324159608750172	0.769376693213608	-1.6523725944762315	6.946695787057227	5.248137937646942	0.5901133403184261	5.278255926157327	1.6858198600167853	-0.8647515155893869
256	0.9257045960896394	1.9099644374309162	2.864938251891482	2.0845696873486617	6.298772795986776	4.36198042721948	5.163152681666441	2.286370748469412	3.026953927980845	5.7664480063761765	5.471994386208956	4.885829436364418	1.741791601551801	1.9307745646366763	5.188982473623932	5.709044442067982	3.7760987186461987	0.7443667631429324	2.7131173542187628	5.519575105082967	5.314301954203527	1.8504230929386045	-0.17820294156382135	3.143482915571159	4.494443882085237	5.15378855357729	0.8689010121342388	-1.5501145085298795	6.657731993078538	4.658899772325544	0.4104261685976389	4.990858542239382	1.2589515415831105	-1.0461717817596101
260	1.5058706960805492	1.905008668858223	2.7811858583804026	2.3569936692810964	6.163980468446234	4.285674084333522	5.242170320627097	2.325743430941417	3.0088965816824413	5.59792421834951	5.50801275770005	5.163755880670045	1.9692795226922317	2.1147322601332266	5.046301828995152	5.950837120290522	4.142409314187418	1.2068668573426635	2.2796866836211755	5.3968362671970525	5.4648632865260325	2.040889258000326	-0.071948304590725	2.8678674625469283	4.083790768803189	4.853482234145061	0.8252435901787283	-1.4383643829270116	6.260807021546498	4.053345670003102	0.18828041803984302	4.648320663160359	0.8905511475966977	-1.1787502735894935
264	2.1585969870427424	1.6912367301202964	2.776237003946486	2.681466334248625	5.206873403754543	3.7741405868609816	5.2693643436907625	2.4744045671932806	2.7796232630169158	4.81624315953205	5.1893362867944255	5.374892221231947	2.224781507597078	1.9893166968664961	4.5489954833574195	5.897144302738095	4.463399398978803	1.702995415202608	1.932797784693824	5.04554747261278	5.412768827123867	2.174381489032309	0.2223021233429693	2.6365351610374805	3.5464029222595723	4.501987445908965	0.6679084284131807	-1.3031775918483426	5.813782200440019	3.5436241537271593	-0.01612027171654529	4.339485157500884	0.6562859995484814	-1.2187896936162723
268	2.627580159229035	1.2808047500698068	2.8274161744257915	2.874150507346129	3.8573458097344044	2.953873865299143	5.173648821166308	2.6855089596656647	2.4859192308604983	3.7672274017588068	4.601908195320996	5.465180860072595	2.4128858982201824	1.5926556547008548	3.936006774501625	5.605093465004994	4.704519736809973	2.0565404840045116	1.8445430947463577	4.6461009861945275	5.254732118691084	2.3057470263440756	0.6204095467162397	2.5781137878176708	3.112259856949428	4.262984741892027	0.5430028424858612	-1.107508894985181	5.494064317183509	3.2877869523009426	-0.0499994865287603	4.237320412428015	0.6616708023531845	-1.0799906226547555
272	2.6950578621531527	0.7081748825313358	2.828293077957513	2.8095719743365666	2.644803517339847	2.014366621653715	4.899022089987115	2.865368597425674	2.2781586589515714	2.8791332172181923	3.8904380700115726	5.396359430040053	2.442272895368888	1.07695007052315	3.4914979846540533	5.19463347077153	4.8380951759258535	2.1298634952177045	2.052338356558456	4.416830051714787	5.109167086099617	2.480951064521723	0.9424260234880651	2.7532625128851063	3.006239406625063	4.266542423920399	0.5969898089595119	-0.848298487905707	5.488778577298172	3.3869717035611453	0.21316835230413259	4.47587536635453	0.9539338922257953	-0.7178943735117402
276	2.236762279585262	0.008697664343212895	2.6137099200062415	2.458944076051895	1.9448260019791297	1.1032141419213781	4.418104160598289	2.8851413653963824	2.1981694642835294	2.446161740802795	3.1571895996491017	5.122548090399329	2.2424907627708723	0.6243612154455817	3.3794875059634637	4.748424041203521	4.801267134942175	1.8520634127586817	2.4234659610596814	4.474875438836303	5.017681109157745	2.6617345742734186	0.9821937655446437	3.099435798449091	3.313379279354248	4.512339580587418	0.8618631341155086	-0.5917828068097251	5.875032410093727	3.8087551497618692	0.7657788972594042	5.043342100761659	1.4610295258827883	-0.19333749960723717
280	1.2534035412614246	-0.7842310051191587	2.0481352754380864	1.8954142284222417	1.838898892528247	0.2740131907697463	3.7490367794750217	2.6296310358412884	2.1482875292898407	2.505700343481454	2.4158303676646526	4.598885047745621	1.7936264231219803	0.356419353777328	3.561972609109911	4.263058651651362	4.503456581189679	1.2413678137908963	2.7166161468582444	4.767694938066487	4.917882906895063	2.7232439449219554	0.6150854214397649	3.44911383711702	3.9270856281313264	4.863791930316541	1.2251906364025407	-0.4489105332484763	6.564514143582445	4.393849361770366	1.4493952952984535	5.764915451753581	2.008710140878812	0.33895686183228074
284	-0.1184976023424048	-1.624092693996789	1.1240220041506426	1.2657186953059545	2.1368019526892	-0.49124896402308227	2.9665608331168434	2.064394945654603	1.9620938251548319	2.862286798879988	1.623492832853284	3.8235523604178696	1.1535092563116072	0.2838703684792343	3.843193998170403	3.679952850587552	3.888899793343093	0.41819038881576803	2.7106120517958887	5.114031778775322	4.703481662319186	2.533086293500812	-0.11119446130335216	3.6156356243400256	4.6087183835972585	5.137541757964012	1.5064672193639552	-0.49881353848404036	7.34470556312144	4.945392119319505	2.0442986436728705	6.390140040476555	2.4117548404837805	0.7172161322605535
288	-1.6230988461523135	-2.43402218204133	0.00585015070078951	0.7380136232816532	2.5221316750744904	-1.2134585349917317	2.19600986879948	1.2841488090518423	1.5324128827505972	3.2255787767988235	0.760421929823741	2.8853757308590473	0.45958584431008576	0.32047286548765197	4.004775037191161	2.968790523662972	3.0166964454780563	-0.40358108180194807	2.3326442182775096	5.324938283827552	4.328299034634839	2.063388342416178	-0.9563925242119279	3.50267266342833	5.121829973640888	5.230482565071889	1.5898109634314868	-0.7082828265427514	7.9919738567753305	5.345874296042759	2.408925288794147	6.733046991515095	2.5851869517860186	0.8807396270449924
292	-2.9409716055050583	-3.11293172050364	-1.0217858527135126	0.4374479044360165	2.720182888792599	-1.8629827452353855	1.5766270120869044	0.5001023399124424	0.9108854509244174	3.36852525814263	-0.11000676425339517	1.9684004733933036	-0.11130919279367452	0.34846112044094474	3.940004815644485	2.1954626981618235	2.089234823674164	-0.9718819236059569	1.7144218639957807	5.322964177997575	3.8748817346016295	1.4520964585835647	-1.5680968721853452	3.172778121567142	5.35756014424934	5.196128355258723	1.5174250564410867	-0.9130492187335907	8.386284807012702	5.622571454157643	2.571315520470333	6.777760965401226	2.599123948210792	0.9205595827702624
296	-3.782761087403792	-3.5709214120353154	-1.6842633443270505	0.3918352117182307	2.596601002813109	-2.365094894159935	1.2022761076136534	-0.04226153705774957	0.3083884708247875	3.2168583788716214	-0.8502054789058362	1.2918653455542715	-0.4154658009053191	0.29382622167789885	3.705655565442703	1.5195991954584247	1.3913179600874186	-1.091409442053416	1.1400839061562937	5.185144411347245	3.5338320642896015	0.9613383984136131	-1.6351021486961659	2.8302130627701705	5.379128919371886	5.216410146894527	1.4759374819685014	-0.8882383681759622	8.560070016229698	5.916439995133226	2.70712708743396	6.682807428653656	2.636296027203245	1.0302437517857865
300	-3.9977908033525935	-3.7791390323592258	-1.8567432118267615	0.5124863373215138	2.1549446528387066	-2.6617422036679304	1.0674103471509342	-0.1823979015513609	-0.013373025659235718	2.833729975221618	-1.3266392912748863	1.0060456965795466	-0.4113213707552603	0.1671497072529677	3.464170208767849	1.114217516947003	1.157150742470321	-0.7219107132805	0.9095209217950195	5.084079252758416	3.498595705735987	0.844278214230402	-1.044007060276123	2.721887104791714	5.362620816996572	5.481975064742107	1.6763117271062207	-0.479388921242586	8.653887726869295	6.371256812222228	3.011965505624888	6.677011949847488	2.8728501724189917	1.378789182996553
304	-3.6508712676379047	-3.8042168521201294	-1.634919520065035	0.6268755777744385	1.4667471610230767	-2.7836596895509143	1.049872872562949	0.06055642649143498	0.1006552499971631	2.3305358827878377	-1.5070252380469338	1.0991669865513471	-0.18566307378623542	0.046950474262908284	3.3593370829644122	1.0556577417423743	1.433975216106123	-0.023884084015387802	1.1890840500374023	5.167242513962023	3.8392794035300177	1.1935857504273426	0.04371170316031231	3.0086104793882416	5.475825772765445	6.056560977903233	2.20073890130402	0.281515925411906	8.812833763760477	7.015358430316487	3.5491959959066954	6.912529451083918	3.3550863181283423	1.9832079360481791
308	-3.016736022962087	-3.796307554196983	-1.292913075997488	0.5572147355316446	0.6045700296396841	-2.8708553241726853	0.9531935429349093	0.4778337764596776	0.5887022003569315	1.7794773533716315	-1.505376573576609	1.3804661000684302	0.08529672005098865	0.021440565531957865	3.412564984288765	1.2598098484657092	2.0325419851484763	0.6941468102095755	1.9285795639937198	5.455899701648762	4.4403405077406335	1.8703060102925797	1.248883601850229	3.677235117211235	5.773634419169312	6.816678029969718	2.9230043814293274	1.1582549781166418	9.093010879447139	7.7186569972664145	4.180979718142772	7.368586521618275	3.9551200766842034	2.6700212888063297
312	-2.4790899690979553	-3.925676574332394	-1.1474227876303797	0.2112980628639312	-0.36826679017548614	-3.1111118714939523	0.6042507275584285	0.76487141654499	1.1846470802915243	1.1923688620026807	-1.5331933459673157	1.5682054718478518	0.22648183944264602	0.12951308456146915	3.5111610800786517	1.515511032092892	2.6114053660264642	1.1144338818069914	2.888376228669465	5.831283077776205	5.050851332310082	2.56812357254138	2.145065779038575	4.544286716432052	6.174392207769312	7.51253602992183	3.5647029786708884	1.8161467267913183	9.437092757240526	8.260514238482585	4.6374635579326435	7.8675255576815735	4.439242828605222	3.1607737461396863
316	-2.3678057133974755	-4.292284954678159	-1.3954883778625338	-0.3587896516801265	-1.3497635092035638	-3.6201286224518507	-0.036307975558164854	0.677795587258915	1.5585852822053923	0.5770791754457861	-1.7732528403334529	1.4455486499529406	0.16223067004252484	0.3417097321466042	3.5004806430176045	1.6065008599729058	2.858721725875683	1.070268747488566	3.762648572958722	6.120675548359036	5.427050576813151	2.9834353848473105	2.4569346842723	5.351641164619508	6.530899508199784	7.920179347068899	3.861366023805065	2.0001301714943462	9.732830976708703	8.47277543789785	4.689892757019022	8.19349382239203	4.612573612011598	3.238662234712568
320	-2.800398104273058	-4.856197821754171	-2.011673683809562	-0.9618004536187454	-2.1486010497205674	-4.335315216562926	-0.8130855539774298	0.17250421599704013	1.5072957239242415	0.01909179608173979	-2.250078195613044	0.9987690423544492	-0.034041028383855615	0.5935037121093353	3.3171346103841954	1.449658628618406	2.671813958098068	0.6458015425589609	4.32916973928352	6.225164874572276	5.480752454271561	2.9931864662893664	2.1877384130555932	5.897301658999905	6.742995721958726	7.988530138827482	3.7367439175675816	1.6854511456851355	9.90621087434225	8.36435125146505	4.31783675057312	8.235936144062217	4.4488611108990535	2.894217007005549
324	-3.6112420467754345	-5.430196271537875	-2.7562336852103684	-1.3398413624314347	-2.49491929378028	-4.995896326803078	-1.4070279562712042	-0.5480967746247947	1.0847902270585312	-0.2866578988944072	-2.7771456171491478	0.4571722436329672	-0.16987833337809002	0.84433412338706	3.0711100023932874	1.166029211915068	2.2326967659846866	0.15200154444941627	4.547427642785206	6.204477294515865	5.344556794977971	2.737332813981233	1.6105742413865718	6.130531772394209	6.836324197675244	7.8895487586147395	3.376229754506845	1.1101372213945606	9.98394391400195	8.144975641667358	3.7605082893795307	8.067281702654533	4.123129357418469	2.3566689431771803
328	-4.417300213151588	-5.749507412699465	-3.286977282808358	-1.283081170657321	-2.1406660025909434	-5.242277608987422	-1.4660127125920086	-1.1177005739603039	0.5892546758079598	-0.10076767925808683	-3.027539007172483	0.19312688659545507	-0.03292555353673257	1.1162574263046456	3.010837785748585	1.0298869583830617	1.9201409768263045	-0.021890232284233858	4.548584926565243	6.255536540450185	5.305051790194899	2.5457510883907117	1.1234345407732196	6.153436645230667	6.949218255617752	7.929635981566507	3.139019481363068	0.6574253423304866	10.074782346084616	8.118561724192544	3.4030053529652444	7.896362284751102	3.9163665672605625	1.9787121961227012
332	-4.791924941362246	-5.590650544356644	-3.313810101725597	-0.7289457898809328	-1.0098403666749465	-4.7940015671809775	-0.7812952379528036	-1.183134195201655	0.40512099759815473	0.7208129745404432	-2.699641220906229	0.5276117311508186	0.49171215171646243	1.480058547097867	3.3806934271335147	1.3173280921101624	2.1030683464358684	0.391314833368333	4.530681598668551	6.591311914968645	5.638022885393046	2.7501418521111245	1.0477505895864345	6.132960304034807	7.2344898994897955	8.370133378830824	3.355446807019034	0.6507565958759184	10.281293843060784	8.50430677174158	3.5581941514778492	7.927410582554792	4.047147263799269	2.0380487390560815
336	-4.464418876820467	-4.883016097138122	-2.7264213493176195	0.20556940086438713	0.6930934769297642	-3.61281751674216	0.5824353680210692	-0.5833167419011377	0.787102041641451	2.0953934139753874	-1.689721341635353	1.5472983082806422	1.350691791938952	1.9930843064532364	4.254417408692222	2.1400520747513068	2.9328730032305836	1.3937001193144973	4.627261626958645	7.293636303606823	6.442299349732072	3.491890183215685	1.4795494042234811	6.184534057261529	7.741539935593651	9.264587378952916	4.130558957161673	1.179599997403266	10.606084796830608	9.295052504913595	4.276396263769787	8.216881731268527	4.534959304803991	2.5746872360074744
340	-3.45434021077631	-3.761121263544853	-1.6459789234566073	1.2668502298795135	2.4909386571936505	-1.9660172412826216	2.268567556375689	0.5560190067558244	1.701331253524681	3.6740722563488593	-0.18342803372325195	3.026905290590831	2.3305816591549093	2.622708552414552	5.441217408747598	3.35259031403003	4.243644703641296	2.708082907515165	4.823044764739486	8.225799539778727	7.561878662090953	4.629581916564603	2.2637829723423586	6.293472750986729	8.350565889256202	10.403642628152273	5.265087591229637	2.0512218423553423	10.914656611542263	10.235431645300597	5.2953171596347595	8.615835168066443	5.174487100888313	3.357696524725756
344	-2.0706298299009465	-2.5259520943763683	-0.3815180053615277	2.1649439280209806	3.790722122158473	-0.3405155530915443	3.7515706921273155	1.8674981546935898	2.820899241001083	4.947829710866085	1.3961738312757201	4.512084949545581	3.1451094071136834	3.217875472527501	6.538204176607856	4.597398269490097	5.624504551992118	3.899193515469814	4.969880091517201	9.07211492155312	8.649881341076188	5.805628761892489	3.0950767915783826	6.328084452864675	8.814379669823467	11.41000744799914	6.350175841511293	2.897910826042243	10.997139902959988	10.946364375134083	6.172845348032007	8.847111679628522	5.645722374967113	4.010291089423328
348	-0.7757650594198605	-1.5319980344240078	0.6811866743055596	2.6824748448356783	4.130873669685292	0.756252584932229	4.552134025524789	2.904008142768792	3.682387819529769	5.462569699800866	2.562712662902331	5.523444161774859	3.557488670904069	3.558904162004621	7.112544518633127	5.466664300468019	6.622986299959475	4.570422637844337	4.892263400123809	9.488950705412819	9.339040732646774	6.631210787243398	3.681879749538986	6.136431678537761	8.88954923292714	11.930479019561053	6.9824018302104855	3.377244225558361	10.698055240323992	11.127389879742955	6.528437597958198	8.67487523749746	5.696421608847898	4.220754135919548
352	0.01381925676254263	-1.0519413921500116	1.213132736004212	2.7388052871220467	3.394786826145784	1.0085278724003062	4.4399924166160245	3.3326246654293152	3.915683498033161	5.0319928995879195	2.97215007985261	5.772027001113067	3.474949351120395	3.4601280601879667	6.913734895416812	5.689479336679146	6.961445790834683	4.531875598909677	4.51104258352038	9.279454207833837	9.417851424281293	6.878064138213171	3.8797776601111194	5.659577355400883	8.475510575830397	11.810459107144348	6.96976183085275	3.3463466082962823	10.02798745484534	10.714780780442895	6.246737464392078	8.058089235941901	5.283970342646806	3.9105806251975337
356	0.09663619076649223	-1.1764016121726937	1.0524010631693588	2.390450233146212	1.8838760805250423	0.4181631196908522	3.5281531721683193	3.0684029978530027	3.4273478898300547	3.838474263990425	2.5629355842732284	5.277236448315663	2.9724342747981813	2.875610344302282	6.00300739680065	5.249049650291124	6.65033148040191	3.857454290187622	3.911393394131639	8.495442368992965	8.919793106446972	6.571820242501987	3.7254321481106674	4.993654238490868	7.6794018551536105	11.156970949614559	6.4130482511731115	2.912988655365137	9.183769202887431	9.906496022962134	5.525599942561652	7.192753296811968	4.594177234494568	3.2636492169950633
360	-0.45154717450578125	-1.7894133284213136	0.2585487061171705	1.781029458317664	0.20216526040056965	-0.7128297072533175	2.212023967880142	2.289754623354057	2.441847795043423	2.3618893563720076	1.5664023121386592	4.330894459280386	2.242175334991517	1.9461169193724157	4.728644835931193	4.37270497171755	5.944305881751103	2.8230240273726714	3.316373339863046	7.410206299192639	8.083855608557512	5.94283817698186	3.371611348222729	4.360676277595087	6.766966325841078	10.261595700105145	5.623035416711404	2.34542965296813	8.456962564097442	9.04328153234369	4.744707095564712	6.4142246084394285	3.9300894638018433	2.6059591704377976
364	-1.3410128321168926	-2.6265816622222786	-0.9042303539334685	1.0732232305133333	-1.0027199958280555	-1.9311034630657167	0.9820316409112639	1.334141251056666	1.3808488810962112	1.1618940800895707	0.38549843333190104	3.3316130554007413	1.5001916847499777	0.9522404050627126	3.5557227044931223	3.403401843061289	5.174647795010221	1.767517443009066	2.967497579711768	6.375180228350018	7.213188153175169	5.271094308896356	2.9729840680402013	3.993346919467939	6.021038993892576	9.430989241630936	4.92617653556675	1.899559373828036	8.07307241308913	8.414113023495176	4.2329254043519535	6.009432777491215	3.5356068521879527	2.207940811304758
368	-2.2163495961498607	-3.383534184496338	-2.0508487172799903	0.40005323189821157	-1.3150933947738856	-2.829721920498461	0.20661665447044666	0.5363924489783809	0.6520481093156508	0.6282197817200194	-0.5860257133946949	2.5870809489736195	0.9019060708163203	0.19680137882612997	2.847259991132893	2.6338090830109158	4.564843166270289	0.9547594761584948	2.9896726532794387	5.648448929830834	6.523750288704895	4.7276234507409	2.597860806581901	4.007012357131801	5.59524820822443	8.833005882850172	4.483714092378441	1.6736223655407452	8.061120012911788	8.107029894387674	4.081886758035291	6.05318640134315	3.4637610824871436	2.1343829577917433
372	-2.812932722619097	-3.8286862276687015	-2.804109566284562	-0.15089487991382686	-0.7140181642624935	-3.2010412135368003	-0.006633230468274771	0.094068623841727	0.46146535756904283	0.8223735669353945	-1.11558139042531	2.1905541364676733	0.5033044206309814	-0.1256259974645784	2.711604826756761	2.1910357419962425	4.136266697930954	0.5012155758601017	3.3163270866588173	5.29088209723751	6.066027625981139	4.306167591667035	2.2169208470639457	4.33066986897944	5.448596463752161	8.443716981550317	4.229927529145899	1.575593705967687	8.235406854817947	7.989880064818947	4.115486611466085	6.367322428839827	3.5656258969882604	2.2291495743737695
376	-3.046686403211787	-3.878869046908457	-2.9267828390613895	-0.5291219936363244	0.4470493484177414	-3.0842218321178736	0.18870891583005145	0.017901848956448217	0.7437419872579741	1.4828379116767263	-1.1921353310050402	2.0270175882660615	0.27463108231825034	-0.003183905725710681	2.9883103295218922	2.022095436712937	3.74796127326741	0.38256010316582717	3.7160525228139143	5.179558740890156	5.751070961737266	3.8743858239583506	1.7636311009702332	4.737484443147644	5.394847856252365	8.113253572960827	3.9547808070469985	1.4117262327791176	8.303137758272433	7.822677115717168	4.024446954103164	6.625855429133139	3.597832670664881	2.2329602185139286
380	-3.003707401321397	-3.608243456313645	-2.4081127582786204	-0.7052937728241018	1.62549411840121	-2.6957247189172158	0.5053864704723738	0.17877379014655523	1.2376235692248492	2.185487026418821	-0.974802431983288	1.8940081548555403	0.1520011272169039	0.410904138242886	3.3728952322679495	1.9794253060909934	3.237376204900141	0.494328825417818	3.9144768616073744	5.125537859373714	5.458330617475143	3.3063917076555813	1.2190967767453798	4.96510504422701	5.240035043838055	7.706116656874492	3.47565411643844	1.0364836428222783	8.04363725538757	7.433793526000763	3.583700171005738	6.549696428928694	3.3845083628080874	1.961863393598712
384	-2.854226343578073	-3.197009316955793	-1.469205375776697	-0.6688531024258407	2.33610510236301	-2.2962605895241546	0.6984779817112441	0.40780472652471333	1.6475727516538774	2.562237494675381	-0.6765021664705546	1.6531952577813445	0.08882048703656831	0.8880841709603177	3.5963556675710757	1.9390689085640995	2.562851422515018	0.7156438213399932	3.73808692942027	5.011896597606187	5.144168363934831	2.6014237338189994	0.6576402170743593	4.852288233903935	4.916685091956681	7.216503125090628	2.7807683874494495	0.4622142601264324	7.447688083918563	6.843175393947008	2.8102638650513723	6.070422634057201	2.927466861963105	1.4283456766305902
388	-2.7437155177462462	-2.8446543144884706	-0.4733340430230098	-0.4365335691874705	2.3444979131633534	-2.0636382050864452	0.693064747491055	0.5917268380484223	1.7988347961785935	2.4668948588077	-0.447592227520985	1.3234015669788617	0.08005458841377591	1.2347025840103611	3.5604057222120113	1.8808400583464282	1.8594901514789448	0.9490331983447358	3.20739268446803	4.868525015936916	4.884001719541639	1.9131436299659192	0.22198261264545752	4.421936023991934	4.5343742256123525	6.788244707135012	2.055932755047916	-0.13834337855219817	6.734886152429641	6.260020717074606	1.9662314603754034	5.369559751305226	2.4020175873192775	0.833484766763146
392	-2.7151482036704224	-2.682700388810939	0.22794739844468315	-0.059120271205649375	1.7290370420670962	-2.0270819612822564	0.5984974488406543	0.7160313111346996	1.7066136555499183	2.0134687372870856	-0.31495678345316264	1.0655064555923255	0.1527810092883373	1.36723887575185	3.3617739592552565	1.8889018249505247	1.3761337960785136	1.1318876714739234	2.5326406891775965	4.841816889936232	4.825543391442163	1.4725224934593621	0.04759059834385743	3.8676903150183457	4.315370071959962	6.629852278183107	1.581243391813103	-0.5321065770066272	6.235424026005115	5.959415897582095	1.4092018568699638	4.772570597996804	2.0481841512466787	0.44339665658583804
396	-2.699007981161734	-2.7193102767952904	0.4433878350984336	0.3851771046927282	0.8050863126455446	-2.0786566681832928	0.616499184005623	0.8435615875880768	1.5356800517410667	1.4863016567851688	-0.19353222798122674	1.0777922841516998	0.33617666278839675	1.3244079317987085	3.208564273362777	2.084659571152756	1.3344005312607843	1.2301324574883914	2.014261240642018	5.085655199562298	5.088842855956838	1.4537571631921038	0.1844474072567882	3.4532484921053603	4.45517491169488	6.881446821004923	1.5646800955368672	-0.562991021642244	6.203237517907667	6.116507037932548	1.3849834168752624	4.5615610961186634	2.028054709082535	0.43145266066338755
400	-2.567201131061165	-2.8394575047329145	0.2147515559734981	0.8135734179936845	-0.033253237521138554	-2.0450820871218203	0.9012647248401564	1.0511031124280068	1.4855920038862647	1.1824591129966333	0.04613096255337991	1.4663073979550343	0.6303518994628967	1.2226843803053526	3.2865919983855023	2.537520402223748	1.793382401706886	1.2374887435187076	1.9019379567764374	5.643603310641408	5.675751194929139	1.8638623905807599	0.5642846212445383	3.3799865160482634	4.991050707613652	7.514521103006418	2.0128726908408368	-0.24288569329451032	6.666203005172629	6.696484071990708	1.885204548844442	4.814830291035861	2.333829397031231	0.7806944231349846
404	-2.222247118107627	-2.864635221878209	-0.22194340769045548	1.1639610499558732	-0.4720433044436575	-1.7821650460070575	1.4511017762740643	1.3631590570365646	1.671250577521831	1.273291703824127	0.49365618700322594	2.166096205010869	0.9907782052774562	1.1871744364329095	3.654393186879501	3.2067661204437328	2.599915497891411	1.1771054238164245	2.2824273051810287	6.395613654201749	6.442183001465764	2.521843188594506	1.0326199505484028	3.690423956136677	5.755247101558265	8.321808793991893	2.7139837673330303	0.25459620292280394	7.396338920992787	7.4598254969128215	2.6478052072431573	5.360893235976764	2.7937979627644536	1.2974765267992598
408	-1.6689302879158727	-2.6448109083157805	-0.568357227797824	1.409454818981752	-0.3660191586313256	-1.2440324990334972	2.0974092430566014	1.7231446461087676	2.069946760673545	1.755853529311708	1.1470543117173087	2.9620160981734838	1.3400937284967767	1.3024330106276885	4.22809361344008	3.9534630675636313	3.456097117281274	1.0967067452398096	3.0498111171016027	7.109161359004218	7.156354409269588	3.1434345165997235	1.4225267135944395	4.257631291130397	6.448247893265638	9.00871179213556	3.343630782268593	0.6890955549961933	8.02096460224657	8.080642679793652	3.296928874274932	5.872476086095054	3.1684105316276074	1.7227801041022417
412	-1.0302503082966952	-2.1413979476269374	-0.6198807343091276	1.5565744599143265	0.2573530965506396	-0.503010510128336	2.5942618781394495	2.0165305086721776	2.552295201533369	2.497062438382413	1.9142087649653663	3.596845379331314	1.601005430947779	1.5967498977401395	4.849734294091047	4.611983287611233	4.067578305465215	1.0522783968107208	3.964457740311141	7.56271503446433	7.610580425121069	3.4846091182468855	1.627732749644032	4.858184802187387	6.791122896214659	9.335020995413272	3.631111135851857	0.8779159762151769	8.213078478104302	8.30822942543487	3.536269417417603	6.044424518583289	3.2749993718431156	1.8690500212210437
416	-0.4941983806530564	-1.4615339003856043	-0.3615974178721495	1.6309645134755941	1.2478970257723976	0.28057154942246904	2.752645962441106	2.130489820823423	2.9687161370664796	3.3246302520736446	2.659067624054322	3.904270639098963	1.7317410663751496	2.0490775056603168	5.386451230754766	5.075952993928835	4.290993202819848	1.081527945648921	4.763263690366493	7.667995910358189	7.723443011811216	3.464683047130202	1.6358990627948007	5.284634099969349	6.671692831361161	9.22813222462601	3.4918024451787972	0.7773503045483044	7.856868247222641	8.080978373152178	3.2849411881479713	5.75461863018534	3.0692787092918317	1.7012069182359932
420	-0.21442216580613974	-0.8208980539577051	0.04404800374115688	1.6634035068476731	2.3956797062470225	0.9231504774628176	2.545428269635423	2.018469566971115	3.235740176614477	4.106243600014811	3.265819541315145	3.894767989815704	1.7483535960878456	2.6024124556640373	5.798809036873086	5.3505945070598955	4.202429760813224	1.1856282919513395	5.267009721809501	7.520157795039306	7.5788421439512	3.2037672915633646	1.511399503706666	5.4398436408982835	6.204973205159144	8.810507752108634	3.0573317927417945	0.48271083709914336	7.101943474958721	7.537404995007968	2.68949817932112	5.121129499857256	2.6465656690535377	1.3256392445473697
424	-0.224617018728589	-0.44533267504789953	0.3700451543525147	1.6863944487909694	3.480799904618197	1.2927798000121067	2.129312986719949	1.7380227998721682	3.3726475153648883	4.7791504739262365	3.691342344501057	3.752423515382609	1.724759693559524	3.172080031969295	6.143122657524774	5.546944127383251	4.056554784069707	1.3331012692172506	5.438858018494766	7.349328976195705	7.38664529842815	2.9609832688914235	1.350997682975167	5.3699922426066236	5.678605542150937	8.33609006684402	2.599080556029505	0.16217978257717633	6.286301596982618	6.933207494397189	2.0254659601571863	4.434555519351919	2.1780383531893364	0.911863741956646
428	-0.4113597859487211	-0.4568593490510088	0.4719485628610262	1.7384657815910205	4.30469845638632	1.3629345859449074	1.77400648146009	1.4410983287666668	3.474271288683142	5.32786558713437	3.97967623659535	3.744775047384341	1.768160696333858	3.6516537574125407	6.513181669957164	5.821224197949306	4.158611763945094	1.4891303740097774	5.371240125446491	7.400026302727863	7.384897213410591	3.006916992225159	1.242923733434185	5.2243137227717895	5.4126324516969655	8.07165525305853	2.3917431770974154	-0.02974591396689479	5.773152336803586	6.5170469119518	1.5549184044680682	4.008968819986969	1.826964492953581	0.6031733140021887
432	-0.5670927152621067	-0.8034083226900643	0.3789093782871965	1.861678237983125	4.712991225741222	1.221842285886092	1.7350616411272028	1.3157951798596992	3.640332689631065	5.739821896366497	4.230951298521976	4.090145577594518	1.9766079137488637	3.9290745159131704	6.962151509827042	6.290495856615583	4.71236227753114	1.6545082288931419	5.218899236854064	7.802576045363866	7.729501704728048	3.4919993789246377	1.2467747895233998	5.167845712965628	5.605319962654568	8.18043802103339	2.586590045120489	-0.013269756887132785	5.784258827864412	6.428232176763438	1.4166305029388546	4.029026974996142	1.6877484278982686	0.4645290363027629
436	-0.5016371595115335	-1.274180289866195	0.2769525044124565	2.0865757412681574	4.625464904551071	1.0322948668166185	2.1360108798457382	1.5045251808327866	3.908019532827291	5.97975014130517	4.541759479499956	4.848990904963285	2.395044320735321	3.9223666092070837	7.455724697362628	6.968515855361511	5.718244538175125	1.8822790336769626	5.116495596365538	8.505336740000699	8.423168161106592	4.373663891240275	1.394869085604881	5.2941422328799135	6.2427491984109365	8.66103933054997	3.1537558952815505	0.20491212554694715	6.310548766416029	6.660500032774919	1.5960775573487704	4.470807541049942	1.7701140597475054	0.48534309741506837
440	-0.1556442972068284	-1.598161812562014	0.3964992751601294	2.407837384820453	4.072769631593466	0.9589781140911116	2.9176175520667074	2.0356068559750886	4.227965821082004	6.004994377233866	4.948918330095514	5.892262920761894	2.9902632160983824	3.626075258636788	7.885818461535535	7.754366378279773	6.969018918562146	2.252158397710453	5.121149050180693	9.302538848278484	9.315711951577745	5.434518323528916	1.699969883441448	5.580554471231499	7.113334637802275	9.364122367104933	3.911868085521432	0.5594496116818554	7.135036450491624	7.095572453704054	1.9703260610425557	5.128890978261732	2.0206785151009137	0.6170884355223848
444	0.346498369295769	-1.578603502102666	0.864553508959943	2.7673168112505016	3.2160682597024737	1.0936439009711143	3.870361795190434	2.7997248102073753	4.493576515296656	5.808997139569532	5.404134259884925	6.957291108685749	3.652808657006793	3.1390271107575796	8.133932093111257	8.476526238974806	8.139918306780224	2.8117773461876876	5.200896249991557	9.938383077324987	10.170603726457925	6.377047999493984	2.150227064425935	5.9037566035942035	7.912413100292853	10.06877991995231	4.617507922912226	0.9628606414326886	7.944303492515804	7.573657970380305	2.383262628260184	5.723742470595326	2.3552803933759985	0.807117698539006
448	0.7482889871778295	-1.1913255423031663	1.611822720272885	3.0664200705356213	2.323627704475811	1.415628429653421	4.731015193438636	3.5874340443636203	4.605254638488817	5.4593124251814045	5.796318039564922	7.763586978384667	4.2316307914707005	2.6482257776156306	8.14510724872269	8.97228143334082	8.929026581155105	3.5229573160870773	5.269255624818967	10.232192967330258	10.768171283237786	6.950618726347859	2.6937060288130596	6.104823097074596	8.382450082596113	10.581703159318923	5.069370733813618	1.3300147022999946	8.470104196144339	7.963883856693664	2.709115736797225	6.032613262204419	2.685727589502149	1.0094494794154965
452	0.7950428108169592	-0.5950984939809192	2.3904190003124284	3.2093036093747043	1.6973483519615555	1.8075308754107884	5.29243944739227	4.173014630272256	4.5304903869685935	5.09844683313596	6.010630592429597	8.131927469703232	4.589247691965509	2.3650464951884995	7.968471030143996	9.162503219359579	9.182049728099292	4.246162403830252	5.244501577487666	10.16050908384425	10.998233767398144	7.053369504286681	3.2302498735887877	6.070593341759407	8.419918039044484	10.8140353883466	5.181380735667051	1.5867624242775014	8.593819596527789	8.204600313452856	2.880227796912084	5.9805555192633415	2.93513154242471	1.1757453650353735
456	0.3802523603375625	-0.046367049100158576	2.8977010176931635	3.157547704354008	1.5697644909326607	2.1192448085684887	5.4745159010951685	4.408558357552321	4.326842773957364	4.898844706564711	5.9939279404942285	8.051888445552283	4.65407274978524	2.4374465880843204	7.741301040177994	9.086452461189772	8.94723317748365	4.78373907788804	5.10157726907166	9.858551000500176	10.901953669679802	6.76652429779654	3.630101910009068	5.792665943779466	8.103354433581524	10.806095096008248	5.00120018650038	1.6755095677988587	8.373625734168685	8.306611040124015	2.884676926005465	5.654396519690086	3.0495121402041643	1.2495013443871215
460	-0.37222087289293526	0.2346162492073793	2.938024275037646	2.9645552560345045	2.011022324253101	2.2464291992691074	5.3286075457506605	4.283321369800888	4.114537705523656	4.9889197223590225	5.789085373567558	7.667725066853014	4.44681166479827	2.877136938460415	7.622729282207096	8.878575302595959	8.436577775635724	4.967212187623789	4.889608847670794	9.543473219618425	10.643773052045514	6.306421263985044	3.783147802338118	5.373713956617003	7.635526637826641	10.692486736004554	4.673288333537995	1.5689445694412005	7.990909556240909	8.3277635364085	2.751204245296919	5.240494714857402	3.010152570753977	1.1798579663052027
464	-1.140965816478164	0.1720879371589798	2.530517810154636	2.763649695094599	2.890109054898	2.181104416108841	4.984821783831771	3.91812919581141	4.013774384855208	5.387505994546048	5.516706929583616	7.195357781363497	4.06917618677832	3.5408456236133246	7.711649875244311	8.698539711925017	7.916199187319426	4.7391505121741995	4.703952777430302	9.40129563819028	10.426225635907755	5.917977794964548	3.654284706426284	4.977301108191579	7.234202843521282	10.625900241726868	4.3671564945587065	1.2879333463576559	7.6493272588245125	8.334573724684763	2.534382813730693	4.924686896288285	2.842243902659839	0.9517439579776317
468	-1.547864671613868	-0.13830016518484511	1.9043523025116138	2.7066180637688633	3.9156100651109833	2.00907587497823	4.579336631657281	3.499730578169645	4.083656777562072	5.984789833217495	5.314412103586794	6.817158204986816	3.6614386942927433	4.182099331787406	7.993964175068646	8.652557351201267	7.582309226919742	4.188038338577831	4.633340347036071	9.49740121350916	10.391077969065343	5.7612957808948	3.312875977735035	4.751842963619205	7.030086976421879	10.698997470546221	4.203938473577971	0.9094435549662964	7.479993324468103	8.369700410692268	2.3021898211528615	4.807168948434354	2.61164759930222	0.6103795751419842
472	-1.342790600247475	-0.49498331421812175	1.3832834924105601	2.8814101146428635	4.746777522500402	1.857997055131091	4.202289570689067	3.1897976317933368	4.295456875446518	6.5853409600887005	5.2673439846565575	6.60856340647172	3.3483376418453323	4.551578987074041	8.349177339455021	8.747285820810735	7.482980232419547	3.5151426703395954	4.710372912912139	9.754815076994994	10.555779430441504	5.8437566609661475	2.912459842958025	4.763834941280578	7.020321828283692	10.902206393373012	4.2095684898906605	0.5482496009336129	7.495354633480834	8.43679139868206	2.119357103718962	4.870975482086735	2.4033551155446604	0.25562980706524435
476	-0.5341678844316902	-0.7093489152165124	1.2196882932386373	3.2555897153674622	5.126567827632832	1.8232836677294149	3.8855562111982143	3.054614297784056	4.551352966261624	6.9905471625263464	5.364284501837343	6.526039583895648	3.1943938651496526	4.501073825916154	8.609669663626443	8.894645668461147	7.515968780615068	2.943908207136438	4.889600264601968	10.003911946788449	10.811532946946667	6.024583801317708	2.6178276472755084	4.970211016504158	7.091334325052645	11.13291737606689	4.308200348467322	0.308290749009925	7.603379707213223	8.502654054155421	2.022674793858691	5.010040270553989	2.285099023771695	-0.0004445911897763061
480	0.6063470229098863	-0.7029657346143423	1.469990368946407	3.6812219526809056	4.980111586394933	1.9189464997480212	3.62945651091707	3.052077285690242	4.7377376436780105	7.083479386565396	5.509028420844459	6.459551794909461	3.1897845187715195	4.043457021041252	8.644638993372139	8.96818158746494	7.5025062371615086	2.6205804281828646	5.067856775840146	10.0773973210536	10.987946482573044	6.092298015471697	2.519092315035777	5.243956552617216	7.096546632015803	11.255481691553344	4.36175154538412	0.22883546294611073	7.672185878456741	8.519428231664339	2.002693171213217	5.099377142429265	2.277232641192679	-0.08993926621617775
484	1.6636471706348996	-0.5298677669498711	1.9780255506166222	3.9640135664993963	4.435734260804021	2.080725903026091	3.4431533726545296	3.07913588700132	4.783196437203375	6.875437719152419	5.581663594458679	6.316315634992778	3.271841756189467	3.3418354903724907	8.42671201485741	8.881272293555947	7.296763878519581	2.5576484138764206	5.135612474826794	9.901938413415536	10.952245684628512	5.878276333272793	2.5837700301739956	5.438757882691796	6.947169286354127	11.18267056502819	4.239934433722685	0.2596800320744735	7.610847930766146	8.459248521428096	2.0088436552827718	5.069950090959372	2.349380964069604	-0.023349169582782183
488	2.2644305172015637	-0.3219046882608314	2.4676542219802213	3.960425843730134	3.7562100792463395	2.212566846983386	3.3668854151597096	3.049007408073481	4.688735473238985	6.4887852504936125	5.510015950596603	6.084725364581393	3.3646638308452506	2.638934367192922	8.044219950393423	8.639882065893914	6.87081812077541	2.6484565667996183	5.034028040573992	9.536332106355205	10.686244937619435	5.347812639085961	2.6737868718351523	5.459390149637995	6.664724809985931	10.930687876760576	3.8870508572668285	0.2832405858041276	7.419646244389752	8.33953378479187	1.978996510277562	4.944429385099523	2.4438829360294956	0.11841465502882867
492	2.2359902802280804	-0.19798318991743022	2.692631953116919	3.6491637137786905	3.2081837573114917	2.2436637821770904	3.4579744251683797	2.9492895528717527	4.515036571547406	6.084569915668211	5.308767305322237	5.843363270311623	3.416520110087495	2.1563756411468615	7.652389983883919	8.34044072906448	6.332843287691528	2.739662401911753	4.787435996366256	9.137324310121391	10.299138996824322	4.623703468093117	2.6254486971372484	5.3012189731269395	6.368154032841634	10.615779849906717	3.354257813568056	0.17791074469470894	7.184031945210451	8.221830347283866	1.8787153911841288	4.8146362183129625	2.5100831922100126	0.22909797670219997
496	1.657354827511138	-0.1965038473413236	2.5625343258056135	3.1372175137467675	2.9299158976014525	2.1578373854516424	3.7470042610933123	2.8458442616137622	4.336074341316869	5.77077291939016	5.0619196763983485	5.711362824325312	3.4171621713193945	2.0051853606142735	7.387760620538371	8.11325643398377	5.870998367745513	2.720319025800922	4.4887575989880215	8.872716881285067	9.967533086406664	3.930404414744041	2.3492882192425677	5.038946139011283	6.203879340720988	10.390579197399122	2.779436819688529	-0.11104528577901718	7.017702561780295	8.179075220438687	1.7243485407209014	4.775641429287879	2.5267596181017464	0.23124283493786596
500	0.7907715419831386	-0.27201792529092766	2.1750407164018606	2.602595561132325	2.8654107975140684	1.9808436582144877	4.19536875619238	2.83324503183295	4.192130555059198	5.543953404734553	4.86399077141101	5.7747011038895195	3.392134419459976	2.1502313559603476	7.295919876751692	8.04789255017663	5.659696564690132	2.5817882949495066	4.251742829078614	8.833450295080494	9.839643453550844	3.4919927032044398	1.8921673250109448	4.781216132490357	6.262624724788979	10.35810086496159	2.3266935289767376	-0.5326997028252896	6.992743474471485	8.249409654770387	1.5741405447317318	4.859482276091582	2.5015666421674276	0.10966957332817152
504	-0.058100122811733	-0.3516323557558904	1.7449066594891876	2.2065977994520694	2.7996857095605012	1.740748043433708	4.6831326366442445	2.963959924843991	4.073116292206604	5.299898611039208	4.7598051904667775	6.032908901241758	3.3837733183305727	2.444082969216857	7.315836411125236	8.146044710573351	5.780071243951645	2.419924968331805	4.16158722780477	8.995258308587983	9.959475492127691	3.4373538407325266	1.4254316055548788	4.618525016568105	6.531698210437758	10.51484296051312	2.1167781299553314	-0.9474521255414156	7.09986827965146	8.405674913164917	1.4910408220792948	5.009443747270583	2.4534099040077617	-0.09120585746387637
508	-0.6745883209362935	-0.40666675464953467	1.4751217328021649	2.025752777707121	2.481858247212914	1.4346926176088284	5.041167246488585	3.204460612789642	3.9399869342510976	4.909838664056486	4.721965301035947	6.396965964378999	3.4265160474096694	2.7067603996602276	7.32983682689189	8.328920343351381	6.194393142319645	2.3802807270988895	4.245687950859038	9.24940011550249	10.253104184013303	3.7585430050369584	1.163352128906385	4.5909218672237335	6.909408075054201	10.757292720338006	2.1835019533342335	-1.1921230524482476	7.2630104835242335	8.56314466221803	1.5008114538447874	5.113665567838747	2.3933553635252296	-0.3000152103478811
512	-0.9930738781651843	-0.48464700457281645	1.4452532493341796	2.041727776140909	1.7808560088018055	1.0348726484873565	5.1194324364154955	3.4487025650691083	3.7721900844702763	4.325144280004133	4.68585060843914	6.7416772672196235	3.532887926718743	2.8152935433834	7.254412155909224	8.498793580532356	6.785444719349112	2.5774104530110966	4.477895725388736	9.486455893407399	10.588493320434592	4.342740047934561	1.255443808246935	4.690965163785114	7.276085358369152	10.955985995288014	2.482075208119349	-1.1551611394327417	7.403938751601041	8.633776642935697	1.5810158212799252	5.083467947523143	2.326195472566252	-0.4507723737303021
516	-1.0655608150282234	-0.6780145151186222	1.5780585964415053	2.1834375803180386	0.7909339050350968	0.5333833680991372	4.8585777160047545	3.581386795538556	3.6066632179753495	3.6496789363268283	4.617515552306737	6.978849870227998	3.6940829660609102	2.760686390582427	7.117071610601678	8.613584496685407	7.429361324626455	3.0322649402355024	4.811753260861745	9.680203413365012	10.868814440942671	5.049956308966395	1.7111326412868	4.891609656381562	7.57643650049414	11.051858874074277	2.9384381696899213	-0.8220680931316919	7.513649444683423	8.59761235927456	1.6908076958882865	4.92754315085871	2.271862977967711	-0.49525400871168573
520	-0.9779980754002076	-1.049355623456894	1.699434872151295	2.3874163567348043	-0.17225769118687154	-0.005605163038526432	4.327561844390119	3.551746597859484	3.538605442649742	3.131565086087699	4.565586555398051	7.106149178683454	3.888204087931031	2.6463160448018486	7.067749959267463	8.724397637274771	8.055051783251816	3.6561803725439344	5.211645113184634	9.915662740468289	11.097893686885296	5.785947785074503	2.397872203494905	5.1719322074011105	7.8583140174826625	11.11076924379859	3.5038528353919034	-0.2701276831959381	7.677419643091965	8.542320229897559	1.8202383472262393	4.7696862100341155	2.2843840064547747	-0.3979291011777139
524	-0.7769490460806896	-1.5634689291580892	1.6550453859505014	2.635258906386772	-0.6948257071118531	-0.43009009848726226	3.706501712977798	3.4113371286094916	3.6776881125103844	3.065987102397066	4.656103122399743	7.202333432133239	4.091060151261642	2.6307997637130938	7.309151154184106	8.948699928578579	8.655440308652485	4.28669928422107	5.6596283769766815	10.338502857808923	11.374489755522896	6.527101500244286	3.1099333684604287	5.521749959356041	8.239052751720363	11.29562470445248	4.176883686964148	0.3786028315998906	8.029025057548484	8.636528947005896	2.0212528654565194	4.791541087450861	2.4454691348322535	-0.1276057508346334
528	-0.45130699759026516	-2.07516598177548	1.413298245676455	2.9473776742907645	-0.4558486330921043	-0.5453875647126589	3.2198443331487505	3.2898881352332596	4.080033292006035	3.6494483855614193	5.024483668039496	7.372514706117635	4.284043778093741	2.8414938378118797	7.977692583923204	9.391682601105176	9.249616599571768	4.758266913798298	6.135215266950256	11.050718279594735	11.816219300000899	7.286884289463714	3.667793979921229	5.9224014132700304	8.815555550252627	11.765071839192533	4.976450430703493	1.014005181613467	8.655176140867507	9.040069557254144	2.3886170326961285	5.127435194421414	2.8240272927509977	0.3351309887054198
532	0.025693278694848647	-2.3911874233909325	1.0902123423707695	3.338810912285645	0.6027526244204261	-0.21225255674179325	3.044481746616401	3.31764077302635	4.695652473038416	4.854145514630447	5.714208588478283	7.671491126718993	4.453046787463192	3.3032855904148883	9.035196281509611	10.055279706363347	9.821622823713529	4.9696645611222365	6.584128840035608	12.008379905900016	12.45269962981484	8.046236017893214	3.9930496115005503	6.319595797795775	9.566708540604683	12.548048941402717	5.87683866924444	1.568049546097513	9.500929808470953	9.788965200504965	2.985383979889388	5.764476761569142	3.415536395032605	0.9667305921942496
