time	FP1	FPZ	FP2	F7	F3	FZ	F4	F8	FT7	FC3	FCZ	FC4	FT8	T7	C3	CZ	C4	T8	TP7	CP3	CPZ	CP4	TP8	P7	P3	PZ	P4	P8	PO3	POZ	PO4	O1	OZ	O2
-200	-0.5514937625312571	-1.371170517320598	-2.2152690831521005	-0.9409968233192493	-1.130438205725935	-1.9025496196395781	-2.441589110885751	-1.207537528803983	-0.8726896621605315	-0.8603684880468946	-1.523218031852181	-1.419092055552574	-1.089548823466805	-1.6497843223880397	-0.2607237094018555	-0.7015312296321548	-0.7490036468668821	-1.066801902938603	-1.7418824390302092	0.14300098979131623	-0.40677961604413193	-0.35331034571137065	-1.2093780010207107	-1.4051092827607286	-0.5864530190920109	-0.22508037033474182	-0.40705016152608436	-0.6000011548152514	-0.05345571772668966	0.08886924363587148	0.3808031072538966	-0.24966490205672948	0.017075542317432604	0.4907202708252594
-196	-0.9049572921793138	-1.2206176488576288	-2.501466506364458	-0.8858373738811819	-0.6103925689545123	-1.9028904389975434	-2.5272207196325644	-1.231454130878304	-1.0010982726571012	-0.6765524131859734	-1.4121252262702368	-1.2900629011008145	-1.1748129099748614	-1.4837580881804457	-0.10197333965781764	-0.6962856632772955	-0.4709201443226681	-1.1710734337803843	-1.1846018999708987	0.2315564447755599	-0.31350958268166995	-0.058643419147488995	-1.3089145388934895	-0.9246711111564883	-0.3586915424350739	0.009500940306338988	-0.1601822670230231	-0.5018960820877841	0.3380603781747999	0.30141854210092983	0.6590780003120011	0.24094918309413066	0.3251511446372937	0.7072045189168423
-192	-1.0447107527105646	-0.6319890006321643	-2.2299196663823233	-0.6697534901875445	0.020247179963729493	-1.3511296476583667	-1.8352607442296323	-0.8563896395996038	-0.8688728191373312	-0.29427203461737084	-0.7008509618230507	-0.571628449904128	-0.7841155509225202	-1.1066235275939227	0.1306063678543403	-0.10252754364354	0.2392611795583534	-0.7863202671225508	-0.6192845686535894	0.3278662554092473	0.17466686621912667	0.542211352409887	-0.8930352307660853	-0.40492263334084305	-0.08424518236109668	0.3922268142334163	0.34102669272152514	-0.0877148730328404	0.6760821325398829	0.5384619222397575	1.0362516615453983	0.6480419619411218	0.6343110783774614	0.9311650967930161
-188	-0.878545222448482	0.22884321154991197	-1.3750572169872985	-0.33017510092343755	0.5810965284935046	-0.36342424062525813	-0.6187087877865127	-0.21247376447915742	-0.46513980509623426	0.17949074461442588	0.4248262633088255	0.4970083224146082	-0.004507542576436264	-0.5796300754217981	0.35175308496357816	0.890272078650564	1.1359803647924478	-0.05264707641422475	-0.16181527037297275	0.3872595419643108	0.8872205592643474	1.2180547683480472	-0.05851215109357351	0.01689569834079297	0.14849309585750523	0.7786620239625647	0.8846894480303509	0.5027523028078209	0.833808121960236	0.6961238962717835	1.3550598587156435	0.8239503482043018	0.8380501249135458	1.0834791632953618
-184	-0.43453642616234617	1.0399969789950485	-0.20563866146144125	0.08112452903769582	0.9097741223253861	0.723305104336855	0.6383959634875398	0.4570619154357665	0.06769576651647781	0.5819358810991125	1.5705367287084209	1.4852873049429423	0.8757231809440713	-0.05748052135498626	0.4677281069867484	1.9038293313596748	1.8310294105077103	0.7299063187290631	0.08092202970816328	0.3729089191081628	1.5454171856962802	1.6500277477566878	0.8834232069599395	0.21028563327149374	0.25894236499259565	1.0262005303223007	1.215472933561475	1.0268248293701019	0.746234593891543	0.7098569852072951	1.4688858948815076	0.6935946327817704	0.8571473338420755	1.0948036881462258
-180	0.15605144163309997	1.4795186482268547	0.8311375358578172	0.5002933131938205	0.9358174777245682	1.5120810232133073	1.4508124553290551	0.9016666985635068	0.503545998255646	0.7784764747038474	2.318953269825748	1.9786016891115665	1.4981239996279399	0.2842499904608503	0.4325676847503856	2.5488486225625784	1.983791465519057	1.243589994151802	0.03918204819204278	0.276705800788354	1.8859406662055596	1.5872225721340056	1.5361454448062979	0.1039885503408439	0.20711025543374664	1.0495352718557933	1.1557041377452746	1.2448037831349437	0.43721008190396315	0.5772718772618585	1.3056522574838794	0.28902280257686713	0.6694613082195933	0.9289846396833479
-176	0.7208380680958303	1.393480893431567	1.3324930634234982	0.85334563039861	0.7153899651585356	1.7475449994788643	1.5647187193465841	0.9740070676054132	0.6545185430214192	0.735438285401345	2.4365267692084687	1.7859935715406043	1.6141711432711061	0.3407094470005091	0.28078955341018463	2.6123704844322306	1.4790207110256584	1.3043298688382312	-0.28460642623570725	0.12765778568939093	1.7822350218598473	0.9799740885788123	1.6040898520978286	-0.2733571820510046	0.01139964812351043	0.8526488521029448	0.6936508995662962	1.0346922848327214	0.00984409355867028	0.3544738283744488	0.9021441913715968	-0.25699183279956805	0.32193779864092054	0.6028606280364864
-172	1.1180818052673247	0.8809594489743691	1.144056317301965	1.0666180822145799	0.40790265695583205	1.4452424012888578	1.0682510110587238	0.6919084769899765	0.47678989051603937	0.5395996556963577	1.9872831056011837	1.0343972418418281	1.2127817838566606	0.13284938003854233	0.1136298102251782	2.15458344869228	0.4939160632537905	0.9426810717624151	-0.7934327701563513	-0.020207144268993005	1.3002350297525005	0.01766332606982051	1.0439211103785737	-0.7884792069555094	-0.26005732947494914	0.5212587104988287	-0.00781697777920278	0.4576188612351416	-0.40002125400637034	0.12673200634907694	0.3898893286874838	-0.7625800351916748	-0.08357658216117798	0.19028167378544647
-168	1.285207625958959	0.24518708822812244	0.4336518038291457	1.0917278500650023	0.20966951496116729	0.8803099967665361	0.3295782498144861	0.22827075364177324	0.10247037533876413	0.35833001046310153	1.2970139947569708	0.10528492155911322	0.5258976803853402	-0.2031972552176052	0.04943162935412856	1.471118565659867	-0.576331077551099	0.37798446321422957	-1.3020175662546527	-0.1100026366317549	0.6659259183283117	-0.9453165507291499	0.10009690348863932	-1.2408390013837842	-0.516192136891778	0.18527138186408287	-0.6815633160549444	-0.25944101744952763	-0.6807278377512371	-0.027707047690533032	-0.05738648012692932	-1.0689078542424901	-0.42355424058788543	-0.19277568112816398
-164	1.2474540440535453	-0.16550317364868825	-0.40256577628540746	0.9313591099112701	0.271009861738709	0.4390386629940883	-0.20554481394847934	-0.16931806461977708	-0.22573296668757875	0.3581691077249366	0.7847357372498424	-0.5566763267767478	-0.09361401921717287	-0.48402216908321355	0.16344657499055057	0.9397118663904256	-1.302425738861044	-0.09993567292492896	-1.586555119323496	-0.10547719869209259	0.15860646923075222	-1.5452716311541062	-0.8070453385004313	-1.437008734889663	-0.6781145913169474	-0.03436524784829278	-1.0753593417674006	-0.8245958665055895	-0.7878198007720241	-0.06732275319983458	-0.2946051351738571	-1.102740642624478	-0.5961818680016214	-0.42486670506020346
-160	1.0874208184444067	-0.13812628353531312	-0.9444305872914454	0.6497216804312962	0.6333008988603585	0.4165655662032932	-0.24350559649977047	-0.2896916858988478	-0.28016421128110247	0.6255289896430727	0.7541757206949189	-0.6592243893191999	-0.3521720162083243	-0.5630691633313473	0.4531026769165573	0.8349642732520253	-1.4178168737854688	-0.273875235819762	-1.4673581086304819	-0.001239323636181905	-0.014917395039982977	-1.5676413734911216	-1.2823289600421548	-1.2701615063070055	-0.7034838777900666	-0.06956671160777006	-1.0596135827968398	-1.0148494217999342	-0.7509541492575875	0.003002450793851673	-0.26134937935648317	-0.8997591115169313	-0.556673286939872	-0.4248125840428841
-156	0.8971928335426061	0.30134946031780957	-0.9521904563705168	0.35743686466571967	1.2141424386841577	0.8697158672309058	0.2237886929822367	-0.049019686753964696	0.03317199639051481	1.1285368175624007	1.2530766693903017	-0.18969598364620102	-0.15585397144545765	-0.3881672014926588	0.8453095533963466	1.2049485414600556	-0.9281686520984329	-0.09122452116822453	-0.8923546649337581	0.18197822524855695	0.19421623598178095	-1.0312489245127408	-1.1408969135089775	-0.7680759410539587	-0.5923340305632162	0.07544521968390115	-0.6730937940769687	-0.7753499726746926	-0.6446332915243128	0.14211389386536377	-0.0004858518938374574	-0.5785215482410642	-0.33162093078810384	-0.1885151709326982
-152	0.7357549648782371	0.9122254229402299	-0.4654630708863574	0.1698282952789274	1.840891237379479	1.5970261056633313	0.93978267670824	0.4741916644521952	0.6246080382789734	1.7311406091851984	2.0650660939530794	0.6011487230382146	0.36053398160507427	-0.006062780025940558	1.2338708607992652	1.864965314924899	-0.08838181175329017	0.33458232795164755	0.02262329490731439	0.4077635397152775	0.6672178490005565	-0.16575263398760462	-0.48813092585346435	-0.0842679811376657	-0.378345339535111	0.3325209907242622	-0.0925749388980075	-0.23898880123357874	-0.5420849905632823	0.29368063733340255	0.3646830609174138	-0.27944853831309124	-0.007804903647714662	0.20024262318122643
-148	0.6153772457798484	1.374643203125734	0.24802891847454858	0.15791642625992972	2.317683690895237	2.253591293367236	1.5374693831727062	1.07642090048817	1.266140338562031	2.2502314987590193	2.8323535847679397	1.3429659571119614	0.9252477264885896	0.477746157632079	1.525375839196892	2.5065352853433596	0.7362521272190534	0.8013830164703547	1.0241391632925931	0.635284899061343	1.1863794296829024	0.7045491916034474	0.3486833563584287	0.5671358094201705	-0.1106249389239612	0.6032391771344993	0.457991837298882	0.34601527365108414	-0.47465342163410434	0.4107639183164059	0.68666565244877	-0.09721801405441764	0.30327191872321885	0.5985119327692981
-144	0.5235273824825417	1.4595192633972824	0.8509387948486564	0.3196883193527767	2.499504321463406	2.532380574508453	1.7360471443214311	1.521404977771981	1.705928202136732	2.5274193223084547	3.234945765910916	1.733724589738977	1.2804514137364702	0.9542852020012145	1.66871141966081	2.855488054695493	1.2470461098657324	1.1242843837962815	1.8141486598942023	0.8248950222169619	1.5416594704805477	1.3074747290979305	0.9959235166200563	1.002295968386194	0.16177774924918137	0.7993975857578992	0.8092997053694344	0.7404596190831254	-0.4214089800208682	0.470755695108148	0.8547021725056282	-0.043623886892328385	0.5081469999835316	0.8607439377033869
-140	0.4559527922085863	1.1400870055978143	1.1089351149217657	0.5887316450513762	2.3477554262013935	2.3157072008794755	1.4764741621887039	1.6450847345779447	1.7895356371520839	2.4882433351637125	3.1343631665249703	1.6752284722948076	1.309095140966703	1.3493035997656382	1.6606895881686121	2.7984239984430817	1.3383902277533968	1.2128939597978445	2.170811409237856	0.942270634179528	1.6244596201891	1.5300437173360466	1.2172466485762228	1.1433612079363495	0.4001793553262379	0.8771564938333664	0.9118397808895068	0.8247997739948513	-0.32870742595651625	0.48018592474818783	0.8361048081269228	-0.05361818881206628	0.5661313519489516	0.9010500289102175
-136	0.4377860713872959	0.5906372055400344	0.9858248804951928	0.8728523828403575	1.944976086474295	1.7211222605166445	0.932211813957274	1.4248574936178517	1.5247324666628108	2.1656649058023634	2.6141655379097544	1.2937551704167487	1.0734473439771228	1.6276675421628124	1.5315607747510396	2.4156761108443634	1.1168566914017044	1.0884376736817076	2.037782425503898	0.9636541580665798	1.4636069499256583	1.439388629140246	1.0084645722677146	1.0398231718513224	0.579375682798539	0.8494681694518261	0.8371911027752117	0.6408548934968956	-0.14796091578797177	0.4675500381109315	0.6807478053071865	-0.030951613482173634	0.5009060489405646	0.7308012228634614
-132	0.5201750384549033	0.085424184583519	0.6255373342933201	1.1018794747189373	1.4638184272047874	1.0286141608017416	0.4024696935982721	0.9841945742554125	1.0625750991696727	1.6839104848308712	1.9116420697585286	0.8492284991757894	0.7532411198672004	1.7753797724722478	1.3271106448045802	1.9147322129544622	0.8163729289424271	0.8444680550235323	1.5416508874117218	0.8854100085792214	1.19219731983545	1.2172718017362545	0.5606656656414927	0.8308380225185771	0.6882916671541374	0.7731817941218172	0.7205117922711536	0.3467257908173353	0.13143423166469673	0.46799388409713083	0.48833551879613935	0.09434737986347652	0.3833176185943651	0.450273989494271
-128	0.7433857899016958	-0.14249081873681052	0.2511986487722175	1.2530325619532792	1.098045942395242	0.534216700635638	0.1536416705543986	0.5312061892449234	0.6095736607420108	1.2096390693641679	1.287409421531403	0.5907130822526419	0.5298302756284021	1.7760976508121102	1.096045968149498	1.5072252712342948	0.6628499014331544	0.5873052463008577	0.9248156524197036	0.731419740260734	0.9664360260405134	1.0493726703852566	0.12430473385659757	0.6670223457661868	0.7291382532784266	0.7164723855049239	0.6771149022172985	0.11469827563414363	0.47098848104773056	0.5055091964356565	0.3538341811306566	0.32712587631603907	0.29314953014747236	0.1961851860099977
-124	1.0882085534277695	-0.008594879858847538	0.04378028575453384	1.340506192637581	0.9800549720815683	0.40708625213840477	0.2926790408851257	0.2601061456788969	0.32251700677506306	0.886707363274127	0.9027541853046881	0.6349754317464505	0.4852340805200494	1.6052422482970063	0.8815474487935937	1.2961949077305353	0.7603831272000902	0.3893607248966279	0.42917406450634443	0.5491369352781438	0.8784903861754271	1.0280940506727447	-0.13483066822819642	0.634651838130782	0.7136087995632097	0.7201427799162808	0.7377641182392534	0.03444883591179863	0.7968023399262862	0.5786095246965305	0.3179641059953898	0.6038362964643516	0.2784163944844441	0.07097136956416168
-120	1.4555777274575268	0.39644572038693393	0.06096376090751128	1.379829999300993	1.116857883494597	0.617734192242251	0.7259191852361695	0.2592036121499866	0.24124400256760659	0.7770283798626854	0.7614636401978504	0.9203109121928873	0.5670711979853971	1.2461333243379467	0.7120459061765001	1.230444905035515	1.0477281782400556	0.2678902440460085	0.1892030681363142	0.3909031142855865	0.9073368884066738	1.1125729055925127	-0.20838566071826917	0.72027242001834	0.6562376601816907	0.7716129402706451	0.8327786901429193	0.072141930278789	1.0296682093372884	0.6565070135707506	0.3466516128370996	0.8250767567784232	0.3317484251229565	0.09024620033367368
-116	1.6906315045587752	0.8635560848367898	0.23188923240766188	1.3566848005374077	1.3777825797581278	0.9668230389980629	1.2153353660416806	0.4721766102313611	0.2916354231623882	0.8333480933130211	0.7368772011272348	1.2506943909539334	0.6324792488342041	0.7195942979764425	0.591450212892718	1.1478801936732312	1.340324398471475	0.1931723202358204	0.1838843072778556	0.2892293624728148	0.9348719096422388	1.1628868550504432	-0.2111179227267136	0.8300190547014309	0.5685154185246585	0.8094184378215272	0.8337185957840094	0.10689963373374359	1.1170983286310139	0.6926215273536241	0.3532962492129169	0.9071539021476753	0.3984346081687777	0.18000544562192305
-112	1.6456783968384086	1.1655306786674253	0.41616123809648015	1.225533005481266	1.5447741707900666	1.1908366650079527	1.4962489567173296	0.7318055015207464	0.34638824971482446	0.917286691733909	0.6575546844093225	1.3995757067630419	0.539108573029293	0.10342239562387424	0.4929050492716629	0.8783098437068583	1.4299799167769158	0.11303261638952013	0.2720120542334321	0.23873437880799736	0.816701708162178	1.0261560652574107	-0.27270618012241143	0.8508900978539978	0.45597317699704804	0.7567557077375078	0.6305146797473674	0.019488362546235573	1.052180287565668	0.6496944411087027	0.2532175772949522	0.8239932039437871	0.41202902689856946	0.22618290724869097
-108	1.2574921814641145	1.1518861026291818	0.4844123112846059	0.9411482191165965	1.4132487738214161	1.0909709902875553	1.4006453717154803	0.8490512945673195	0.30494940203921983	0.8628056623609622	0.40380322831246507	1.2207030027087316	0.23105670453386354	-0.47753399489953663	0.3668919494425681	0.3493430605651371	1.1900571554655484	-0.018640618724251583	0.28593528198529716	0.19904673049263355	0.470942645076014	0.6280849560138778	-0.434489576911671	0.7167593222641482	0.3220355800604277	0.5689690694748987	0.20344671555652158	-0.22297789100140414	0.8742497541289437	0.5253193961231895	0.021729029660200662	0.6203515513970197	0.33822128091296483	0.14895103834215834
-104	0.5964460953912436	0.801663754346538	0.382716893183513	0.5065022098151074	0.9016163326387987	0.6272941215889946	0.9348763799905857	0.714167771920502	0.14798426590750358	0.561158059610739	-0.030080733744849462	0.7188890558212406	-0.22274967971829654	-0.8895032383395474	0.16700793760572738	-0.3593846550450946	0.6406723840750541	-0.21483392959236972	0.12833046880746643	0.12048043280223857	-0.061216842228588614	0.02573577494382106	-0.6183774455670429	0.4428016234185477	0.17660604372735325	0.2704925828303318	-0.34658718021626006	-0.5362655506899744	0.6526310427400824	0.36396756676333647	-0.2752962999545866	0.390556543079415	0.20236471244264573	-0.040647059576407414
-100	-0.1446441557331744	0.22135263625525575	0.15524199565793262	0.0011325686908603431	0.11317615927493806	-0.06283575280537475	0.2800697677216943	0.3583940854560733	-0.061305485511016715	0.02707904384153933	-0.5348377214279849	0.05163101838904576	-0.6560947878485248	-1.04062282776361	-0.11702038318176293	-1.0437135670059898	-0.05367888124145559	-0.4401331830833354	-0.17837947562003917	-0.021459508633077717	-0.6190050228702986	-0.6050680264455252	-0.6857460123868523	0.11308022559941427	0.0420920698772101	-0.043417431304508876	-0.8282608964989302	-0.7604714612834244	0.4601774204079879	0.24322691498382673	-0.49908929937239743	0.23336428344935553	0.08262392112613816	-0.2365491980302426
-96	-0.7242098432376165	-0.40006923574529335	-0.07948686162430428	-0.43706738838473114	-0.6899738294347414	-0.7268272023923852	-0.28369221019645047	-0.05811902120936938	-0.22287121358868672	-0.5917835816701051	-0.9428925490415443	-0.5369480834755742	-0.8828448034884994	-0.9219452119438575	-0.439586608492125	-1.471399184326761	-0.6514241082910728	-0.6138990505931509	-0.5106138574106225	-0.2035522753821523	-0.9918246840231356	-1.042519685974153	-0.5425443635594064	-0.16548283356371	-0.04778795677279107	-0.24557535288320906	-1.039299962280805	-0.748864470021683	0.3501634886960766	0.2386389070684694	-0.49947699778336013	0.2098417276806498	0.07093923521012828	-0.2912021271982875
-92	-0.9567795371694774	-0.862461683956832	-0.18369615031593592	-0.6722245795444037	-1.2035073011530255	-1.1131153078585994	-0.5041074740080127	-0.3311761013252682	-0.2638454132571179	-1.079140064375958	-1.116359231037665	-0.8250554183156474	-0.7872659544141695	-0.6176006778382912	-0.7131020408746087	-1.5018793306578873	-0.9388087964197137	-0.640145955853727	-0.7175723892214765	-0.3631677916417595	-1.0248762343280247	-1.1195745439873108	-0.21577461009383994	-0.31579524198910114	-0.06115343406257859	-0.24138720272631792	-0.8602145292498284	-0.4524791229268139	0.34195253166648376	0.3817225386995581	-0.19391265462554516	0.3212230197425787	0.2205882960949083	-0.10069316600172512
-88	-0.7951931933353478	-1.0282186243800107	-0.06464369578729848	-0.6426385028826512	-1.2361754147790425	-1.0902029248369187	-0.28211221027673355	-0.3248569957160698	-0.18034571363692548	-1.2603104082712693	-1.023451921740068	-0.7196700554797607	-0.3864358653802392	-0.270258634600179	-0.8521921613158289	-1.1667810649023667	-0.8286260345519023	-0.4584850061285084	-0.7039870005953454	-0.4328878809013106	-0.7051414233524405	-0.8059378842033006	0.1491607870865934	-0.31920328655714153	0.014783651530670416	-0.023436447546319343	-0.31747454324676316	0.046886000663875584	0.4201061715009794	0.6360862835083249	0.3786121597267744	0.5162677155811624	0.5115125762422769	0.32799321330229836
-84	-0.35361596852668487	-0.8746091105313872	0.2773378186376342	-0.40065774220399736	-0.8247905948795791	-0.715222893339652	0.26314443283400674	-0.05172907175474401	-0.03723032763141292	-1.1023231716935251	-0.7663402538024815	-0.31100940625823376	0.16711032348403182	-0.01843683044427904	-0.8250002244147248	-0.6671912653290538	-0.4071134020540314	-0.09040109045331207	-0.4748669254711507	-0.38037812613772104	-0.17907544925300187	-0.22964623512462098	0.3722691526550814	-0.20625249989411082	0.1653939779397354	0.3169579199894768	0.41777348412893917	0.5749319777278186	0.5483851418954899	0.9091567374163614	1.0607510778348614	0.7247206550420519	0.8555738308286227	0.8684875943191205
-80	0.1388822045396073	-0.5064360486595738	0.732561467228524	-0.09282688773083697	-0.23852597116806637	-0.21740545277542192	0.8294532278100067	0.32680678285103965	0.06962548923795078	-0.7447416167529785	-0.5435706959352026	0.15627151688221627	0.6423538310999227	0.06277298166400415	-0.6789767128968021	-0.2845478646723633	0.09725856011392374	0.34311008366742174	-0.12086176841738755	-0.22820402624211567	0.3117258838889474	0.37552714253027863	0.35114252478636293	-0.022052666116707587	0.355816542203914	0.6310772879879818	1.098685381022778	0.9521962976256901	0.6911222321227294	1.0960719557745544	1.6395045477481611	0.8970510340930435	1.1402020425619404	1.3326599564284478
-76	0.4356497217146501	-0.12203829704705793	1.1090376349105204	0.10987497093354893	0.13980095053185557	0.09766358857531111	1.0608642074503596	0.5804135188707479	0.06232695638298571	-0.4397874463421886	-0.5637769088816234	0.38745364448953173	0.8235489109227531	-0.01201916389858052	-0.5247430788143113	-0.25057133968986267	0.411418347512065	0.6573861820789679	0.2364940935362869	-0.044263012595480065	0.5426917062409191	0.7706252913092104	0.1274855878710696	0.20269654640043372	0.5459922538323785	0.7825461010249019	1.5043594799207296	1.0786815854495033	0.8262376764417825	1.1283951969267718	1.9345496844086392	1.0230194304386697	1.2820028034267672	1.5592117270204
-72	0.3738684048750122	0.06445345266281693	1.2027995556027493	0.09656029915272357	0.006790064723782762	-0.012367648972638022	0.7243894320318713	0.530936120600128	-0.08382517078216672	-0.4227739263827785	-0.9440477466590196	0.17973139836709892	0.6050633772832444	-0.15469205340430095	-0.4783938217005732	-0.636057971302128	0.34478440793725756	0.6871022564706474	0.5070305453850625	0.09616515016118278	0.41345521703283183	0.8170062878962112	-0.13333199884607017	0.45833533886585526	0.7085531932107699	0.7118470054773868	1.529424425078394	0.9720920895829044	0.946878073209033	1.0033180688322219	1.8708223057243205	1.1225230665476156	1.261624571475959	1.4862089119581323
-68	-0.06508141739626261	-0.08086215684263758	0.8837258197407001	-0.13234183158840013	-0.6919294578248845	-0.6042758211138155	-0.1498985882789216	0.15065149924866222	-0.3333409122157224	-0.7795573453294754	-1.6394935804935502	-0.4630434799424541	0.04481772694597202	-0.25567689473449806	-0.5935429915701431	-1.3133767810086885	-0.11042725266948214	0.3809130182185849	0.6625969989260109	0.15261487624260653	-0.005456787054619744	0.5384503589387003	-0.23626035392239034	0.7360950689804668	0.8357461073755701	0.46067750337639085	1.2213519780794075	0.7448335867196346	1.0499908897593062	0.7768421153482326	1.5008363685862407	1.2149295776210742	1.1211793394391918	1.1703718871131492
-64	-0.7552614192967615	-0.5456657395891233	0.16129355091857098	-0.47634643196003007	-1.7166566805413468	-1.5109778604505895	-1.2529951302364548	-0.42169135702477867	-0.6148396714899764	-1.3927788699271748	-2.448434585111632	-1.311654445197607	-0.654054580467659	-0.2503712767001792	-0.8307047465331958	-2.019206995634414	-0.7638037781504687	-0.15148621759315054	0.7258505206855616	0.13307696547288136	-0.5172802792840502	0.10301157806137767	-0.07066040468257298	0.9987029408035601	0.9245304441951735	0.137294157992866	0.7434390168493458	0.5326091633701043	1.1140480013376899	0.5198774324642911	0.9624533628959666	1.2827620473899992	0.9226255393576062	0.7401294093519034
-60	-1.482867833208328	-1.1678892344552327	-0.7972189167875697	-0.7978135923269923	-2.6436045103085726	-2.4070210396076703	-2.1249773448699334	-0.9528135633254255	-0.8533834197433021	-1.9975939938655565	-3.0914344709546437	-2.0034658858261345	-1.224882599599119	-0.1547387089398811	-1.079326150076477	-2.480427974160495	-1.3052583899921981	-0.6735169274491609	0.7336693983628118	0.0774515120219754	-0.903801379306103	-0.26103156739134314	0.3276266447378552	1.171705600641276	0.9577567553181027	-0.14840334616386128	0.29031014369147584	0.4215187717762673	1.0895367833285907	0.27205678751922313	0.40464535253404804	1.2617533175083488	0.701170621532174	0.3193429104371754
-56	-2.0290670343668444	-1.7039121346369392	-1.7129248337413816	-0.99645286546897	-3.0786838453764847	-2.9528217241122245	-2.375347846709732	-1.236281987883632	-0.994811234346711	-2.3219113291291924	-3.3323955451753773	-2.2101838532912823	-1.448748108067116	-0.05094061406506521	-1.2224756448398764	-2.5410525734642198	-1.44772731892327	-0.9276617742005427	0.7037896496169923	0.02207742253332351	-1.0345559094058197	-0.3749834587643326	0.7979790548204712	1.1697671383887849	0.8975099302520106	-0.34200554999787763	-0.0007764637101395572	0.41213521257296876	0.9128898955185083	0.022932564781821565	-0.07684194277197709	1.0679589483000618	0.44529178626168686	-0.03189853570752317
-52	-2.240214342183358	-1.9406244705795201	-2.292752498560111	-1.0496939394197848	-2.861408226418217	-2.948939315979937	-1.8835310888419532	-1.1943621605282266	-1.012616035765839	-2.2319674435530565	-3.0836000364651466	-1.7994637443886756	-1.244962927536092	-0.03058194733885513	-1.203339454473762	-2.2254364434322165	-1.0664135190742272	-0.7654465417609757	0.6300868972128945	-0.026854101500660376	-0.9211080647101008	-0.1910129929726717	1.1454306811977262	0.9490164494395961	0.7038590294233357	-0.4597742545917451	-0.09855754648597599	0.4368174065051743	0.5444713817201295	-0.2651947730044588	-0.4597045171575339	0.654369531409857	0.11913417994699876	-0.3244611314687935
-48	-2.071302170292315	-1.79351996922668	-2.3354773462458205	-1.0012421582692257	-2.147636408151958	-2.4236802993617523	-0.8680135585804186	-0.9037242508959584	-0.9027256346799128	-1.8016272737792702	-2.442985051662866	-0.9050179101028973	-0.6998008471940491	-0.12939785388224806	-1.0538204881764561	-1.7095273689977621	-0.26343837313897445	-0.22958996834009507	0.5041612373974643	-0.0927727145594535	-0.6918777805979947	0.19391079198040065	1.2435185877875414	0.5518274293318673	0.3709910204580673	-0.5574945793381585	-0.06776501966295137	0.4131855954228711	0.010130110171193168	-0.6095525606978136	-0.7689819912569019	0.06279341860652991	-0.288807510600482	-0.5984855279117293
-44	-1.5909246166116584	-1.3396775688680056	-1.8007899477315796	-0.9119244790895188	-1.322354790209959	-1.6105029542316005	0.21867659632785377	-0.5366505966942513	-0.6797153932576385	-1.2667218414749915	-1.6463898378766515	0.13130818274247621	-0.022850464971786194	-0.29527541920498646	-0.8699759819000489	-1.2234114377604872	0.6719580871782858	0.4619494962950086	0.34003120574932233	-0.2041832203478292	-0.5111063109845134	0.5907461628304087	1.0859688493013442	0.10670241686584093	-0.04620392981427166	-0.6814804059942712	-0.01721735853080155	0.29496398493682136	-0.5858439788332336	-0.9730622147788193	-1.0332545015950796	-0.5688604102077475	-0.7303453069367255	-0.8708055593439383
-40	-0.9467900371489221	-0.7670642118160956	-0.8172034600606305	-0.8100615719370299	-0.7870300392307441	-0.8246767500083455	0.9205901003483103	-0.25606319243631204	-0.3768053045296151	-0.8875032044891588	-0.9549120640487345	0.9202195978773219	0.5476168976309195	-0.41137558117954665	-0.7474627475940392	-0.9368160343359693	1.3905568087755584	1.0224806044512604	0.17970535113739783	-0.3621223261750387	-0.4886255549968841	0.8086811283675172	0.7676046471289096	-0.22583763244354008	-0.4364901174015389	-0.8337144830635304	-0.03758331378746218	0.09343855059397772	-1.0905965539100215	-1.2699621883753798	-1.2541015116499823	-1.056530949786129	-1.1033849688328732	-1.1090880604398732
-36	-0.31439250628249865	-0.2710786454986061	0.3705735793294368	-0.6798711997986879	-0.7443932276051459	-0.308501063998484	1.004850385036239	-0.13131889667734753	-0.051226641853458973	-0.8033908585291892	-0.5399341569619927	1.2004846304148074	0.8379033186738346	-0.3679900160081704	-0.7231382709365499	-0.8928385354388231	1.6303701359593947	1.227689978360952	0.06748445315012137	-0.5301604257549795	-0.6360916479263411	0.7320067864056446	0.4130454052987133	-0.34067839298065955	-0.6802440268508168	-0.9789321397861244	-0.16751904743338594	-0.14232155644723693	-1.3721455300973722	-1.4171416723711578	-1.413770195252595	-1.2617168394658385	-1.3064564433491586	-1.2563159434070867
-32	0.15406633874618986	0.0402013285933218	1.4855385981246807	-0.49363297099414455	-1.099484798516487	-0.12765823272422563	0.5576338753926469	-0.12459402499928454	0.21512064283417667	-0.9635713076105513	-0.42318996680226034	0.9385350322869515	0.7898136357393717	-0.1392800059378339	-0.7594242672820094	-1.018036601357317	1.3130944934117448	1.0051504348172806	0.011389867373856511	-0.6567702872860588	-0.8869845248716328	0.3511053016857947	0.10280387077602104	-0.25836265021897387	-0.7188272458047645	-1.0846714946064384	-0.3980549861871617	-0.3669539680753003	-1.393113848029967	-1.3986176217053412	-1.5089784822512917	-1.1747283905887835	-1.3094733920414927	-1.2862216201733179
-28	0.37329262400793567	0.18044148339967656	2.2940313758151833	-0.26024267011741026	-1.5273220500531843	-0.16710363286267266	-0.09780676638228071	-0.14762607179563023	0.3368497482378235	-1.1665335864178838	-0.4931125628419245	0.3108178369304093	0.4569472957041528	0.18875849199321823	-0.7737858871950906	-1.186656472071119	0.5545917139356364	0.44305771477417855	-0.032965451395728367	-0.7097217422686412	-1.151662942839706	-0.25193104084304596	-0.15442252120130714	-0.12494727192565404	-0.5972252473057803	-1.1551568478983287	-0.6952913982003075	-0.5664970264437255	-1.237552401279167	-1.290822383482625	-1.5732424219465238	-0.9322957969015505	-1.186578270777371	-1.2408865658901949
-24	0.34472975047813653	0.2415016287428366	2.647491209975273	-0.05243612440102635	-1.66972684438664	-0.2269797617426813	-0.6104378088797827	-0.146031260121724	0.2628346078912465	-1.186468955859129	-0.5873743280839779	-0.41448122158308265	-0.043864391633389864	0.458857624564381	-0.696434794098147	-1.2993737426376706	-0.40852591292235235	-0.2770040028254124	-0.1367360499029207	-0.7009420973246822	-1.3708746398646798	-0.948281047334214	-0.3949789096873597	-0.13087946143485044	-0.4501381803114931	-1.2332718341207851	-1.0224648688250795	-0.7557741384498249	-1.0693479749384005	-1.2265652387168802	-1.666189785565309	-0.7500201444763153	-1.0833234759636017	-1.2183985679382436
-20	0.14504602514839665	0.30841267031050523	2.489621632966019	0.01837272378633981	-1.3449395861047813	-0.15530852934249517	-0.8048639873210937	-0.14924587271679543	0.009881950889910245	-0.9093226171423525	-0.5884873852177034	-1.0166537736020191	-0.5871959313826156	0.5299891220063275	-0.516547440178387	-1.326929208266342	-1.3234896626436172	-0.9682176088683517	-0.34337249311538287	-0.6798020584109231	-1.5308577975723334	-1.6042501885918696	-0.6438887103036586	-0.3909163167143709	-0.42835622917744615	-1.3620595897618137	-1.3413987125861941	-0.9466253495158234	-1.036107537514695	-1.3097249236418098	-1.8269976331359927	-0.7973439077273482	-1.1270757885133549	-1.3074285951029907
-16	-0.11237725587128874	0.3908507814076058	1.8478027535516044	-0.13045187261547253	-0.6476430280546474	0.06288954599714873	-0.7565839271516989	-0.25100138720083137	-0.32823732412435963	-0.3965679397107373	-0.4780703770965162	-1.403800483974055	-1.070127484480805	0.36232304481581307	-0.2858362190659306	-1.2986950841539715	-2.0034789988479518	-1.4988869390791386	-0.618423519957338	-0.6945284587491087	-1.6365385014223366	-2.1038854069043866	-0.8737563468807388	-0.8520843365137024	-0.602270363240766	-1.531349535890489	-1.598987813727226	-1.113579031993781	-1.169864055540945	-1.5320817193450613	-2.02398752655191	-1.0833916636770524	-1.333386775465004	-1.5098906717326313
-12	-0.32690685904936484	0.4154633273125672	0.8243837335753694	-0.4885702418866722	0.10906161340357809	0.30490174812584225	-0.7027953845400043	-0.5340667353497618	-0.6122484191695534	0.15125876626926188	-0.330105989337995	-1.6056394536487868	-1.4169464075553666	0.044166296608995584	-0.08572520294003592	-1.260407683051297	-2.362276071306334	-1.7990180208561706	-0.844344315781291	-0.7534345965436529	-1.6774644809332664	-2.3606507718567022	-1.0114361022208445	-1.2959730592432412	-0.9071381665214944	-1.6576915937532686	-1.7247493223513592	-1.1898300617695274	-1.3529325689489808	-1.755953784323967	-2.1477043574468304	-1.430650469028946	-1.5757183988842423	-1.712931747880158
-8	-0.4513157296707027	0.28365907001403906	-0.40652957455993044	-0.93500518562762	0.5699037895119063	0.3933477689825546	-0.8547916390772101	-0.9912834142452969	-0.7208658438602256	0.5043989407202285	-0.25528800423064285	-1.7004535155279346	-1.572170730436168	-0.25827714735625945	0.017526945054983298	-1.2371922700163434	-2.403017514837505	-1.830920453217336	-0.87845098750533	-0.8155211189660926	-1.620327468595834	-2.3301503599464035	-0.9865736340409709	-1.4471443854988386	-1.170300719167467	-1.6223218400049833	-1.655124898546431	-1.1023234101121036	-1.3793163264736157	-1.7848764612910444	-2.0658717103298296	-1.5641220768538888	-1.6480107265825812	-1.7405465797348758
-4	-0.5067650066932586	-0.0485734081532066	-1.6087739427003211	-1.2868173089916992	0.5262764679019315	0.2063146675384546	-1.2443822590881561	-1.5012525282150118	-0.6157886370370494	0.5198792206036299	-0.3364904812423469	-1.7418328479658813	-1.5069283208947737	-0.40339514511304064	5.918927475767357e-05	-1.2297866313402777	-2.191952461430574	-1.5768722255948913	-0.6450859291955944	-0.8213627317672009	-1.440263744532629	-2.033330196968996	-0.7896082977386389	-1.1332290143965622	-1.2129825322997572	-1.3522620166969506	-1.3814687694003103	-0.8301540592215063	-1.0838754149728282	-1.4888938627799058	-1.71753334565449	-1.273661610248669	-1.3935794795137766	-1.4650599919523242
0	-0.5618227706075959	-0.5260975943634122	-2.521668666195044	-1.3966187203432003	0.006247494819633134	-0.25590643222094855	-1.7108511881548811	-1.8842155885808256	-0.3729183664443359	0.19486406396304787	-0.5962766989912196	-1.7401851371698704	-1.2461211649904431	-0.3678401997339057	-0.12791271475445165	-1.2448241679234053	-1.8414362622499292	-1.0671042176961407	-0.20733584411249076	-0.7495340089947545	-1.1714131802547463	-1.578417774030015	-0.49986892812409117	-0.4092383672395538	-0.9730495189895142	-0.8965594149841772	-0.992009100793605	-0.4495603728864993	-0.4692578303887242	-0.9123296118590343	-1.1891086071509875	-0.563229678639322	-0.8281885364603555	-0.9155905819664627
4	-0.6833957416446478	-1.0148764823085938	-2.926541797878526	-1.2390196292112536	-0.7718427161756741	-0.878394899534738	-2.0307497926938947	-2.005755419435466	-0.15427158733995572	-0.3586752107624467	-1.002090809199395	-1.6987031655338796	-0.8914549924277898	-0.2672809057640081	-0.3484490803027305	-1.3227146830542043	-1.4970735273710705	-0.42336693299215167	0.23621940553153303	-0.6534522159290796	-0.9276224351350904	-1.1510705918814237	-0.25861197644743983	0.43734872230736066	-0.5665541872979207	-0.4354008127186965	-0.6653580648789703	-0.12573486534798578	0.25636631185655195	-0.2851819090795607	-0.7091352325655321	0.3112167410145615	-0.17167438523341108	-0.30495306772486425
8	-0.8865928627518026	-1.3743251527420155	-2.723509543218404	-0.9294075942416061	-1.5390015801674342	-1.5002007446559606	-2.094960445836832	-1.8617702675544259	-0.12898336318352646	-0.9888416503735931	-1.4934062920058788	-1.6604438978234681	-0.6088345035440174	-0.28480002212144895	-0.6535159928988283	-1.5302783212172901	-1.310861703424096	0.13304528560426324	0.43986558803129183	-0.6456140859516156	-0.8632956721444236	-0.9548448300095976	-0.19900305518928463	1.0157381270512915	-0.241197019206481	-0.20127908834660888	-0.5997577890512479	-0.04326238099738806	0.7661489824978802	0.08270373919587147	-0.5462867603814702	0.9507538652257674	0.24534660515829984	0.05817690849517103
12	-1.1128220530070447	-1.5302988252150411	-1.9819787690667243	-0.6573252661321612	-2.1112854427438577	-1.989481205685661	-1.996851677621398	-1.5840983350813467	-0.37870964312305844	-1.569767948002049	-1.9993252703733315	-1.7078124241626145	-0.564294038778389	-0.5451664314811006	-1.0314930651371244	-1.9075932454584483	-1.3838247025837542	0.34492918761905145	0.24593660173311946	-0.8260515311366189	-1.0815433236472343	-1.1117104263847903	-0.3720622351312661	1.0367628309777013	-0.23619641303986896	-0.34524556907272047	-0.9016137100344352	-0.3049999765801841	0.789529619607734	-0.025137737329912525	-0.8550978281366483	1.0207302544572057	0.1589213158648221	-0.06469034387229804
16	-1.24927591962115	-1.4985513649299005	-0.9319975948644921	-0.5721092209676725	-2.4400136409190254	-2.276504034016784	-1.9607504556742759	-1.3574414218962763	-0.8393919446733416	-2.0195186087165133	-2.4330115256870704	-1.8991960239144026	-0.8307453372961854	-1.0160349581815236	-1.4324303829267349	-2.400667422909234	-1.697189684397564	0.04760096582673188	-0.3102541558061916	-1.197331067876993	-1.5428155621676924	-1.5731672008850073	-0.7108548861676053	0.47908645747343687	-0.628662703834227	-0.8267562368500191	-1.4958614073179786	-0.8553519227366843	0.2770538025059965	-0.5908754453046001	-1.5590889414524727	0.443576632810283	-0.4647693920322128	-0.6901900154807958
20	-1.1855986088383164	-1.3475209440541964	0.11154452683181479	-0.6906788927760094	-2.5638642246364842	-2.336175674262246	-2.1536581461891227	-1.2995434966655623	-1.3187522854888298	-2.2763433398948756	-2.680358164695759	-2.1843533460780553	-1.318738457211277	-1.5031020603377225	-1.7472033456558742	-2.836722605218945	-2.0779445118893145	-0.7052931767776555	-0.9970950459101587	-1.6278815228370158	-2.043639654721898	-2.1043231434145118	-1.0553790304241082	-0.3855349411767338	-1.2652902571203906	-1.4058819973736458	-2.1244540160901266	-1.480221625405561	-0.5497100935408569	-1.3475736345600449	-2.3553328454632685	-0.540511070317317	-1.3842925990440595	-1.5743865927047436
24	-0.8764057137296711	-1.1326208086028098	0.8607861377917813	-0.8849693514415095	-2.513543122621199	-2.1487393324960973	-2.5133068498099056	-1.3832859958056343	-1.5839501579348092	-2.269637340537417	-2.6103565626996446	-2.372588390082178	-1.7864885285095695	-1.7468957856896097	-1.8295038892331805	-2.977944843403043	-2.2450897636950966	-1.6162271458827977	-1.495190259019502	-1.8992488336295403	-2.297860378185887	-2.374456161226144	-1.2285988299821926	-1.1282396288043008	-1.8305979920899154	-1.7585778191989339	-2.4561340746856986	-1.8982602309937917	-1.3044744697060913	-1.9123598288891017	-2.857423775134331	-1.491037126591328	-2.1947483961006387	-2.3241021574470255
28	-0.37636670375214276	-0.855220852123154	1.1541546554036055	-0.9625574326054817	-2.252193206822914	-1.6839833217066027	-2.728299372460461	-1.4535210095900999	-1.4784485064372592	-1.9272282074907838	-2.124155516029845	-2.2046053353915482	-1.944790358401644	-1.576151605441376	-1.5659196337264867	-2.6418409280834108	-1.941011900769582	-2.26110839272875	-1.56528985105138	-1.8237658693044303	-2.089734072177542	-2.125183815358914	-1.1242244215237889	-1.3927732670905801	-2.022311205526479	-1.6591991144251217	-2.2610909881725196	-1.9016520929008163	-1.6462495285432044	-1.9981433102704196	-2.8061261106215114	-2.0019130656243664	-2.540261023783601	-2.6026410990808184
32	0.1700490559814569	-0.4788011896442621	1.0056642268539473	-0.7941005805947287	-1.7024934248855772	-0.9335541701588714	-2.4110510288400495	-1.3332887854292406	-1.0091570590289667	-1.228056427716106	-1.2296088902900062	-1.5101667604465339	-1.6130557019515959	-1.0263041231946588	-0.9597004627793208	-1.8283427907558876	-1.0933088036590333	-2.3036224783910657	-1.1828676432308924	-1.3697558606850704	-1.417849417921434	-1.3334830965707178	-0.7591385226156776	-1.0925223799778523	-1.7369142726914342	-1.128111359609068	-1.5590581854558463	-1.4730708561899113	-1.4762201271933126	-1.5849671323813994	-2.230825180143465	-1.9245960663841482	-2.3107986391853257	-2.3183331431030703
36	0.5864685162996133	0.01028380447264877	0.5814050421340832	-0.40925347701696624	-0.8413816669202101	0.030581226495184195	-1.3687605823291238	-0.9531090235488312	-0.3519877484494664	-0.26551729373652416	-0.09307248121843331	-0.36020764617575296	-0.8393760898378714	-0.34500980290090666	-0.17208287076418669	-0.7703813294987607	0.08898897446576176	-1.6916396575179609	-0.556438742663273	-0.7133226376643655	-0.5358269797148244	-0.26925060085028263	-0.2666564875069176	-0.45861127856814626	-1.149727341610157	-0.4473485637337584	-0.6458984001064765	-0.8099928477817774	-1.0002114747543718	-0.9429443454777233	-1.4565528594435901	-1.4475705587079066	-1.703501220216895	-1.67966949515652
40	0.745493946577434	0.5470076189535638	0.11688386619383016	0.005493116085518623	0.21203528291097432	1.024178263939467	0.20388069697403552	-0.415826051377432	0.23027560056721535	0.7346438746977842	0.9815438961042984	0.8954163171095609	0.09332587546389493	0.12663441864466482	0.5202189074733472	0.14166961574549092	1.1617946595423363	-0.7152894121230534	-0.014475882016827155	-0.17103843347758566	0.15261304339978432	0.6064594372696489	0.16529491502036883	0.0931619403394347	-0.6308309419917472	-0.019745878825402033	0.03633373221522339	-0.23293283522923816	-0.6092169865485754	-0.4821630108103959	-0.9350649690861789	-0.9778684949027929	-1.1041755648391778	-1.074272987514467
44	0.6312006099977108	0.9889304612940841	-0.178582623150082	0.21280562823926774	1.1916226118519768	1.7890437796246392	1.7533740953046013	0.05214846866077628	0.5158047067017161	1.4759718142438052	1.6586377578820444	1.7569783881650691	0.7947334627113559	0.13549376989964848	0.8437643625890906	0.5370854721814347	1.6382566649082941	0.13330437209328652	0.17562474266057115	-0.040067810464071735	0.2980463497266313	0.8660050608704932	0.38043731354983357	0.20011284896871687	-0.5380346761470862	-0.14430719577594867	0.12760828403202995	-0.02017068671557915	-0.6431204660390882	-0.5124896155769683	-0.9877510045862465	-0.891229627266463	-0.8542107322106959	-0.837138769897231
48	0.3475824585722067	1.1870709627698406	-0.1893010730732387	0.07261112314011509	1.7859386160582602	2.099969143333952	2.6312091284123778	0.23998941420521933	0.43139666209976246	1.7162461237491704	1.7210872129856052	1.8241530610759138	0.9681715940827013	-0.3405094138131479	0.6661580784191257	0.254714011502905	1.242809292516505	0.43051803003334677	-0.04783341649018842	-0.43061038743019303	-0.2000386709884812	0.3504952779503811	0.32197710790405065	-0.2399582707784028	-1.003929970113941	-0.8348482230089406	-0.4435604799515896	-0.25581526691699474	-1.1752022475135515	-1.0530236932871104	-1.6060521562081695	-1.2962317434009134	-1.038794157266518	-1.0423431370167742
52	0.06719758344612228	1.0841561528490116	0.08810982830928617	-0.3574974527869809	1.7953836872548117	1.8834495496881063	2.4511253771885784	0.09394061541681445	0.08150416592047298	1.3901274169156808	1.183501717440412	1.0292342875244191	0.5758506045107776	-1.0688029500679503	0.07401236873060194	-0.5641841874183453	0.08617723711429061	0.06882188451795669	-0.5148916827553518	-1.189779278612307	-1.1245787115314392	-0.7189215999572058	0.05233671502966288	-1.0100603078136123	-1.8438526345430228	-1.7939257576472865	-1.3970324957861866	-0.7760670165495303	-1.948312158433951	-1.8081130935794845	-2.4323348937612885	-1.9523348758996857	-1.4246774875910844	-1.4448765479801502
56	-0.059720009414574865	0.7683555464418942	0.5670865163790657	-0.8397657253997843	1.2429345814795065	1.2680953709057279	1.3240982260652374	-0.23507872164502394	-0.31871738949415934	0.649080692083	0.29290351197678305	-0.2924391023881881	-0.13130792942273656	-1.6788284736208627	-0.6654668433554107	-1.5457811316563599	-1.3536310161746954	-0.6688333136838253	-0.9350908971065907	-1.9723439166816872	-2.0516443200764436	-1.8326066686137745	-0.28334054279316356	-1.7019027428573446	-2.647716753950534	-2.5706512863106328	-2.2325107994934568	-1.2501468626884091	-2.5108997758413736	-2.3336682260721653	-2.9466309473029035	-2.397814983036065	-1.5931756456205626	-1.616554256172499
60	0.01170160059656733	0.4345145214554465	1.114048120546979	-1.0870555611821453	0.36267504004464546	0.5236555324684853	-0.18084636284945235	-0.47502615927926617	-0.5661900029192626	-0.21486662273994647	-0.595433650897645	-1.5541329344612014	-0.7443032841964069	-1.8549269390957515	-1.2453790871648631	-2.2851490916731803	-2.4538526473080355	-1.2643077341583937	-1.0770902606473076	-2.4243316589182133	-2.5849821502270873	-2.449804299845112	-0.526065050227447	-1.9509034107543741	-3.0053763313708943	-2.816752903502396	-2.4914042886774603	-1.3532316650557086	-2.475571387716458	-2.298800939478068	-2.7580003668770505	-2.2138314191237476	-1.1924357384139497	-1.2001392811038507
64	0.18887406539914592	0.2677047841942581	1.5872564275721526	-0.9362330413068931	-0.5336039052842494	-0.08659233131003902	-1.3411886658185361	-0.40349781411340707	-0.579548893895819	-0.9259301996695447	-1.2063964574872839	-2.2224903050576965	-0.9191896296182036	-1.5008413753763892	-1.4874564371701315	-2.5705823833414465	-2.7666230131870675	-1.26466107049173	-0.9052381492647863	-2.3785045086890673	-2.5837976867291013	-2.2888214530378095	-0.5708093628776926	-1.638617869054721	-2.735927336460978	-2.4936921533567427	-2.008237833674804	-0.9378260350391383	-1.7477779344300584	-1.6887575345317682	-1.833078856608493	-1.269843455923287	-0.15980586369221683	-0.13223098185055895
68	0.277629195942883	0.31338700572999884	1.8586844158929052	-0.46488964440274355	-1.238992568702594	-0.46071794512776887	-1.6850587087049254	-0.004889507299982804	-0.43627115973950936	-1.37885641703569	-1.4968632421848338	-2.112706655890294	-0.5721308574536713	-0.7897679189769444	-1.4460869991031928	-2.5061862405444364	-2.2665431442256487	-0.5624931440456922	-0.5957613572337928	-1.953256482914876	-2.2540974560093905	-1.491975661325592	-0.4065268029439554	-0.9479315256981337	-1.9903486916835318	-1.9096223067707692	-1.0115467284412683	-0.11153303058598277	-0.5898197874436485	-0.8283177593299023	-0.5269535170602258	0.19072638403899286	1.2177108495485616	1.2984384265542166
72	0.07687766085526856	0.425074784874589	1.8290342046335364	0.027370179002919378	-1.768208856886715	-0.7200395446717904	-1.2582837311447332	0.48960965748196356	-0.31879016676524635	-1.6945102172030961	-1.6762447314856623	-1.5017523727648363	0.06830504519383357	-0.07443913798611625	-1.3807607854314556	-2.4543461737655297	-1.3823279107479336	0.516478954441713	-0.4181137670451027	-1.491710420657011	-2.040683025929924	-0.5654258117705266	-0.11138313235533172	-0.23835411607645163	-1.1640059918579202	-1.5541402062278455	-0.008853192418813285	0.8247592428365064	0.5246361480818542	-0.20306101390115383	0.6111828073329494	1.6797817903069934	2.450269931328922	2.601227038491737
76	-0.5151770101891713	0.33825483832788866	1.443869944741725	0.16974411861955588	-2.329808706123414	-1.1296273441404578	-0.5904839023940591	0.714608905895371	-0.4024519314141739	-2.1371109431669355	-2.0752243943272126	-0.9837840174632361	0.5850761518011756	0.2892691485731019	-1.6069681603867652	-2.8242559361677793	-0.7829240540764684	1.3785814012053907	-0.55901187517173	-1.3724514211335872	-2.3739688336516904	-0.11784706980038803	0.18982988548035085	0.17541722909030957	-0.6715918166370658	-1.8202273799716284	0.485728501047213	1.542889352717738	1.1796548336763208	-0.18050605013096646	1.1487894029223396	2.7321090629263063	3.1161191384796014	3.357707491980367
80	-1.4343630039240527	-0.16492395061338458	0.7131488305206393	-0.27798670460134317	-3.1657824436368065	-1.9180500458928629	-0.3779561510080327	0.37890815639198167	-0.7498363833569367	-2.936803571915728	-2.934338800651199	-1.1413408489021437	0.6027653798143758	0.11348722846465485	-2.3083147944345166	-3.824457397341854	-1.02586853245174	1.484940763539093	-0.9941793655090424	-1.7993299915661372	-3.4138076219199047	-0.5362737761309326	0.38337707422737843	0.2084462786418527	-0.7179921251289251	-2.7724721361733984	0.23100900591700246	1.8633358431501434	1.2482161490397192	-0.794920144458321	1.0165010665024903	3.151837817817521	3.098102084920964	3.46052955707416
84	-2.4600009856103835	-1.096515056702696	-0.2708238356428347	-1.2810491291127688	-4.351214397888751	-3.100143424790078	-1.0650573941997215	-0.5488496408910518	-1.2710300651884796	-4.1149339572011225	-4.230843056487338	-2.210301632069061	0.00017684866862425051	-0.5424075112953476	-3.4108445558263116	-5.316442953038454	-2.251680130041983	0.6542735679320109	-1.4881420097926072	-2.6838133267353754	-4.93236111349303	-1.770256991685316	0.4177321781102141	0.042325969678589086	-1.1934636801151508	-4.092018117110054	-0.6057932957613209	1.8470063162901265	0.9512634253326657	-1.7200610594237429	0.5481731281745591	3.0979580800995503	2.648503296841004	3.178369990907272
88	-3.3044085419196216	-2.2121367398677725	-1.3390291895437758	-2.5232021744919537	-5.682374463039858	-4.414595592797089	-2.565134757241309	-1.7871462061583607	-1.7695338681367265	-5.419208036091985	-5.64806984429102	-3.924188603983978	-1.0121599410251692	-1.4122147524464634	-4.593698966826097	-6.8548197573209295	-4.087028493099214	-0.82531642705446	-1.726409907750609	-3.6854925062589907	-6.405795081177996	-3.3396985446533987	0.327443300850989	-0.0046479245530439235	-1.7509117082258572	-5.233201013703941	-1.5323620995933769	1.7537099078724179	0.708892284034041	-2.449171536937774	0.2864623956600375	2.9629857465322416	2.241894001068888	3.0046009941536136
92	-3.7370271588388393	-3.1112954537993973	-2.280929559670894	-3.544260016076018	-6.731850607088184	-5.424413190497789	-4.284378994615111	-2.8569080757490366	-2.045015091501262	-6.415100558296836	-6.711294634087104	-5.626674637893622	-1.9923771569494064	-2.1511874144601313	-5.433477864852343	-7.8946089545248155	-5.809167847271738	-2.3349099100289914	-1.4950627050800047	-4.385182369604748	-7.267016392480184	-4.561786640093924	0.22343300226543758	0.313039540454158	-2.0132057615950005	-5.705778107542537	-1.9875421473867236	1.8938054990638156	0.8738694168915923	-2.5798463756276275	0.6626279337365711	3.1208605687502233	2.2997569979778514	3.3739616785695783
96	-3.684203615423622	-3.4403190525933263	-2.9005188868724505	-3.951581706560691	-7.053286057784206	-5.732959732840121	-5.4350900512801585	-3.310190669285394	-1.9934561202264065	-6.692293627054998	-7.0200342954780215	-6.593351824326287	-2.4870049890669854	-2.4837803777927783	-5.606933102756696	-8.0549144541506	-6.687159998222745	-3.2295873083591373	-0.8072614649418411	-4.494625080204897	-7.184512597064707	-4.8782954092838295	0.2532458000941821	1.0043065522586812	-1.7878171160382588	-5.328896509067802	-1.6330066878097327	2.4545493063944113	1.5048620662842067	-2.0443539567830826	1.7291783050748573	3.692635526870839	2.9409813806667766	4.402541626305305
100	-3.2528469480404025	-3.079340211723094	-3.0731863897934404	-3.594912281496839	-6.423926337235735	-5.192722307446277	-5.45488928371308	-2.9476711675608973	-1.6488298136090165	-6.075523837962779	-6.4465765790303555	-6.386086924642061	-2.2493643703890163	-2.3008081854904563	-5.0439119211642724	-7.295094471632926	-6.320797427431413	-3.139737836540087	0.0961131600099087	-3.988867749633667	-6.216197474997749	-4.112036217798038	0.5412061796829327	1.8220211221469702	-1.1656699151172691	-4.317360390253278	-0.5238554464465571	3.393122426049278	2.3146688879701096	-1.154555198615485	3.0973541658402106	4.466915119337358	3.9009656807638016	5.797205433514098
104	-2.666518681469592	-2.202860588234088	-2.7774212290258933	-2.619316094461081	-4.987063395306825	-3.987010945744312	-4.296748150467672	-1.9080575656400762	-1.1498835057790742	-4.7255120158097075	-5.192212568525445	-5.053700911160309	-1.3466665710781431	-1.6759117799407877	-3.952856769118507	-5.914071068137254	-4.809033858555378	-2.1161520427681917	0.8708931781715369	-3.09702061824889	-4.762111174958026	-2.5294368203197184	1.1274089784768082	2.395628446252645	-0.45630156878660894	-3.159417859683759	0.923464415126057	4.445466030341219	2.821703188447784	-0.44014903791880555	4.110977162472343	5.015005099032665	4.66127585187887	6.980451566238359
108	-2.1407055800749744	-1.1688111990982908	-2.0805668778342317	-1.3725633586561927	-3.200620881582905	-2.5287799771359523	-2.4270584522005136	-0.5827246293614339	-0.652871845504367	-3.0660445612744844	-3.667330732623204	-3.076466075759281	-0.10302554789996164	-0.8075349906560249	-2.7041647365961023	-4.376917351162481	-2.6711606911929793	-0.5544689879723538	1.242775913915515	-2.1629040186633377	-3.3458020602629888	-0.6889417750130612	1.931494946371613	2.4324552951434306	-0.003804886704017585	-2.3564519822707455	2.1394698565826107	5.2395696507728236	2.6163709097608754	-0.37078261281813635	4.1599092378492895	4.929608332585674	4.7164349436890705	7.360320549501694
112	-1.7571465924722007	-0.2982442967514306	-1.0850431891703194	-0.22456771078632304	-1.6080105264119655	-1.229149219270659	-0.5440426455113426	0.5935095533645085	-0.24093569754328428	-1.5698366125526568	-2.262799972543205	-1.0972694130850686	1.0800691815763712	0.07383507471516516	-1.635245438261844	-3.0672075671004055	-0.5777898416236489	1.0315170262042637	1.1334406108849806	-1.4579582177545563	-2.345705026426297	0.8314039686192906	2.757499687862201	1.8686575842408333	0.004989851719208829	-2.167424673330269	2.6672220162761655	5.447604165628446	1.5883177478743435	-1.1139458389768027	2.964422695304859	4.046750058447489	3.8302762411687157	6.599997503783386
116	-1.4067037070044448	0.3248287133121953	0.13143674996093213	0.605851767917698	-0.5489542470423685	-0.26543477110604097	0.8162614086523339	1.3623063529905608	0.11989887028463339	-0.5135616647151917	-1.1404131622132019	0.40888565675498595	1.9220249604336084	0.7870835045969726	-0.8792524315569564	-2.09803080029075	0.9638965701562694	2.250189537089203	0.6763148886771431	-1.0467703316009334	-1.8173819734465246	1.6859648185125131	3.347681275498723	0.8859164096399545	-0.36662405636730144	-2.4898037847599923	2.3495531022832807	4.902667510052375	-0.01135564313197095	-2.453911059859768	0.686131416018997	2.5282967026773333	2.1466016715212697	4.750720488951629
120	-0.8295411446608284	0.9132821536847848	1.5487084349631781	1.1358836860588661	0.03273541099508884	0.521079240913863	1.565250273567349	1.7570968821985835	0.55845731355814	0.17038008527654244	-0.1552732880963607	1.354382869161994	2.382606023494996	1.2503770558259506	-0.30179488582709146	-1.274819370865863	1.8183243228780446	2.9680259152817237	0.12356737969910406	-0.7673649172482283	-1.4894891939704193	1.8788390112170807	3.476269713208126	-0.20716543443350816	-0.8518363811920628	-2.926707260372005	1.358432527927099	3.6377572921461123	-1.6987330870654813	-3.9015560051641662	-2.1742174570503017	0.7691394071233563	0.1082059887299876	2.197375530417126
124	0.2671661072184605	1.8587460470954473	3.1925456443291234	1.5840711553633977	0.5757233485945035	1.5406560858929321	2.0863895363583493	2.06155895666335	1.2276701896189366	0.8663043953957995	1.0534349653350223	2.0435202070140694	2.6506500177218144	1.4944635591922353	0.4274013031659106	-0.21709063594367434	2.2352759781668956	3.2891878998682063	-0.2898405783011208	-0.32302880205613477	-0.9200920439378246	1.709091659045554	3.0470106524785465	-1.1468623847616164	-1.1249955864159458	-2.9887051506878874	0.07499068211457222	1.8461866332172447	-2.9937195702308914	-4.922159182519032	-5.0166659228504935	-0.8058304766336866	-1.7568659738053065	-0.5329570756807799
128	2.0663840718550253	3.502438297965665	5.089736925626212	2.2443134728035017	1.681083913373469	3.229252568674924	2.997274152817742	2.6446459226594587	2.226450914483732	2.082011932838518	2.857032768665592	2.9766485615917406	3.0216553134922695	1.6429735380653305	1.6670131641261572	1.4340723716768617	2.684656851666107	3.4282123955956942	-0.44522234685069884	0.5702703580763495	0.2780234806670767	1.5956705768352717	2.1517019217525335	-1.8356412602809176	-0.9560703611077304	-2.317564720024566	-1.0977895232140658	-0.200183063240085	-3.630137672795843	-5.15724323877975	-7.382938366369638	-1.9363384197938327	-3.061389676947858	-2.987085811702718
132	4.5375523452637525	5.922150596925449	7.2136711892152094	3.3348805820190788	3.790025939909254	5.799190029761529	4.786506163910107	3.762543430365603	3.5495397954968917	4.180124749120272	5.424833284033105	4.564684856334165	3.732738962285945	1.8687425804640685	3.61939143220713	3.826691141003817	3.6049473194658876	3.5685491471792443	-0.3556655040344345	2.052019590919002	2.2532503547999814	1.875996823342787	1.0533105108370455	-2.3499028623379394	-0.29687404557614866	-0.8273094275567828	-1.8938838195668528	-2.2342133465625227	-3.6345868018892244	-4.539320934279062	-9.08477304072282	-2.61382769878402	-3.6875891592383163	-4.923212515798843
136	7.423362713191405	8.854906059796832	9.450987791995484	4.894168841403177	6.923708898229765	9.099208808813815	7.527103405068156	5.427265153533801	5.08445690778676	7.167323094392041	8.614603020852757	6.904197198602513	4.841610419447251	2.3340098798951554	6.216209395926674	6.815938932376369	5.18964384676069	3.783144464478019	-0.10863574566831373	4.058738221411606	4.854289042614703	2.671948426176342	0.08843003191079173	-2.8427722382297946	0.7341855745852635	1.2916109529310125	-2.2470297756683477	-4.049516667632399	-3.2459270872180297	-3.2612843431149257	-10.178555462888044	-3.0242302341400653	-3.7689847851009275	-6.3205418427152615
140	10.317488644299967	11.794205635810872	11.613120049720218	6.759183866601694	10.619108173262571	12.650700537212883	10.810601207141891	7.396910648744029	6.646259767918293	10.644072505780109	12.01104733295627	9.714426016122847	6.19941852911726	3.1251232545152177	9.120614028791511	10.012140248769628	7.298226814917254	4.038044442472154	0.2120147640120622	6.348004801935475	7.699212531678301	3.863868942042154	-0.478028773054568	-3.416141739803416	1.935516829372323	3.677517643226757	-2.2574388923870625	-5.527226434104176	-2.745196812374464	-1.6480368334169269	-10.83811089640349	-3.401747933382237	-3.565351715622986	-7.292405110067451
144	12.795457807660394	14.208745920547264	13.49378296306282	8.629490830568587	14.102786982216152	15.841137846052336	13.930933917159315	9.2872113947039	8.03429983017921	13.946839297368182	15.08848281865573	12.458630530373595	7.519836883632645	4.207674015865902	11.846861809383983	12.927280393387145	9.5217456577226	4.24903248667823	0.5750333652283256	8.586634614246124	10.329005215315812	5.166743742295802	-0.5751950130245483	-4.039345254236448	3.119911901226373	5.946785911804657	-2.1005542225255898	-6.636861784390995	-2.2965726794434107	-0.008209408240155137	-11.21325966864969	-3.8794884583753992	-3.310213795887509	-7.969709376240723
148	14.546255074968572	15.762481649656685	14.939246139955369	10.180732701346901	16.62158008193591	18.173177673233347	16.211196858484726	10.736069652154283	9.086791015571242	16.41842075017345	17.411495164780433	14.578143083005738	8.506541230659279	5.423481450693012	13.942987406813943	15.146931610012068	11.359994859624434	4.341477859979984	0.999100384573919	10.460231754596313	12.36847969747132	6.2600726923247185	-0.3593937745557222	-4.556923854766846	4.174498547504838	7.815201739606891	-1.9330393027138442	-7.417110901225987	-1.8830095482014853	1.4626915417935091	-11.350203485442613	-4.416258323963545	-3.110570661320758	-8.42046067972915
152	15.452326735583794	16.423917728919335	15.897321660912926	11.177841158302101	17.767749741517697	19.446790646092005	17.30192943019378	11.541743249363318	9.717500662111178	17.679704621500733	18.779685926706943	15.72299762570852	8.977802253944557	6.538117392245282	15.156868896363932	16.45672794001814	12.426608054258155	4.285416592268742	1.5101052484532809	11.762988060816447	13.631455387031638	6.913450223634083	-0.13314212825061755	-4.775030600889763	5.065529810513989	9.151964164515581	-1.8349176598951713	-7.941199282623739	-1.3559122051337797	2.7005224159723635	-11.197962732653155	-4.827904689043622	-2.934863559942477	-8.634417512074704
156	15.592588385315116	16.421480137372757	16.421030003096547	11.546777696066915	17.640479996965976	19.79518694648192	17.306016878303577	11.718525856949212	9.930383657179169	17.77681155484931	19.26205820942462	15.879284818612273	8.935779548972528	7.327165108301224	15.517439803046353	16.885442691133004	12.601144758834582	4.105872143869509	2.0981624073460816	12.444653479627634	14.146069490956972	7.067460042276007	-0.1828412557992421	-4.5655875090723645	5.808726296064356	9.971519445039178	-1.7935464336888935	-8.270199754815554	-0.5490996227706086	3.734791984665405	-10.669002506022343	-4.888381945665834	-2.6696467332195066	-8.555861451482022
160	15.180689773378985	16.08651157132394	16.623128849021846	11.381609887951209	16.77037234840595	19.571987102685092	16.68134112914831	11.45573899237831	9.810703252818247	17.137821154240928	19.121398877504358	15.344907721877949	8.552956559521583	7.66545961352011	15.300105056280616	16.661254840746874	12.06832310490639	3.8727404973481248	2.7070562771161457	12.606738058686183	14.107493364955733	6.845883828998764	-0.6189006551375603	-3.9276358982105037	6.4361147718057925	10.388873074051379	-1.7215721563742734	-8.411884286623362	0.6157358273219118	4.6336965443923495	-9.705692266755248	-4.440563190692952	-2.1997351590885366	-8.131869295570079
164	14.47510715644703	15.681588133320394	16.610321002984847	10.892819377100325	15.849430044212552	19.160127591395835	15.988232572243456	11.012480707974968	9.496240591869023	16.362550694162163	18.678560209799176	14.57922168865487	8.089664438804077	7.576323966925088	14.895268402639644	16.110090215063238	11.235799761061044	3.689163913949306	3.259161940929122	12.455290762925973	13.789980853550345	6.502705080780734	-1.3033066955086001	-2.979632370101663	6.980915528792119	10.56719586565438	-1.4928261003951	-8.305170038235563	2.0885825104433886	5.464779840023558	-8.31542775915693	-3.4621505649893787	-1.4660226069630165	-7.3461508565443046
168	13.69474026083426	15.301972350587425	16.427869755276546	10.317740414318862	15.401993712639582	18.800264311054402	15.615842779787654	10.599536868990695	9.13271329481321	15.946099241051005	18.181917144646828	13.999947512566129	7.779793719676757	7.213539582159878	14.637729607818676	15.535634001608814	10.56457516863951	3.672167053488069	3.6938865091522266	12.224660842548785	13.450220074073686	6.321810706390036	-1.9145466040911001	-1.8985422801721568	7.477011184888231	10.66898533988469	-0.9895992254067756	-7.849822978227977	3.72258733763201	6.275697692285269	-6.57221697101661	-2.066253656892586	-0.4856091129440293	-6.232508643627221
172	12.968788114229614	14.887137375438494	16.046977956311448	9.828297590237204	15.556504210296357	18.515069914801792	15.62234111656324	10.30123994133806	8.824723221433095	16.064216573211283	17.732671692900205	13.816607440397181	7.730508307966473	6.782809240382377	14.669620476878784	15.119628868076607	10.379549000283415	3.903055658022929	3.9899420637483862	12.094160049421236	13.247351612976992	6.502139075075376	-2.119431967152611	-0.8483459928074731	7.95684335607057	10.810713740710943	-0.1555854674225836	-6.977184754875757	5.342684732299592	7.082547169923463	-4.603774535953491	-0.4529944050795962	0.6565013511295112	-4.87821434696714
176	12.331612555840769	14.314111673455068	15.39866825030667	9.472967123910205	16.024135549142557	18.152177764839102	15.757554014476254	10.066369984960836	8.60212705347703	16.519164997355617	17.28503795074424	13.968763316172693	7.879602412356893	6.444119913997495	14.896423302233897	14.872447929979975	10.739743205611806	4.366608608665315	4.157115925783588	12.126266448876308	13.199834790282019	7.072612267757385	-1.75831782373908	0.06417202933322046	8.437488534605592	11.025135012447413	0.9621100997475718	-5.72460316166371	6.806311590176555	7.857591609189808	-2.5780107909917587	1.1559413642308816	1.8298059655721397	-3.420651188797158
180	11.749859780209944	13.502659763577519	14.431751214784034	9.175354934415022	16.281263310334193	17.50753970494322	15.639634092898973	9.762176489024748	8.415636995048946	16.86441226516071	16.706264453670347	14.186681711618595	8.029608706228652	6.24335573527464	15.052189788962206	14.648679696292007	11.423003167875997	4.91171454143212	4.211134423114245	12.25056931263718	13.191047635152838	7.873901824144967	-0.9434427595160768	0.7968918661025128	8.900929428516083	11.244785280447537	2.203715795675166	-4.267427433683789	8.029861429921862	8.522267320097113	-0.686861096078495	2.5743224555823696	2.8857254909137064	-2.0319626280027223
184	11.161189051105374	12.47136589716273	13.168775525223717	8.788757302029271	15.855709035895917	16.45973582880449	14.985398254707011	9.262303328970889	8.167631128670706	16.642677265110187	15.864429433823119	14.141159021914193	7.946278552020095	6.108585819080477	14.841927490909082	14.22546478494597	12.035123794687475	5.275939451248625	4.157541264527631	12.303746192385734	13.026790586007	8.623429276628812	-0.009228749177401362	1.3579412664461006	9.288054442797476	11.324954957979504	3.3391768848036416	-2.875037662876726	8.984182335105206	8.962703682205333	0.8865796901253404	3.6900539305028452	3.691671123720808	-0.8819905497217353
188	10.508529636554451	11.32129284861375	11.726423233943432	8.183173158965939	14.570441209245887	15.046844444432244	13.769895518823223	8.524787881309011	7.768612365182282	15.61940761437338	14.704661332198029	13.607971157049425	7.475854854782508	5.912760242792663	14.093396151246209	13.413820232856992	12.193536727637131	5.189728246937479	4.001072873504219	12.111025779664299	12.526111571157811	9.038604713507842	0.660196243049809	1.7884569122936624	9.519062018203007	11.1073703485435	4.154110898020179	-1.8019419863028898	9.677671408061345	9.07408521268584	2.0197670408753097	4.483335006838626	4.171306599575885	-0.08205187299993122
192	9.75927159706431	10.171461079666209	10.285709355134596	7.326131325344849	12.625678030562192	13.454050030118703	12.236366241078802	7.622909049815284	7.1917166528326515	13.900011027527915	13.285615887477553	12.571144072264818	6.625051958523596	5.565071091906577	12.846847501744515	12.158624618350276	11.701671570797917	4.517782676734565	3.7709937000433653	11.574165315016323	11.611947030313999	8.963985420483347	0.8311663845058157	2.152720922757041	9.53642175174072	10.50421712130655	4.544303882569705	-1.1676323384368994	10.14667508424539	8.820952393195544	2.7033519676619973	5.024657236764644	4.339748371611548	0.3679478755244206
196	8.906454063817076	9.097786880411643	9.031113601771384	6.3171124298821235	10.495449993337962	11.931941955958727	10.764433833601226	6.717962724890581	6.4978031948067825	11.884436577355523	11.770939797246566	11.225170107157217	5.567817673930893	5.076791750487997	11.345546693767357	10.587902042359914	10.63666722473191	3.365872374619665	3.542165747282477	10.728053065870812	10.366387341075923	8.444503762859364	0.5412484393759718	2.5319631035775005	9.350017524000897	9.566846823380214	4.573365676777336	-0.890224394934864	10.458408329307948	8.285719850601565	3.0656540316429024	5.45341633373511	4.316813934871356	0.5999593123547247
200	7.959685305526285	8.110937098052126	8.081705072979446	5.354746328185888	8.700686432805828	10.687265369135412	9.667486166387842	5.980991825261996	5.812077984440904	10.084082577994728	10.375428173572628	9.874183629855239	4.56994389333871	4.561867225573457	9.929879163467064	8.977977730018331	9.30252835786103	2.076944822789666	3.422977677286157	9.733541464072632	9.014170623908887	7.698096255893765	0.06826814991881075	3.003539077804976	9.049379325907397	8.491327264328062	4.44699286291793	-0.726380405976277	10.705942126900759	7.663891772947896	3.3318886672774872	5.929997429181028	4.293004025110914	0.8329672792385125
204	6.942153436299652	7.183644276601811	7.45070455577374	4.652873981172545	7.582407455374084	9.804618810694937	9.035377479629272	5.506175504134132	5.266159997995728	8.898160911982545	9.290286040692232	8.785775162449397	3.8691804311339686	4.176633347456724	8.8913383259402	7.647429923776812	8.077336290947018	1.0911705466377595	3.5094821364488578	8.811880089446477	7.83870075154097	7.001249772515194	-0.23228865803245452	3.6065647511024292	8.771926857735826	7.551025848397651	4.40926407654468	-0.4041736115741642	10.984905215185702	7.198157769149397	3.724824895991229	6.572104914284716	4.453704345902694	1.2739915815613125
208	5.899548992520842	6.303967459975126	7.053065282180515	4.347812641610719	7.184104424458315	9.233885741762363	8.705675103142353	5.262643323962859	4.937013613633872	8.456342675793342	8.617387749849632	8.074384668945193	3.571639528793756	4.034480561560742	8.357017495990403	6.82697961990953	7.2346095856162025	0.7384807448815786	3.831135024888471	8.152736643234679	7.067197781839658	6.547685129800471	-0.12364869533553358	4.31256102426808	8.640125252843983	6.983622056495246	4.612021434583792	0.22301921192129034	11.353128404563645	7.076913815750674	4.352020729521237	7.396698933046322	4.8933696623280465	2.0108396956219705
212	4.911289679525234	5.5143799642574605	6.7525143452867455	4.43709467721294	7.282909374922968	8.839715935323465	8.372209527812398	5.109780298683518	4.812698828944074	8.592484452488192	8.335427263195792	7.668329219530931	3.6125726608620408	4.14059590247935	8.25442884268496	6.563848955748431	6.827061159063376	1.0680863830302698	4.319812763751725	7.838148574113165	6.77668617444935	6.3532404739193264	0.38991099497580495	5.018136965479836	8.698319413158483	6.8848633592348225	5.025163637825377	1.0846706601414138	11.790120095049703	7.344551544719729	5.138404356381024	8.293593385737935	5.559433923036533	2.9511899873609733
216	4.094876755866264	4.9088916654626855	6.426976664529059	4.779978263230787	7.534820060779875	8.482367494148045	7.771197776247532	4.87460230550287	4.806929099344384	8.951256729414409	8.313015916816829	7.3752493672130255	3.8010451697703487	4.386447418582267	8.368447282643674	6.708824140776691	6.692205412180954	1.8152261926597313	4.824071871975662	7.8187603753095765	6.868813497367386	6.262480719967565	1.0780249806843154	5.572794423338494	8.88594052932297	7.166229229953886	5.444563375078261	1.9190195750423316	12.184846847287977	7.873943785814783	5.849926456940561	9.051934219394598	6.262238963528966	3.8496761224826503
220	3.587948313237444	4.586694705826936	6.020469650327119	5.1547593940289405	7.640841941615711	8.081855753521056	6.834809286027457	4.448217857574261	4.808238017340346	9.159127212288025	8.359572389477604	7.000993234124729	3.920354356404547	4.602486598792436	8.449515321379426	6.9888439002015454	6.565681440942779	2.5383872921751727	5.16784857398857	7.943792799920658	7.1218209086853905	6.048950180040369	1.6203811127759964	5.834128841929176	9.05904958345134	7.596055965318873	5.595206246554614	2.404377692827845	12.364058463351624	8.41567132732425	6.199635013186538	9.431695914297608	6.749139291889505	4.412152756041782
224	3.4992327601777378	4.5907297018494635	5.559790120392811	5.346631513448075	7.453263263958198	7.638751487519427	5.730509743527459	3.85099672298896	4.738191592651474	8.978077865821302	8.298501947432086	6.458009226706569	3.832356204847546	4.6385483624648165	8.321069696398546	7.135019284353972	6.237186892974541	2.851863138627985	5.223044859097015	8.030794123400952	7.298138123206052	5.55479429749893	1.7833633377825966	5.726763233984916	9.054902053859761	7.908866862356249	5.279418455146091	2.32686638244615	12.160827606015612	8.707098938893154	5.987462505482475	9.258791900146747	6.813542825662449	4.42978667094477
228	3.8436560533755353	4.86488865577764	5.129863249224854	5.228698240430398	6.9869470419910025	7.208158951680298	4.768814551711121	3.2289750494495504	4.584146964897089	8.377615907498456	8.032873133405468	5.80775164091545	3.533192864080644	4.429718006394162	7.938045004830189	7.002910119495866	5.664959416391932	2.621621363696594	4.957459914088841	7.939812640171185	7.25265834884578	4.792654025375298	1.5327476224348107	5.27332304576817	8.765723206323266	7.926088313118433	4.490264404404139	1.6905118184323684	11.49223610837503	8.586494424121966	5.198918329464325	8.500720956320945	6.384026988123825	3.873039474245563
232	4.496009338471666	5.258575426176498	4.824921595789435	4.801437365807224	6.356674178286878	6.851026040899844	4.233966339865683	2.779618017808189	4.390362251641231	7.509098034019866	7.577919940889564	5.218675600227431	3.1372945229476232	4.016448010794502	7.378885727372301	6.627837164357628	4.989375578681114	2.018375868469765	4.438152778864321	7.6203994558579975	6.989447099205149	3.9515974421868716	1.0278382275380147	4.582099426144934	8.186078050926378	7.628384570889106	3.426683655670355	0.7113921624342541	10.408390972561671	8.056677797957184	4.010485638983384	7.287633877474517	5.5491895535555615	2.89649390443022
236	5.204464422437383	5.58227203867101	4.700779426150472	4.181785096100943	5.69652460567381	6.596667273078903	4.234880913532807	2.64745044039835	4.221744049857478	6.613656980982785	7.049352628076119	4.870184409243273	2.8056237626766127	3.5189690501059356	6.789232713724314	6.193183883289495	4.447234142519371	1.399727579397546	3.7976772689304634	7.119648915435259	6.6441550087072985	3.305165044069201	0.5161309229217482	3.8048138522406925	7.415708523147253	7.148751240801236	2.4025895534890984	-0.294536262006993	9.089376426636491	7.272274952647572	2.7028505733914123	5.8712043613973375	4.5118884926368965	1.7581163600402478
240	5.671653256401887	5.685917839953519	4.750657069609748	3.5552360921744044	5.113342272246301	6.436554415664546	4.655953395532445	2.8451650070836165	4.123449315150815	5.919579490974908	6.612120134825777	4.857279288426246	2.661177866892622	3.0869514864231156	6.314530356676972	5.930427536296641	4.2397117507703665	1.092392918689727	3.1877932468038908	6.5557865930978885	6.404925807040787	3.072536699167029	0.19526874969772867	3.0884785574184055	6.619152529217201	6.694160921361807	1.6984891848596761	-1.0658658715994136	7.786828498253966	6.46006677903902	1.5309393367261803	4.536948192585834	3.498560896623526	0.6987726670742695
244	5.678765759435688	5.52495192086529	4.915285098063731	3.111191264880593	4.687474715795879	6.349363787832923	5.231583105230243	3.245981923491085	4.103642930160538	5.574664101831088	6.413458807965288	5.148342596407202	2.7383274962907334	2.850224964575114	6.0549168433859	6.00510500345429	4.429895866653723	1.2083950012215567	2.744517557844319	6.075357421794986	6.417967780121873	3.3099415218708623	0.1260443624652006	2.54469298673933	5.965853199201584	6.442977889006482	1.4370319807010667	-1.5039461813149004	6.736853582539419	5.818612560840421	0.6251704677056539	3.510082712848098	2.6738417081082075	-0.1496626432931739
248	5.195378290410763	5.176397310539252	5.108495222545405	2.977533571355131	4.489035118213395	6.32518051457855	5.686227307268412	3.645740738247172	4.140465725935489	5.619112477420771	6.516704542873074	5.603829846538946	2.976884595984455	2.882613413208551	6.044589027402454	6.433414442985706	4.913557040206766	1.596386547826506	2.5650069648832328	5.800652012484888	6.714518530105575	3.880181779601676	0.23356699884572482	2.235599273759341	5.5676998951531145	6.460952742476725	1.5374022683428588	-1.6866410928104272	6.073795780105813	5.43726347504176	-0.03619263684552538	2.8863785194002167	2.092627281627635	-0.7906470874851618
252	4.407906997995861	4.796528804113073	5.249391065695536	3.1766774574185033	4.58070801532081	6.369701369416097	5.859707817542086	3.8631591699339607	4.204436291569877	5.996306881070497	6.866363508054723	6.041230663305709	3.2571473039408003	3.1879391589739323	6.256172164380465	7.070190411836985	5.473836884983601	1.9500342558264536	2.693487160557997	5.787065014533352	7.195108872367544	4.515495288892439	0.37825316095219863	2.172197098016096	5.441102490992761	6.6775851081102005	1.7697048142575107	-1.7914195015500987	5.786107525522098	5.27282570461342	-0.5754447564855266	2.6175551348402832	1.7082440809989878	-1.3171781268242861
256	3.637067070361356	4.541088569620059	5.2879958019261935	3.6140842346497286	4.992018210205203	6.483865721544852	5.752451882143935	3.822120656853979	4.276171673468841	6.58348654038513	7.3020601088223716	6.308658583925684	3.4531643303471498	3.6985402013859607	6.618319017866766	7.671650390329431	5.8837094158396415	2.000403399185307	3.1067731302024164	6.00326488886543	7.675773601226004	4.938549029279409	0.44354849941802	2.3143384398203093	5.507349000377507	6.930031282094418	1.8765777302093012	-1.9797508666599348	5.734697327440227	5.190107332477293	-1.1204915018402204	2.5534574921035547	1.4228210413295972	-1.8284201575846106
260	3.1795117774797066	4.4863014107923185	5.210334287840044	4.103235234391303	5.6760549401981475	6.63159511799194	5.477502809046611	3.5717701821747743	4.343885410785673	7.222983818891405	7.613956432192624	6.330495818367621	3.475548020171008	4.2811016928350565	7.032155972846099	7.996881941632323	5.999381527058828	1.6737060504617984	3.697898140154061	6.336182578301993	7.966600397977087	4.977694022008946	0.38594773314308356	2.567612641527655	5.624690995320504	7.0438723386307265	1.6949182706001984	-2.311257833367516	5.72138689503975	5.037876593268133	-1.7248253778779006	2.5155897076990397	1.1453878850628856	-2.3617680013155513
264	3.1539149204734094	4.591005790563366	5.027227865878026	4.42453812435768	6.485495074110318	6.72575710505889	5.165523992848198	3.2400991834851856	4.386654365908405	7.753120402788534	7.6214546964864365	6.115873798188053	3.2941117203513803	4.754693019306589	7.388504963340447	7.903923014712482	5.807187065721563	1.1257995338626465	4.2779989134544625	6.625421030483113	7.9485392369814285	4.628135192630268	0.22950082959405854	2.7907578874700047	5.642992482243292	6.9131202523214395	1.2228866784692096	-2.726765625744973	5.579539284924248	4.725011813632015	-2.3393800199572805	2.372053855629182	0.8325061181030496	-2.872362129588803
268	3.437619439028975	4.7195539355330025	4.7586436151523275	4.405023563707486	7.196923714587083	6.6520714591878	4.886901366293352	2.9523987695539664	4.361812580540216	8.040539721215701	7.24486730653757	5.736686692059227	2.940929882253821	4.933048235836266	7.590197067170823	7.401614647297827	5.409342275313671	0.6402033551265008	4.618436324856903	6.721441728788047	7.618703346090551	4.038091649350697	0.025219820376141594	2.830090277202243	5.464522347958779	6.546647055309684	0.6082755907913697	-3.096396915247535	5.250049100972195	4.265657414157008	-2.840269558411284	2.0872430748693778	0.4999881076110187	-3.2613489545496988
272	3.736104717358624	4.7145972132859955	4.42136620358932	3.99279378836582	7.583071689533783	6.32414768529649	4.636119353987063	2.7651698519511125	4.213562954754843	8.010836581031906	6.537541849796784	5.29313706015296	2.4991302427137403	4.690500724394196	7.5773854064365675	6.636667711668097	4.965279089789314	0.45863282564717817	4.533428657530023	6.54618690745318	7.08717344402067	3.4352514657073168	-0.18439632607634465	2.580793374221428	5.087473379641937	6.063751205393625	0.07418391089783241	-3.292679539950333	4.807748305580108	3.7766077423112954	-3.087888233018041	1.728437061714302	0.210365205472068	-3.4272093686359466
276	3.7484841252100596	4.480378616465231	4.025163640350134	3.2891461766169687	7.501504402294652	5.740017399600867	4.376767624295183	2.651354783039859	3.905764331493263	7.669017295548481	5.664846405985724	4.884742247646459	2.083499426349777	4.029761304217921	7.348370056672979	5.828489765710503	4.624717700726054	0.6506624205374111	3.9736919302750096	6.131676658408165	6.5330924822848235	3.035403005565714	-0.3695883443561095	2.05220102745724	4.6156082036787405	5.647493348168208	-0.17390908256968796	-3.242918721594522	4.428967464709046	3.4329583558193075	-2.9816186352791436	1.431985732277833	0.04885830345335248	-3.307897559397385
280	3.344394675394106	4.034440507239554	3.5791790395016494	2.517122739158792	6.955790502152673	5.002696501499044	4.098175992155542	2.5381767685703576	3.4605460079560766	7.098464947898411	4.836868750758051	4.58653353486787	1.809499139985592	3.116095296621751	6.964231473505873	5.182102667122748	4.475400436546159	1.0908344956513643	3.0782668512826885	5.615313992628115	6.139391883608412	2.967976562635974	-0.4952484654797356	1.3960460389176443	4.225675572216937	5.477112279415029	-0.020966023153776697	-2.9419898912538303	4.314629067017986	3.4015781793543454	-2.489417546662823	1.3459054197662832	0.09763918047333721	-2.896517269450913
284	2.645411484715021	3.496595850699532	3.1022090833541984	1.9298341225537847	6.090821250796471	4.281387795129255	3.833533992625334	2.3658394753805894	2.9696063920385973	6.428596003514229	4.219396103696414	4.42730616405406	1.75157391582764	2.2392258587568987	6.5253476931808425	4.811066138518509	4.5183482056027655	1.542051430623601	2.1422812884602784	5.183471189763335	6.026349529310076	3.239499560760259	-0.5078533875041094	0.865751323898325	4.096832265047118	5.661445603382005	0.5256197439274544	-2.4349164901292824	4.59860705168309	3.7746803665227047	-1.6533174473028256	1.5681897362216708	0.40934616223935794	-2.2357895317849836
288	1.9585957477710856	3.0207424087551944	2.6292188101190628	1.6944851832523538	5.127056585718757	3.7306575680956433	3.6270136741617627	2.1271209663092234	2.5653221542440092	5.785079941448765	3.86620234466993	4.3758101352839285	1.905657644228899	1.7031338171874273	6.129922374507564	4.70379732851712	4.674627769112006	1.7887198879857475	1.4980137310353838	4.987706648631616	6.209940894660762	3.741138687225065	-0.3509367993554401	0.7102800589748427	4.330507267508903	6.197962745276941	1.3472206558545763	-1.7928492977653607	5.28329275704671	4.528714168558771	-0.5802542552603102	2.103877539091296	0.9817623471268486	-1.4055603707112498
292	1.5975712497430705	2.708901398495154	2.2073295060694846	1.812271232797807	4.271734703722963	3.41238140198332	3.4750914485931808	1.8647904348975697	2.362304204698597	5.2485027180720465	3.7069885637150946	4.343442905903978	2.175020450822688	1.6936104254878386	5.836512550877015	4.746244418558877	4.817229735609881	1.7352325872479872	1.3652714456420711	5.075057493747991	6.600996000790142	4.291834820401951	-0.008762646444370052	1.0526341173298421	4.898261057884545	6.972615224400234	2.2564649524938916	-1.101349589428222	6.232807620524659	5.526125893945823	0.5748515710622196	2.860372297694636	1.7433404878470236	-0.5120446073001987
296	1.6946730570922115	2.555627578005058	1.8847451162436732	2.116008991621092	3.6497502234818	3.2673821366786315	3.2952561295281786	1.6346776444171471	2.399045222901123	4.841797339612795	3.5985584168178337	4.214678753702221	2.3990874229895174	2.184912676063216	5.650782570877189	4.789122092553405	4.820872771489355	1.4266474210959375	1.7495034888919494	5.3698792322004145	7.045724374148512	4.703244674252158	0.4550914156867895	1.8169664098642	5.645874486020196	7.800847510669744	3.0554399413214	-0.45825368050271914	7.226374131077669	6.560193522102875	1.63436734263723	3.680291166550443	2.560243361684811	0.3225588194332674
300	2.11831974448391	2.4573996005003744	1.6950411753774148	2.3546533525145446	3.283985844903923	3.158206216467824	2.958951227346871	1.4638613425489173	2.6160998278371217	4.551962840985426	3.414062252961742	3.902701606433857	2.423246377548883	2.9392819330392315	5.544974789924845	4.728157508356739	4.616658199098453	1.0014427875030332	2.4445486007006667	5.720084652763985	7.392603855542013	4.8475513335863045	0.9029954649061297	2.751084559170512	6.358135207335923	8.495400407323148	3.593462458120983	0.03525160244147769	8.047599772162233	7.426363449420401	2.434458249621406	4.398636806826638	3.2700524247578273	0.9779172515020962
304	2.5458619530297137	2.2814705314255095	1.6402043062760574	2.327553027952229	3.1249294202108975	2.9589126035371542	2.3764703213773086	1.3339116539655709	2.88661479221151	4.369112957413875	3.1205923478494113	3.405409804329413	2.1795406286524623	3.6165504364257286	5.496518121193427	4.556807029663381	4.230098236848105	0.6146535857894575	3.1470847050365527	5.983793243559367	7.555895309444927	4.70514963869437	1.1814044684146403	3.5431847482869845	6.8552660768998805	8.93449208864863	3.808345546644007	0.29891675635208875	8.566939332313428	7.992114523736645	2.868794195561556	4.899945723560223	3.735532512770225	1.3642494644053327
308	2.6517848901554726	1.954664702248784	1.6843644338043344	1.9978367039784692	3.1035039346540296	2.6404831342788557	1.58196055489723	1.1996408670654972	3.08398722823663	4.314999092651817	2.803577177598772	2.829831593044571	1.7368309453982487	3.9403304954227156	5.51977966822332	4.366903770865497	3.7835087680659667	0.3771595945372655	3.6188607124513896	6.109697803330599	7.549056034102087	4.374104488773343	1.2057311504439807	3.9730009932345176	7.074728471060147	9.104478813072971	3.7406287098856543	0.3080662481159453	8.78102204966843	8.238311746778388	2.9263012335328202	5.1518516410455595	3.8980362316897765	1.4545407258503427
312	2.3043248595233257	1.521491404506687	1.7641780331893113	1.5206965169659692	3.172483197785538	2.2993409575583694	0.7577546815814212	1.0287085745588274	3.148992768920285	4.436834800962376	2.621325486240676	2.3611442983141964	1.2848529783234408	3.8337287806039684	5.665557847023966	4.295146931294468	3.452528229579713	0.3356324723829714	3.805426826406015	6.16316126221051	7.4707402994365335	4.0319199460276565	1.0211008761374833	4.016238202445423	7.0946554958511445	9.096307731550633	3.513017883968007	0.11708632081987923	8.791997887348238	8.252122858193713	2.699450486043429	5.201601015309603	3.8016815089563645	1.3005394902772445
316	1.6542830425457489	1.1398332090210015	1.8201423837483932	1.168919679551508	3.321446887213518	2.1140253490479752	0.17359396771471725	0.83814400222883	3.119436494580845	4.773126590121866	2.7171993187012546	2.1873588506786215	1.051533696380777	3.4518151196114206	5.990408882275574	4.447165477968764	3.3956866178610414	0.4858276533735465	3.8447766206944833	6.286158068998361	7.453621845500262	3.865924110188821	0.7950955609274521	3.8445966146677164	7.088416558488967	9.059861160292554	3.282852402981736	-0.14997760913653307	8.743727661945206	8.17809102854664	2.3524501264306297	5.142458425889831	3.573522797145325	1.0185589764628096
320	1.0608766052164416	1.012609836882798	1.8346298886709222	1.1946258514760473	3.569500675726036	2.254983896284252	0.06798323226692314	0.7017456275388705	3.106536142135388	5.316664682316458	3.1396357933884893	2.414726728064778	1.192113754123686	3.094149343308019	6.515514357329204	4.840362536607384	3.686952820052301	0.7937540391908795	3.9624557395074795	6.613529188624709	7.601139049412485	3.998881091512072	0.7376278024169962	3.7214398290136916	7.2321238335167655	9.135403610052999	3.1839296737393044	-0.34622514160480844	8.747774102059502	8.149157503534243	2.0565240331225954	5.06492899569617	3.3648307238502	0.743939219027038
324	0.8985404349529306	1.2910871473140488	1.85623812206821	1.6986525015859484	3.9486110110725856	2.798542492476596	0.5359214530765548	0.7215294819734792	3.232068768924161	6.002861007793451	3.815984239480556	3.018177740106274	1.7088197426567753	3.0439901275075347	7.203576546601536	5.397482858381943	4.283739555987576	1.2054110735023449	4.324201096107588	7.1945962724237695	7.944057444542793	4.442975986707369	0.989216503983639	3.8542640111887185	7.6144599722304145	9.393817877894218	3.2823700821974313	-0.3652441492395903	8.83700559292308	8.230707147798563	1.9222201060401103	5.016721235960706	3.281842223464633	0.5752186164638198
328	1.355226155674147	1.9998602816634847	1.9923909852269595	2.5759944850733874	4.486329544184581	3.690638771275905	1.4835649691318609	0.9800848340085254	3.5651664643874916	6.734629137202019	4.593790519560241	3.8550374410573713	2.4454996524103016	3.4246337327324152	7.9702262677189095	5.993809208042135	5.049836146002831	1.648229237209776	4.932302939359876	7.964918593324351	8.437502839720302	5.105549799426621	1.5394607743496243	4.285667408613324	8.19621560888418	9.813321088810172	3.5664315133650106	-0.186979785089483	8.966464020025429	8.403874376060088	1.9636951635373245	4.991153227602407	3.342810145521397	0.5382472263098186
332	2.331451410129276	3.0179378910163037	2.3621129929986404	3.566122999724432	5.1889734137179495	4.773380267489389	2.672837489055567	1.499163504630198	4.091139783066861	7.4278459361415115	5.321642385398373	4.734104144541677	3.1630468288671016	4.15495299243944	8.722233750256308	6.527531130522742	5.821885571086064	2.043276066389686	5.631280407993077	8.78045175242866	8.994259811581228	5.8415546269751255	2.227601284124993	4.884966837947406	8.837189652065682	10.299903843624149	3.9717178244450326	0.12206950752909965	9.053469635040136	8.591140725379768	2.112561697394566	4.9444188946820695	3.4827427776143907	0.5891942366983102
336	3.49145721507713	4.118828286262335	3.0237431449841905	4.375294674317212	6.020456298886723	5.849253162874878	3.824102868915625	2.2204072419373455	4.722511756417869	8.043665865616989	5.917201027235796	5.498008237309049	3.6560077574931005	5.017126547544155	9.39499185097475	6.967709523729026	6.480862124292914	2.3303146303469897	6.212168201021106	9.489724135281472	9.5298528430659	6.522421820385495	2.824602835199496	5.43687580643312	9.371640181722183	10.73663899571974	4.423770416534911	0.4527368832124943	9.030697799770481	8.706340767813524	2.2705426158799797	4.829724299634732	3.600235453099	0.6529502256120487
340	4.434612739810759	5.048633085855721	3.91342400516472	4.808236586828875	6.883305055405749	6.745917780056818	4.719221580034573	3.0160930080558734	5.343405710080975	8.585151650687857	6.384376032922748	6.074084743422955	3.849370469865014	5.790766701383138	9.965578054062966	7.352571945700456	6.990427953237097	2.496447795287041	6.544455511736116	10.002471898574312	9.994721387424446	7.085759621850167	3.1534309307590553	5.771983132094624	9.691603636114548	11.038248034264893	4.874616610617581	0.7172042113316285	8.885165192105688	8.704335190731186	2.371725314828009	4.632405746208352	3.621642103588166	0.6761675459956303
344	4.885068881099004	5.604661450540752	4.834052073671657	4.839268195332071	7.61210725769778	7.348329048677477	5.2543482647797	3.72392057432298	5.85354803514797	9.054472900418462	6.770519716335036	6.469767554161012	3.822412004356906	6.365110381268508	10.429908726108419	7.737802485957091	7.384200554324215	2.588162415645694	6.6491036247226365	10.313020680138884	10.37494656804406	7.540603141819961	3.17794441374465	5.857853397838515	9.790197347718651	11.18142792739705	5.3123583659515985	0.8940297938662964	8.662074067180658	8.601834275462632	2.416140788653859	4.3845753559038885	3.543194523448703	0.6607485396869034
348	4.797918307588569	5.684354290915719	5.5091357092047835	4.588649261333475	7.998980978797435	7.592764835261264	5.427311883575187	4.188692082320077	6.186820491429341	9.401264166937917	7.093976002902421	6.721462709622956	3.7473978901664156	6.759145242791976	10.760848971854905	8.127210596546195	7.7108301921714295	2.6880943707309144	6.665565950730878	10.468834850582892	10.664320918814925	7.927531222355513	3.007106058157909	5.796966538098442	9.74388310833363	11.196429224356246	5.7388510559148465	1.0252196762903534	8.4352340485273	8.459007241826653	2.4538893637691244	4.151666153916244	3.4252176198311606	0.6555312855382409
352	4.335615623971836	5.298289762471493	5.687987313214896	4.233300198357354	7.858062724300924	7.449292640951866	5.290974603645968	4.302428711519004	6.3044929345221385	9.505872702440408	7.297481518440865	6.8400130099217895	3.7820446395754006	7.0450768292893065	10.882938357532987	8.436741807617732	7.976753691561072	2.8621067928532207	6.73662946907563	10.512333843392991	10.834466906849702	8.26366136371878	2.8188435960172593	5.740406498720978	9.651618933151536	11.132055254487035	6.135164722211614	1.171448346995075	8.266579607119615	8.338156679082456	2.5336365635799893	4.0005507368173046	3.346717826023006	0.7144982796749471
356	3.7483456040159515	4.5566530112616705	5.259895311427072	3.9083313843279686	7.113603097121666	6.922142011331865	4.917365538579719	4.037419308959328	6.181966289171088	9.224229789333128	7.2662706191666375	6.795543653497198	3.978566398112434	7.243358116935667	10.69279572648229	8.5241603636104	8.128026941758979	3.1087982576081923	6.894624215838597	10.4398336146942	10.830634089781743	8.511271455256711	2.7511148383299817	5.778769955350194	9.571398710880928	11.019454928233237	6.442416174835537	1.3562456335158113	8.178667047832295	8.265638330571699	2.652020924548187	3.9664900202742714	3.3503429805090925	0.8495601394184824
360	3.2367317594824567	3.6419985202390417	4.321568955000952	3.654404154134112	5.871288761574126	6.073827251358176	4.393567074173423	3.462964287597798	5.810888752571348	8.481274583384204	6.904529077263785	6.551333887725829	4.260686863632448	7.2709927375324	10.124001477430076	8.273217180345044	8.083178499794572	3.349878064281018	7.02885530604535	10.207587216354785	10.601217243131961	8.590427376992896	2.8257713246527225	5.88105915492104	9.492820715779025	10.857222529656019	6.5740752054174365	1.5367201527897714	8.153169611373233	8.219610193480877	2.739614479777474	4.036737908661976	3.4132516297948436	1.0104763482330943
364	2.871377222441021	2.771080963767853	3.1558062950566472	3.4329132947079715	4.423977363861049	5.049492823249791	3.8356103800254875	2.7375590732122292	5.221215711762766	7.35783575107657	6.220992072611376	6.119507297324388	4.474422920374311	6.983890992651794	9.218219733806311	7.681445102371352	7.795937041626965	3.471272936639931	6.958908540322291	9.777991270173786	10.142290089749624	8.427927949607758	2.9483513757653568	5.920060619666321	9.356557822446298	10.623012515904081	6.455560667905377	1.6209300715529917	8.149286249566632	8.147219637328197	2.693501465672707	4.156185139653125	3.460065117683243	1.1053734989868491
368	2.6061372691159366	2.1479525511870485	2.12593602597408	3.189231149250822	3.171865216830067	4.071647633763047	3.3891923342012906	2.071320051685703	4.507215011661147	6.113075240913625	5.368766771113136	5.596096024689575	4.48146246732309	6.29560039838126	8.156541803747531	6.897612077464354	7.307640057233576	3.3972346696912394	6.570732100109715	9.174922919950781	9.529268240711419	8.01250455740709	2.9800128861529487	5.766128525480988	9.105806327718057	10.30403039238082	6.069305404598352	1.5225795468989591	8.12896249626101	8.001280764405642	2.440213435687808	4.252300728552303	3.410607567759283	1.0521502468247772
372	2.3572354257196952	1.914681549006531	1.5363198479964704	2.9172773287551883	2.48146962492996	3.389352789904621	3.196622840440045	1.6631220537157543	3.831280937058513	5.114839064082123	4.60844801692924	5.144734369640189	4.243772019162215	5.2924790248763	7.2220935639192865	6.180217250479215	6.753230077859401	3.1503279129598827	5.92382524902083	8.509982087584184	8.912213302999312	7.422479133939485	2.8358082699703995	5.3876328332298105	8.737433411472816	9.927365277975364	5.47983740376728	1.2209395139386032	8.07581518041619	7.776415328419417	1.9928296754113988	4.269037712762976	3.2347922243463625	0.83202218799334
376	2.0908198303840293	2.111581081781197	1.5235400161424448	2.6812260083214974	2.544232838882826	3.194626084845111	3.338749400292392	1.6342329937682454	3.387368670494347	4.698458659707357	4.206707466948664	4.9326519841588	3.8504769704878306	4.25655983803862	6.699466688407738	5.791270718258086	6.3145217736081465	2.856319897115878	5.251493440720746	7.955651740015228	8.468485810833483	6.808268053031723	2.547861808066169	4.8895664091638205	8.319130876518186	9.56751630274864	4.822494971497466	0.7887423018568838	7.99735925562648	7.521393280113091	1.4651707373820373	4.191346634773091	2.978890173066794	0.5114566670856187
380	1.8632315350220499	2.662134163810984	2.0262715765339365	2.582771056330082	3.298126927631892	3.5437459856207725	3.785391559580378	1.9819319198160492	3.3269302761004305	5.015913950653906	4.320027817309531	5.051986681580897	3.475651732252655	3.559652319503953	6.752367956279547	5.876544460718572	6.1418728673362795	2.683166020294749	4.844630229162528	7.6716341778660935	8.3295211581692	6.333981021148127	2.2545993271171323	4.462636936364761	7.957730750019746	9.319371199920557	4.255180348143421	0.36696484592294437	7.9090003767602095	7.315473538048759	1.0261679861863355	4.045660962380903	2.742460720767603	0.21358409470039127
384	1.795041198966797	3.398914805413926	2.84354686019134	2.698801749091332	4.453880298813627	4.331122387441432	4.398233402591817	2.5824472839004797	3.685536613696013	5.95711420462526	4.92975519843003	5.477875218866227	3.2938642418668977	3.4804532440050586	7.346155148078718	6.401385291150067	6.291704638808576	2.743227713334636	4.889711844496706	7.729029159105462	8.524386384422817	6.113771900000001	2.124127859474739	4.276235569647879	7.743207435131677	9.254358268260969	3.900821914360966	0.100188582882653	7.816935996346897	7.225686055060119	0.820033309773487	3.8803946873922763	2.621581547793985	0.05598817379048053
388	1.9994760701242325	4.127130498002849	3.743223657694044	3.0274035854198953	5.614061341416678	5.332584844477191	4.99403046300774	3.2456834234308034	4.351209152680024	7.187147599194285	5.859713062750813	6.087003692517535	3.3981373224294393	4.04679440430309	8.257194498195556	7.174477082258501	6.711475832206764	3.0228264255498596	5.349340425336987	8.074031809449014	8.968419052369125	6.174006923346457	2.256543869043375	4.373828876896597	7.699032764070112	9.38152787700972	3.8066120051597365	0.06699091179146602	7.708379726021611	7.266333561671361	0.8929827190741707	3.733463277927427	2.649049275385768	0.08698536433669563
392	2.513249629351066	4.697125423016387	4.557784545835229	3.480465403352562	6.430363162018067	6.2984499772314875	5.4374184471177855	3.797328700968697	5.098922716618645	8.286814668714035	6.863408071355642	6.724206907461486	3.7635707760203583	5.001840578802231	9.168864227033948	7.945837954487027	7.2754430587186745	3.3823764238791436	5.970017418093659	8.553470589976829	9.504219031179934	6.457485182671027	2.6234888964219816	4.642589080533228	7.769865016393719	9.637478804097881	3.938709725926075	0.24441006717963104	7.55779359816694	7.385585289428141	1.16874932947717	3.609317532009786	2.7691318918886187	0.25823646718630294
396	3.2684218800994684	5.054432379359146	5.220206247501398	3.926158179860963	6.729789716895633	7.050052148185437	5.708483681571351	4.150249470722799	5.684111103965649	8.932516075470026	7.732282142190511	7.278451424342182	4.268805493067517	5.923674568479218	9.81112382319072	8.52622125380295	7.850811938491594	3.6292121318741075	6.41709898282182	8.991722084231677	9.975727056112538	6.865040284944051	3.081539623109753	4.875680434314846	7.8564562599189935	9.915106748343227	4.212838639113361	0.5259795771670549	7.3478541188691056	7.4906530191128216	1.4886494837369437	3.4795951755410384	2.864955894866291	0.4506826687401416
400	4.110600461118313	5.239940153243811	5.733798489399283	4.253585804690416	6.556875212327317	7.52844713217658	5.896265015020589	4.325501431034725	5.948417648555908	9.026919342138418	8.364784219603607	7.718360404554761	4.756132113846413	6.433717711417557	10.073101018269037	8.860266663115818	8.350055673498215	3.6243750957535075	6.455291254911673	9.274484610983592	10.29323575282067	7.302805882135918	3.4469666393990526	4.888672339494447	7.873795966296114	10.114093754981946	4.536696899404095	0.7788168768293002	7.088759881242006	7.496280651239727	1.6913722710821735	3.3039674675493975	2.82191514256407	0.5371691571024879
404	4.8553271171054915	5.340055929053055	6.108869537188892	4.422684181491267	6.12245605830327	7.777173499499046	6.119215949821461	4.414227474511885	5.885060772342578	8.719290711323309	8.768527008806421	8.069890001903318	5.097065435892133	6.378851874458912	10.034354184565593	9.019446350213927	8.742461182456216	3.363810769171379	6.074618324201637	9.394593215111499	10.457458469691206	7.708761672584367	3.5901100544887	4.623770225295097	7.798675517419612	10.187245343237198	4.8416952964611975	0.9084539986562338	6.823507291732261	7.371197681890004	1.690957303546295	3.0602908057195535	2.5921494895339428	0.4480915058266855
408	5.356788144892158	5.424400792731706	6.320251925723806	4.471650589143517	5.69778154841966	7.883438090447795	6.428335650426507	4.506995666568928	5.631085858433021	8.313206651679629	9.010674453873769	8.362203576909927	5.234180914061575	5.887478336728564	9.90374467256625	9.128858543236028	9.03078363045874	2.9826025887526115	5.487339005921191	9.436560606973314	10.534012767898803	8.050550440489744	3.497133007756892	4.178307522714948	7.677395324396958	10.156551335441158	5.090476976893875	0.8960120059279422	6.611356718537421	7.1549606142596796	1.5097088775665253	2.763045065579524	2.2226223889501853	0.20309565910084207
412	5.556557641305513	5.512052522094147	6.319288237829511	4.48476456463531	5.5102004865763625	7.92402789976304	6.765104753580153	4.636428821301955	5.390379892091283	8.11599443293926	9.161082244631721	8.58863256193395	5.189147936117411	5.2722535000250215	9.902706121238305	9.281168914250406	9.220410323705565	2.684380524533626	4.998896586194918	9.512751555267279	10.599885913789619	8.307888963704773	3.2675368703360776	3.7431917096045253	7.590435485749323	10.091552708896279	5.265320287762252	0.7917054871597662	6.496981127548115	6.934942227974353	1.2508643834004036	2.4591548380752886	1.8298650933796075	-0.10758227827805203
416	5.502968774253312	5.585873589717826	6.096588596210377	4.544371116608842	5.682022080380836	7.950992087317032	7.008614522405047	4.7704377053935465	5.331877694973361	8.307386377341295	9.269266105137392	8.716106392788868	5.044591414112996	4.847944247403672	10.156922314749302	9.494181609025102	9.31041142974054	2.6419081621225478	4.83608387679763	9.692373251285947	10.698465320279011	8.46170423278664	3.054415695108166	3.491941204791484	7.598223667034591	10.065563176491192	5.35420082647828	0.6746367795123736	6.482758982503457	6.797405225758124	1.0312911246011351	2.2020990792943604	1.5369387826262555	-0.3777059307098974
420	5.335884080766469	5.643262848911311	5.749742970255023	4.694318759510289	6.224717124481854	8.017782191060757	7.083414536712045	4.857248770848198	5.518561349287187	8.88692090651776	9.382781958732627	8.736523606177261	4.913078295701139	4.7753996728492805	10.650050136380251	9.733457540733	9.312773681016315	2.9205381796533274	5.029303538022444	9.964792226428232	10.828801127750237	8.501719453327702	2.9839794560434467	3.485501280567631	7.701791743860509	10.115843747348134	5.3473572596010275	0.6044507607457896	6.521721346601863	6.78059528546243	0.9134777165237992	2.0194935747657707	1.4091269934363149	-0.5432038293475363
424	5.24103687870491	5.744451031486646	5.49367950959781	4.934701430259582	7.06704662446089	8.212188699969342	7.054284554790962	4.889322745376594	5.897676453005306	9.709522222800267	9.579171156540015	8.719543435016519	4.904636370673624	5.013163553932334	11.253180475433666	9.975493405905608	9.281800246646274	3.4647266777300674	5.412693963690218	10.254327748158163	10.970954867320533	8.448384263643025	3.101898662364992	3.646327963206016	7.842584113347572	10.231293652452159	5.24850224123489	0.5943371042504807	6.539884550749121	6.857718927235485	0.8764749743267253	1.8977234315642997	1.4246101343426583	-0.6108544453457108
428	5.388118730292792	6.011616691670271	5.589794144822673	5.242833124275326	8.087034205046068	8.653874375428899	7.128796082617975	4.93707750981291	6.348809226219332	10.574942562106989	9.970771764377002	8.81612394014377	5.097362505440944	5.391350255705776	11.805283516642278	10.259491894568464	9.321638083764931	4.142971028358363	5.738063797768641	10.474866840618933	11.125435801073573	8.368486383290549	3.3687119398895953	3.814836015606502	7.9427556791041845	10.374595615896508	5.090946661493519	0.6163939222032154	6.480058176846213	6.961664659089746	0.8419648387632201	1.7957060291729432	1.4968247375844062	-0.6423007829662065
432	5.869367584668576	6.567805273640054	6.218185885942436	5.598672852685999	9.133458114452441	9.439997649200965	7.545960407278848	5.1205568184317	6.75688026629623	11.318719835314582	10.661316844725828	9.191617942491638	5.512577042966846	5.747298226151088	12.198370902734789	10.684449168886175	9.550883269038193	4.814065444236034	5.828573212212978	10.590965244256477	11.335611314764122	8.363755205018801	3.6952640916987973	3.8512875936547295	7.962665060920373	10.523080799237439	4.94208143893846	0.6291524155944652	6.345211489869773	7.037181836480871	0.737070081757241	1.6811189609045085	1.5343519410495345	-0.7060328108128059
436	6.659439546937752	7.447299938472765	7.3604574017657525	5.994486316805074	10.039518330975895	10.563244792971483	8.409645059334094	5.5309963086674125	7.0661349118167065	11.859759300806498	11.669914216141768	9.917940114730117	6.10030792603497	6.029457077062241	12.421692816843807	11.344639749494744	10.03402898162452	5.37518738343213	5.677810177773061	10.64674184018499	11.671800583934857	8.527842500136748	3.992525090627851	3.7192325498139422	7.9380183019493975	10.698149654081076	4.884808051174125	0.6073029622003805	6.212493403962179	7.08681104778135	0.5538702593170967	1.5656393726874605	1.5023760757661913	-0.8272957780931637
440	7.611542205666736	8.531922318852033	8.763394333648481	6.421794875143949	10.64672276669871	11.856464356051633	9.569922423042858	6.150302871434868	7.288621407226662	12.196048705780203	12.871060338902621	10.889325114413836	6.740326387553845	6.302821620286856	12.548977820184552	12.24290844687283	10.717260333659292	5.763751015416189	5.4441146713135256	10.745626422454862	12.18329712652773	8.889070488421511	4.203718174811437	3.5050325305183194	7.970953921220491	10.960394831641628	4.9789728992640185	0.5524965510724265	6.203711970878881	7.1794605073863	0.36707353499241785	1.5132148227633622	1.447334047478035	-0.9679600571989275
444	8.501443841450957	9.563557600671233	10.01963994357491	6.848616582745526	10.847945185929442	13.014945951027139	10.643952342816545	6.826187116554597	7.471284847469827	12.368931739096157	14.00169845860663	11.826889008225914	7.268736344105481	6.662432176935079	12.684570280474539	13.24235912794321	11.416433305526862	5.93079327039606	5.3492097719559695	10.991858454609066	12.847663846957298	9.373804068740647	4.305020321467294	3.3640072260800626	8.175020197255567	11.368234605697381	5.222561346219818	0.4807649540683965	6.420639021875382	7.410601120358634	0.2962330572278525	1.6085644919791093	1.4683253728034549	-1.0487093898998707
448	9.105297065634382	10.241562817465294	10.741682979166479	7.208091240804005	10.636849376525884	13.706850970947727	11.1881351188474	7.329926949114563	7.651119212860515	12.428118674371529	14.752979241316762	12.389843909453514	7.53253267293775	7.126955968029115	12.903478589858372	14.099839174911581	11.880148857639785	5.8267559858076545	5.5440916875100825	11.426901788471623	13.553548778646789	9.819559072498036	4.287785996101872	3.426190606050018	8.603157021736148	11.924196213180432	5.5372609952360685	0.40007442134937576	6.87743662051456	7.834502677210749	0.4329608369863315	1.8998085212425682	1.6514419275550583	-1.0003247235791592
452	9.28081224005697	10.359215710234654	10.739671680038256	7.413224201559287	10.133874867602902	13.723127330464738	10.934832545329213	7.46998928091426	7.827595690991616	12.415252654201375	14.907877884419332	12.342177359891243	7.450921516680175	7.589406471164518	13.214095082299238	14.570846520829337	11.903064697730853	5.419289098408675	6.015038475108898	11.993107765435646	14.131089174832683	10.037367795397829	4.142285336526598	3.713242998284875	9.197097755099874	12.540518729019386	5.788751587557659	0.29431921169359143	7.467090587836862	8.405864694353404	0.7719202022136865	2.3464128911858624	2.002770895669808	-0.8157994130518462
456	9.01781842815993	9.906764005444368	10.110483144029148	7.395382862493004	9.561058973968557	13.088835683201426	9.960240338927518	7.1986574944899315	7.965674857055352	12.36512848593193	14.45300384687149	11.686510056553969	7.054910165140945	7.862306574998217	13.55689999018618	14.5301789870575	11.434638948181092	4.7337045550041115	6.583725435800787	12.543530432502994	14.417942010717336	9.897919629856347	3.8608436486995723	4.115434159378815	9.789338087161738	13.049865689708506	5.83738420920001	0.12741990355269295	7.986063460214325	8.968445755249917	1.18737613855032	2.8070769239125677	2.420067781060326	-0.5720115885597769
460	8.438724496516535	9.085224128673342	9.192706084883909	7.147389870718003	9.163137412778388	12.072184532203769	8.678101517701716	6.648079378509403	8.023365954169218	12.311728446393902	13.601899112692198	10.686494800289703	6.484507067521016	7.790996531843296	13.834723437665897	14.041773760629471	10.623102161289596	3.890676011752915	6.99573801181744	12.896514860017556	14.331232988414284	9.399763083567684	3.460028878059311	4.439911354299334	10.16488072689962	13.26714512336403	5.5991000987786705	-0.13241100277848733	8.215937593697669	9.308707213741426	1.4758120737962106	3.0874400060904614	2.7261464526966095	-0.40437370436617004
464	7.747387866487089	8.217231729741766	8.404272058249026	6.7404069730333775	9.099064803992402	11.072603197752372	7.645356158981023	6.067158206880384	7.977625349884067	12.278737990849752	12.703957525603814	9.752639745884764	5.935288891112248	7.355928879285731	13.949168170042967	13.330216374120317	9.761776899487183	3.0993373315761708	7.044367295599692	12.905317273935761	13.904066050711037	8.67980287267789	2.9997734947761536	4.501576889116788	10.152357075808192	13.072392430679464	5.085175978219515	-0.4859108912597652	8.02283952594789	9.250315642843928	1.4448957406757195	3.0274710578776105	2.748111956333779	-0.4476472128056515
468	7.149812680312716	7.6007475661065875	8.043566683488333	6.303229316056091	9.362114882673968	10.441536877019	7.2810921485176445	5.6926255082410275	7.8323921959538705	12.260977714100159	12.08320137787908	9.247724509732794	5.5758843281158486	6.699634535087002	13.831885302907436	12.669300047358796	9.161061263796814	2.5864314967657864	6.668781263680524	12.516879050123993	13.270721402041524	7.959605673721066	2.578552954839267	4.212608803603687	9.70446679526176	12.475487677547832	4.402605045647186	-0.8917391277687168	7.426773052538263	8.744830109452188	1.0069495414106386	2.5855452949095037	2.4043853222223572	-0.7715176920485345
472	6.7882861919676705	7.381227951487482	8.155970552833447	5.970834716980756	9.775863622779255	10.327013943348183	7.652121047727371	5.627219185926915	7.608941058975305	12.214382140792509	11.889824837229613	9.312460875841325	5.475598798278713	6.058378204308558	13.46461292682055	12.249786346025388	9.007446266320883	2.495050423998455	5.981713756717693	11.797108620422684	12.610240904441499	7.451045971178152	2.2973265589886265	3.62794684447801	8.929186798439858	11.628084153381167	3.7139284516980613	-1.2801246610746366	6.603967173115404	7.9110960760652205	0.2301595056206472	1.8741847229369006	1.7555851892016068	-1.3422684635605608
476	6.708493692626891	7.506695728422904	8.535097100643334	5.828406319208028	10.074994061782323	10.621495220070509	8.447022416722636	5.7961797567893925	7.3303990178999925	12.071009605448923	12.042805641286733	9.806058858909074	5.579706177929197	5.640521035258565	12.889023748281097	12.100652664150937	9.283002829956226	2.8060345578873678	5.220473753146475	10.915081950286305	12.07905861665907	7.268313389547222	2.209696048879672	2.9276637957089453	8.055535296129014	10.773680659749754	3.1757228294301907	-1.5839556415621148	5.8178548665979495	6.999631387204339	-0.6796120388038589	1.1245808572986458	0.9911177133332396	-2.028997654560501
480	6.864499551608014	7.782155494115374	8.853282906114407	5.877747520865681	10.03640935271226	11.03766343191041	9.1529054410635	6.004456981757928	7.01815794126523	11.780335396588079	12.294330565883627	10.392896625982138	5.74747894743359	5.528962598192811	12.207460372621508	12.107437103220722	9.786628698435669	3.336867324033716	4.648392188733909	10.09405515029621	11.767230957839425	7.389524441182111	2.2888734282879226	2.346125835217349	7.348870258850671	10.158774350267088	2.884116165508834	-1.7690086320082918	5.31105993837309	6.296585067110463	-1.4592772685401054	0.5913206919999482	0.35570138603049867	-2.6518015794559675
484	7.151971322122452	7.985539416178783	8.84606645258038	6.04375694656349	9.593448614694886	11.26877781883911	9.335543608937343	6.058885559043604	6.703481180432514	11.355141611040496	12.379489867426432	10.726957294084029	5.834300980142853	5.662004456530008	11.569951028222764	12.11287495415914	10.24507996833532	3.826829185360768	4.452785957538314	9.546452498175356	11.69539257911455	7.685720901158164	2.4376244483438807	2.080563063136976	7.0138516249003695	9.946771596590917	2.852762691924664	-1.843452329749722	5.212091432763586	6.013943656996427	-1.8916259956284613	0.44568306095132704	0.05202631639219812	-3.047365657741932
488	7.44948576000045	7.978152254942551	8.449199655181493	6.2182659945848116	8.871262527956219	11.1440772728893	8.862796761070856	5.879826530870197	6.441009028385232	10.889536830111544	12.164707153124958	10.628169986594184	5.771031365129254	5.895321354286887	11.141241999153783	12.031791656634365	10.448758098924598	4.066800107224992	4.674906718848851	9.411393141826895	11.839326828629082	7.994224528156367	2.5398008759270967	2.2144379559874507	7.1240429698370065	10.16838452632925	3.0250816268838876	-1.8436545087042897	5.497327790686011	6.21368978838909	-1.8873890590699447	0.707527933718577	0.16226720768967992	-3.1259066979641674
492	7.6530041501421335	7.754551391096689	7.8188128273968465	6.313401206289198	8.12231061792087	10.698224994351882	7.950870493841998	5.536744103757881	6.304056151686328	10.52784630978449	11.712004631990089	10.157430623158664	5.596958623106587	6.094200118890967	11.047576876404424	11.9059428868105	10.342782948130147	4.004391183279776	5.196104990238029	9.710912679950075	12.156380622689436	8.19622705297595	2.5255427296770843	2.6841378144207133	7.602960567352222	10.724214526756969	3.309569350469824	-1.8069626047289347	6.019645198882667	6.7959408588489785	-1.5121468267409732	1.2449076144258802	0.6214866622492564	-2.898852817845895
496	7.695461730601345	7.415482502334835	7.230910759789359	6.296853049592697	7.596738319290538	10.125380490488118	7.016703587936382	5.190814005143966	6.352570040876586	10.393523190006436	11.226128549842786	9.555610632612684	5.427642808562144	6.198547824468579	11.319536180527363	11.863507240860512	10.028966878365816	3.7610473537855182	5.785275921520292	10.338124249106265	12.592577902471934	8.258212068688593	2.4104034839808444	3.302297583825586	8.25855253041869	11.429977388134269	3.6165902523283378	-1.750972624172664	6.580995066239809	7.549345951093542	-0.9505858993372145	1.837893839010582	1.251110312164126	-2.469751351796704
500	7.553939323426916	7.091995698189403	6.925091249147905	6.19371698723102	7.41935585056114	9.65437695926762	6.432397349329826	4.985672938157014	6.587650759277205	10.51734254089011	10.920783015335388	9.091320968562734	5.378540979157306	6.224610789795843	11.861068695639618	12.011611908150158	9.687164282182886	3.5511059671390557	6.187780841463537	11.085128756192427	13.070713963886826	8.222046831353143	2.282275909383681	3.8264858626077287	8.854360558089224	12.080163925188995	3.880234231688946	-1.6729197459899068	7.008330804296633	8.234792688559732	-0.4275477815800763	2.271129125583089	1.8329517795061527	-1.9948867509066934
504	7.252481919097691	6.873107415966164	6.9833497824786	6.060003265339611	7.541926841767792	9.424229598093314	6.332816584810736	4.96154402433854	6.925412637391723	10.811968776108165	10.889091464206906	8.915792442699749	5.4927897314628495	6.216517909567252	12.472605673770929	12.338512389502547	9.47347829334251	3.5512604623779236	6.2257714114359795	11.709828347205544	13.482978786759531	8.163201311482183	2.2462017479452188	4.050830830837088	9.19162557188615	12.508694617161257	4.0660328762393805	-1.5640029867739282	7.201785546239847	8.667407013944537	-0.11788386076728274	2.4134466587168135	2.1926019136384065	-1.6266577202735772
508	6.858122808307463	6.777728063637393	7.305690270098606	5.946879848724586	7.796183566437134	9.430077528986754	6.583725912637944	5.04623221077023	7.216940384763596	11.115573854992514	11.056118937234908	9.0074882279907	5.716186509005516	6.194922431563914	12.930645910041246	12.69514366759384	9.454306578608199	3.7975587748969493	5.874756321379825	12.022822349711209	13.710356677725985	8.146710375244522	2.3587737023881745	3.8878328702043072	9.17463872500521	12.630515066682792	4.169035424197098	-1.4264206850277843	7.14403913601577	8.767397858418647	-0.08220071324814018	2.253316873583383	2.2582454624381265	-1.459672685752547
512	6.465284331210906	6.774392110887026	7.686380843783451	5.877922996939456	8.012171725071504	9.559390997593374	6.911998254491021	5.122920023381789	7.314859848627702	11.284835786938215	11.237066240550034	9.226726508687177	5.931897148414513	6.143732532248576	13.091762509671087	12.873327222746996	9.604894613811496	4.163197983721113	5.280754552860003	11.960739105544224	13.670416797455731	8.204026201515829	2.5899648600991507	3.405770770057261	8.83821008358166	12.456790892621893	4.207495201932027	-1.2808982101525785	6.880784971031008	8.567401864355718	-0.2537991696148797	1.8824020576634684	2.073172325622066	-1.499475952177322
516	6.169292911212363	6.822040540637332	7.938117007240896	5.849678501618921	8.12574003075401	9.681906675689813	7.099076729970841	5.122717367590064	7.152721863807568	11.281292886861712	11.259375543777399	9.43065640929535	6.031390651733872	6.039581760416805	12.965990033792343	12.734056440627919	9.857480024245556	4.4320673830666975	4.705312240164906	11.6116132443041	13.369135822874595	8.33465192597851	2.8375525402907025	2.8040025163428153	8.328881242704506	12.08366677094431	4.214400280802534	-1.1584265202838724	6.493437750634454	8.183219889007324	-0.4801494765079997	1.4443814718018957	1.7625043347682439	-1.666946764552045
520	6.033694728876493	6.899933797581784	7.987120608191392	5.849223598971144	8.210684755576166	9.733308767540015	7.1129278957073545	5.0763969293220015	6.793341619506176	11.198761911728285	11.073960276301191	9.568833326976272	5.978718742534581	5.89996241033596	12.717578855830654	12.306739776057375	10.156352971183846	4.426927555351402	4.414157379449806	11.178109140784334	12.922812429226063	8.52051351303367	2.9833729191797436	2.3315899313233843	7.848966578694006	11.660580605630665	4.226305474101333	-1.083057400829996	6.079807266144103	7.766519526900212	-0.5987446889065584	1.078203198571744	1.4738217555028958	-1.8369015408868665
524	6.068950637753544	7.0048284353784736	7.88389013207263	5.872503265813003	8.413559892393057	9.737762426586388	7.097067815028404	5.0886587968142365	6.409587843924768	11.206282587368477	10.782739612058426	9.695659612971985	5.824410900669532	5.802604660642801	12.579996077247353	11.78806111220578	10.47783276773547	4.111536015620346	4.556670177399322	10.886239024333737	12.520502058842872	8.733439423445791	2.9555394574885416	2.18096160338032	7.580037097866641	11.34072682378441	4.265433777530376	-1.0618318292512001	5.739627346806442	7.453484516399046	-0.5171510564145034	0.8751949049787608	1.3155795302554463	-1.8984563302746076
528	6.2328629336348715	7.122952443258949	7.7346172137483356	5.926730617818426	8.829116798997685	9.759628271257744	7.230560761316122	5.248767839531339	6.197294696419985	11.433138818485174	10.563804599793801	9.894184087568414	5.661335453998738	5.847784981268477	12.722707716291337	11.430903405893162	10.802275630380684	3.608578911253594	5.092339979666271	10.878808947753374	12.332784621572673	8.925826050157326	2.7585658957452517	2.4028568207155963	7.613293628544395	11.223954172406868	4.31771897179534	-1.0918757887929613	5.556757436074296	7.321634750954346	-0.26379215650714555	0.8599178173288857	1.3163546290541486	-1.8132789089198356
532	6.45601318636737	7.20762155620436	7.609833698133208	6.018011554782788	9.40023896705037	9.82926747701454	7.566429119080197	5.542759881330584	6.268813117412514	11.867827385502924	10.54737088401498	10.174910519659942	5.558637604984344	6.0873336638301785	13.145337071608578	11.390862436145621	11.071137400331757	3.1309230248557993	5.803803429255496	11.148808451161047	12.41695210182892	9.021735168567524	2.4578239855701036	2.8841803001064505	7.9170288839726055	11.316881151237192	4.32514475684129	-1.176361677060795	5.57680891536327	7.36990783738032	0.019685786167749263	0.9956446264878563	1.4234371149364402	-1.6389949280366183
