time	FP1	FPZ	FP2	F7	F3	FZ	F4	F8	FT7	FC3	FCZ	FC4	FT8	T7	C3	CZ	C4	T8	TP7	CP3	CPZ	CP4	TP8	P7	P3	PZ	P4	P8	PO3	POZ	PO4	O1	OZ	O2
-200	-1.109298941672556	-1.9650605867363917	-2.1168229526480897	-0.2310429656632775	-3.2389888681651127	-2.3044421614639474	-1.7589402154382532	-1.1109374733532946	0.35593712239999015	-1.6471475321191233	-1.609141703357657	-1.464979764100659	-0.7161821108856006	1.0685648891173185	-0.2475056343982254	-1.1221915455142117	-1.1527293891413348	-0.9695308183987276	1.397443171787652	1.09140085898459	-0.39244365593056174	-0.8526241757800701	-0.4776055800777312	2.6957988670951294	1.9766904065770246	0.23200300277308966	-0.09921921764595704	-0.02264843316618494	2.1841084901979366	0.9195603705077705	0.20959004706872114	1.9482074926779895	0.7133730035890735	0.47178763032053894
-196	-1.1339712114314315	-1.5599015911772887	-1.2005243271081276	-0.35040783793671637	-2.344751590530877	-1.473500248049789	-1.466947194210438	-0.7466005664095399	0.6105048641049857	-1.1704332798971129	-0.70244091571842	-1.1809231013046497	-0.6281782968873604	0.7451891880294669	-0.18244005693627185	-0.7496220450548655	-1.0759386989131545	-0.6966427547032433	1.0412181589541236	0.7022759896667429	-0.4014113535283123	-0.7256593089856048	0.0202846563840374	2.1679515783887533	1.474954243750769	0.16790860848949316	-0.012471460705800587	0.28160196471642207	1.7551256373915487	0.9151418782017264	0.4312714029390832	1.5288521012807055	0.5940369948647942	0.568429707045688
-192	-1.2158931463060805	-1.0931086512623827	-0.46411797287110723	-0.5738382921035963	-0.9208279824850083	-0.6411396248842688	-1.1021238537618994	-0.4982404398259719	0.7052291613893283	-0.4800949084558456	0.08150158056901238	-0.8342243411936517	-0.5094420897019415	0.5249186144927316	-0.08735214151739497	-0.41928300155638715	-0.8677678682352747	-0.25017389591950384	0.6303797348319365	0.25109183724904965	-0.4500907052120494	-0.478421180232456	0.4270857561772663	1.3906102145371424	0.8476231672821068	-0.026002028891360503	0.12676373092117854	0.5705600962538712	1.062438246905614	0.7272175532100337	0.6380900128466802	0.9219715571967817	0.36070415286547836	0.5624564871892478
-188	-1.2088762491222582	-0.6668234450670735	0.003991780326867972	-0.7349577527563791	0.6280489548085244	0.018944259685131998	-0.6573464853856478	-0.3634796133401147	0.687701223544483	0.2634489529633954	0.5116072880225858	-0.47639882444265536	-0.37394577170373533	0.5658394680042235	0.06670199317780795	-0.2867146723184124	-0.5768613204696821	0.21122059172708	0.3363906732649225	-0.08894067235187385	-0.5832709059294211	-0.23315931797765163	0.6327016933679444	0.6586168391765383	0.2786186628459787	-0.3374634674612038	0.19776238451141728	0.7114871722377862	0.2665120952553138	0.36024910120608955	0.6726521236602981	0.27452015807460345	0.043520465383323596	0.38966220518914063
-184	-1.0056518290878653	-0.35636854081778524	0.24816581544209085	-0.6506158097053144	1.8324270202148751	0.4001407911211656	-0.21033583528342908	-0.29928618593947387	0.6355076416183063	0.8609727599341018	0.5094351755631651	-0.17459845498825843	-0.24775972899826137	0.8924690462467934	0.2845878593889066	-0.4163317371824297	-0.27548769046847715	0.5200150595887301	0.2841599278428221	-0.17398101047458905	-0.7902535776213482	-0.09123177803370762	0.6076382383263956	0.24936054584011355	-0.045012067889771516	-0.6894276124713987	0.11574519396407718	0.632421909166075	-0.41338539019165377	-0.1018976119568217	0.4509637344418704	-0.24626743731311	-0.28583425211265795	0.0650074480322831
-180	-0.5912840947481485	-0.19210730444566262	0.3662315895847688	-0.23876817464149966	2.350738757874159	0.4859670686373242	0.09427463239471183	-0.27180159023326156	0.6073643549843442	1.1609239548936559	0.17020291047039493	0.0026703581612192336	-0.16448745089963526	1.3824967111015114	0.542358337463532	-0.7507088165403114	-0.039741556991136746	0.5723678455206999	0.5031137453728263	0.048764493193293464	-1.0118938658915637	-0.09534235274561946	0.3901512016936433	0.302633254956063	-0.008190589004937396	-0.978576240453069	-0.1254401352814768	0.3494760981319399	-0.7807727436380217	-0.5307736979435251	0.011400205054408644	-0.5155079351761287	-0.5416239486371086	-0.3224863997900482
-176	-0.04028213386498173	-0.15003962776926527	0.42360472572188274	0.4192728091621563	2.119547123326026	0.3542987993355078	0.13806956971595252	-0.27557068993611733	0.6235758050433593	1.1400427789515026	-0.2826181345003097	0.023162750468782363	-0.14306384288907317	1.8352552606023267	0.8064112046862669	-1.12966513348515	0.08211138078700861	0.3797090938041288	0.9248949265970547	0.5253126607983468	-1.1660095423823418	-0.2158817196402309	0.06306328608564973	0.7681328634895755	0.38671043417570383	-1.1201660604805683	-0.445233522721566	-0.03863419582626327	-0.7374579291798152	-0.8038495758742225	-0.4930859791704218	-0.4914122807493545	-0.6544195397066972	-0.6463165266885201
-172	0.53402173384307	-0.15460589489049564	0.4196994890107037	1.1151610584714153	1.3866686785973867	0.1612730767231423	-0.06239186211569194	-0.30940556448066686	0.6831158382334892	0.9319321489646939	-0.5833206162030382	-0.06907220912422013	-0.16167667467305868	2.0863075203673453	1.0635704967349087	-1.3470156158770665	0.10027602289631773	0.07319495063421602	1.427560087414434	1.1310340137536055	-1.1730062931962808	-0.36175510195950467	-0.26719486645949203	1.4444625341185855	1.0270904276665505	-1.0708798143052605	-0.7044243198729583	-0.38538688323948556	-0.3141292921718351	-0.8416300394743621	-0.8542543628105612	-0.21476443057673708	-0.5874238595436613	-0.7880271653306741
-168	1.0415271494318592	-0.09873065327512787	0.32186901488102343	1.626168962187653	0.6028933509863855	0.09920850371108572	-0.31336578647651236	-0.33536720191206826	0.7942723611805377	0.7777431587610272	-0.5184595571779539	-0.14447393976928682	-0.15087434611375358	2.098212475247567	1.3374550308792321	-1.2251756160320952	0.09324508881868644	-0.14782649241318147	1.8923388671781751	1.732447500623244	-0.9745578145217473	-0.4116230000593846	-0.4880679237440958	2.080143684857395	1.740440721886022	-0.8254947641511776	-0.7595012764828648	-0.5490544424499829	0.3524590721768378	-0.6211497171931918	-0.8952963925645756	0.22272169533764516	-0.3387905648737773	-0.6755710227122244
-164	1.4468482696243419	0.11663173109648625	0.13704740966528006	1.8339862777182625	0.21279336458363615	0.32906562006838963	-0.31651982585148375	-0.2651118033391409	0.9841569637246541	0.9094818211481456	-0.0019928247151873787	-0.031995002099558294	-0.017347343222212454	1.9679492662334932	1.6703221755771533	-0.6847144944069737	0.18089535786733402	-0.10276214752478362	2.2374875489010577	2.2333600464700725	-0.5482783303723221	-0.25894722277113263	-0.5032583462406863	2.476762526934642	2.355117076649726	-0.4035876085105345	-0.5243638740652076	-0.4466403413463253	1.0746999951885599	-0.17365880266690797	-0.5502424226220018	0.7153722029744374	0.05935197308575782	-0.3074099413739805
-160	1.7524199441534458	0.5318255411072208	-0.04172382120684658	1.7763255789731558	0.4431866396205022	0.9040298439089502	0.16634376305067208	0.0027972811296738177	1.2718719211891616	1.4199640715034363	0.889827606815596	0.39420172472609555	0.3053807906546926	1.8466452313529889	2.077004189015712	0.2155339861434892	0.4669651377332273	0.28259229588686485	2.4180998741133903	2.5832836562738564	0.0796089617388184	0.14347802066341048	-0.2655906372517351	2.544523471130017	2.743483059632209	0.1562461700070895	-0.013287123259137794	-0.09024431533678742	1.6726534324377227	0.4225965727626971	0.09918261294357678	1.1643173665214408	0.539867042132145	0.2414069169625276
-156	1.9569150160019526	1.0902619334350974	-0.06052217617251739	1.602239485510093	1.193965312804314	1.7192231373296059	1.149210092504102	0.5108051287152239	1.622983689978898	2.1908509675979055	1.9340697478101196	1.129115459452419	0.8045698383998698	1.822433824706353	2.5010654863154214	1.2837090459837996	0.9769006346833737	0.9275266504711781	2.3997762142628027	2.7540428568925353	0.8259781578190856	0.755542276382234	0.19054210137897382	2.292340988093621	2.83446382760624	0.7877889255661084	0.6537008269018102	0.40924546019226415	2.011019940067316	1.0481491062403967	0.8458161928756583	1.4764966927443721	0.9988284681851403	0.8311898091311533
-152	2.0211539217464423	1.6363989073446252	0.20627137966529577	1.462960239531478	2.0867772049669897	2.521039717984962	2.3626837670755685	1.1817859381402398	1.9227075528238526	2.923644535312599	2.824140064738628	2.0049784132881356	1.3688497508774826	1.845863576043378	2.8071119714436072	2.247551435518105	1.6258240897138534	1.6147414405108773	2.1404385512670547	2.712694638079083	1.555558677560629	1.4522565566590273	0.7394596319602533	1.7792558625122052	2.605411046125827	1.3866614068307426	1.2895297971592894	0.8770281650334889	2.011682266878388	1.5544161757324588	1.4321367704473127	1.5603733023348503	1.3054795232237564	1.2885019746673774
-148	1.875918026002593	1.963137502482214	0.7563318591095801	1.4131530487621486	2.651906245211929	2.990538827975128	3.35356282341173	1.8197849942992224	2.004263634389794	3.269666186660658	3.267605058049529	2.7438259055480914	1.8224916412116392	1.7547022059961335	2.82902454615635	2.8430786061031665	2.2403569164933006	2.078174347398988	1.6075246293489833	2.422707551561474	2.1102096981176675	2.0612776227407203	1.1976666420262312	1.075961348678112	2.0768191761987964	1.8212648584159694	1.7108633475023847	1.1408721179768135	1.658829923256315	1.7962006285140406	1.6519244867579415	1.341997024008939	1.337527033289939	1.4576117955599963
-144	1.4754995070397976	1.8976255607378256	1.4170647823795919	1.3875794375672554	2.5595381195296087	2.876714699157892	3.700402488902621	2.1861472074626866	1.732444162763145	2.9992461128805123	3.0909855287713293	3.0753891390401984	2.0018691966059223	1.387597438169932	2.4571433005284873	2.910460464758727	2.625984900520294	2.119914049518337	0.827109811601934	1.8801044178224675	2.361103528737273	2.4220745502355574	1.3954362834031315	0.264546095657006	1.3214498724952637	1.9750128934587012	1.8098376943670615	1.1019802065683533	1.0093898747708714	1.6848069386860296	1.435594316672714	0.8080880025488547	1.0366911861948622	1.260065075553993
-140	0.855812785848924	1.3879115546471053	1.9011584472340328	1.2614511219601006	1.7736673310321744	2.1182305759355513	3.228429309323365	2.115902656935081	1.0950527163514685	2.119440788640015	2.3107771815132607	2.862048618720067	1.8353264285480089	0.7143460494125751	1.7132964090959732	2.4569649634317696	2.6489813260908956	1.704289432037415	-0.07309453915976478	1.155914780559379	2.262669319162187	2.443151467830659	1.255743023562952	-0.5369424806389794	0.47491636752386707	1.8038923694843059	1.594875212457397	0.7792558650369626	0.20277145453756606	1.2405952183872684	0.881131885211269	0.05227314295088013	0.45755219344012865	0.7382926326231424
-136	0.15122772715057348	0.5423437343255989	1.9368331383442192	0.9489961242557791	0.5524926767705258	0.8877037741183216	2.0983049816560246	1.6065410335033832	0.24168793796077287	0.8751099087555257	1.1342602939578623	2.160846466330886	1.3779660428542833	-0.10741656991541422	0.7633582334318976	1.6523511368041666	2.2886800708207593	0.9755269264387036	-0.8735451676248327	0.4024658490986938	1.8746761036271884	2.128797764171811	0.8367173054550883	-1.1658271521697896	-0.27910214592085364	1.3704928125112128	1.1770971983754663	0.3017266683113182	-0.5546618089977153	0.6065307244246203	0.21078930741973534	-0.7190319281544065	-0.22795039357807556	0.054293393951667476
-132	-0.45590448264411787	-0.4065365781056739	1.404777761727325	0.4678611743558735	-0.6979851705094854	-0.474656729691881	0.7115637046014845	0.821205077482168	-0.5676542506191179	-0.36979576851940416	-0.12046856402737764	1.1837226122533921	0.7757990340672967	-0.8021200875057862	-0.1511360403059792	0.7506855111242631	1.629894490895288	0.18350931955735916	-1.3456101383568113	-0.2000935370638584	1.3311269249686954	1.5598738154128935	0.3047128908093482	-1.4580846988104503	-0.7658507208561772	0.8213114717728234	0.7043006998400062	-0.15527613421814154	-1.0491064760423618	-0.003482310092597897	-0.3349851361400226	-1.250647899331126	-0.7922185043360527	-0.5721711501934377
-128	-0.8253336527967565	-1.198144194438966	0.40716707603651614	-0.07073344272398023	-1.627865906420124	-1.6071521003200775	-0.506996153505114	0.005587507025201449	-1.0848011943131421	-1.303355213689325	-1.1513738603132753	0.18467788351639156	0.1815993334238376	-1.1352194518991663	-0.8266451933970829	-0.02352333807966644	0.809865472656214	-0.439477204166916	-1.3705230916706823	-0.5333338962440985	0.7712240795691122	0.8459399917225442	-0.14830166064013117	-1.332721110793833	-0.8985990263185969	0.31413513342700833	0.28130251098182657	-0.4561121154236687	-1.147305485689758	-0.40423783557874754	-0.6133002623332491	-1.3530242408924138	-1.0568780872364245	-0.9615501737159654
-124	-0.9354554391131166	-1.650893564824509	-0.7675967197111745	-0.5331614600071987	-2.0888290352535575	-2.2756972255471415	-1.3192969527314122	-0.6324412210709335	-1.1981240480690827	-1.7926500990430243	-1.7853344633803423	-0.6572930796240638	-0.3240699461861203	-1.0599048110904772	-1.188983795025143	-0.5651940093075805	-0.04286779079939062	-0.7883586863640778	-1.0218454573581375	-0.6099386199810491	0.2729748778603805	0.08055473843740406	-0.3981935967882369	-0.8630723335410141	-0.7337130289626772	-0.06332901104196814	-0.07627971451097211	-0.5668553695672104	-0.8698298313114287	-0.5345548973892397	-0.6433504803626957	-1.008168456393218	-0.9848499869277079	-1.058145878027596
-120	-0.8930644370419515	-1.726096387319882	-1.766311521839015	-0.8436958768524166	-2.147887462915118	-2.4488992629211275	-1.7539755061688664	-1.0120328639228289	-0.9853450035013177	-1.9007669639281366	-2.0221772142853625	-1.2925128904134764	-0.7539361100235268	-0.7549855690014374	-1.308255192314649	-0.9074902511572936	-0.8414761402819406	-0.9130244232014267	-0.5487864003631048	-0.572446166023737	-0.16946250157486437	-0.6739488823087576	-0.4434649337062559	-0.2768130891486788	-0.4584828305589796	-0.3320649853905594	-0.42718610059649237	-0.5597623572522022	-0.40009164709167233	-0.48925226803279265	-0.5831533655702208	-0.4005905677695051	-0.7028968912498005	-0.950870094282786
-116	-0.8573682882597001	-1.5177054366894023	-2.3164186419177186	-1.0128682826218915	-1.9812340686367809	-2.2641565742548675	-2.014909500756959	-1.185612794743737	-0.6606301648626783	-1.7967901184493809	-1.9904558608345675	-1.766080494236449	-1.1657079428805397	-0.5197992311705433	-1.3293049301918014	-1.1610988349209852	-1.5319378337329368	-0.9544817781191873	-0.2525874369919777	-0.6095381363738144	-0.6083304866690692	-1.3677473033705005	-0.3903152336756511	0.1396290656379185	-0.3011102370766075	-0.5878476485669443	-0.8368075468870504	-0.5571062550784273	-0.005217635059594473	-0.459072618517543	-0.6262831672115116	0.16219428140698136	-0.43233007083458846	-0.8134903887237221
-112	-0.9269880032977028	-1.1771351069294478	-2.321670526364908	-1.0972640486670524	-1.7290395454621705	-1.9114382218739114	-2.2857792319761545	-1.264810916568317	-0.44338703043573113	-1.6231615502384589	-1.8421655846815597	-2.126152510043358	-1.5756759603772694	-0.5808389172194358	-1.362027760881584	-1.4104683363589536	-2.0594332166174474	-1.0277988884725622	-0.3122707895501083	-0.8334945419248644	-1.0672831508393046	-1.930828208816839	-0.3730584373592044	0.19564370761590277	-0.4031476964308804	-0.9111565924528161	-1.2980176177631648	-0.6435437782252142	0.10250738237249561	-0.6039907320985747	-0.872588036241446	0.40993225470995465	-0.3572408547918707	-0.7908102253975001
-108	-1.0631370517591963	-0.8225141742920647	-1.8710173321215333	-1.12617397024018	-1.4112957680356366	-1.5128312072705563	-2.5658671791144596	-1.321665641308806	-0.42948478351877406	-1.4105154240282074	-1.6537111955852175	-2.347234958444529	-1.8996005010328272	-0.9329285002042438	-1.4064863884701424	-1.636575337092715	-2.3497016370576858	-1.1276788683076697	-0.6670712215747793	-1.1985738247174222	-1.4858387671150117	-2.264000171667372	-0.4611665594855382	-0.0841974464913327	-0.7307455521253817	-1.2839107481012104	-1.6996462302211348	-0.8029203394645202	-0.114133409867614	-0.9379587149780733	-1.2527936665376227	0.26002430850182695	-0.5095311986456558	-0.9008354521895678
-104	-1.1037516566066055	-0.4870441841703408	-1.1720278233501182	-1.0582003566727833	-0.9571037864362368	-1.0731378766622304	-2.649401896463369	-1.3339512314496018	-0.5455998168521682	-1.0931552620944793	-1.3941467965213163	-2.326675886001929	-1.972752804543814	-1.3247952427794811	-1.3649555410255592	-1.7194139914016948	-2.330186837988914	-1.1251162262166665	-1.037621614697457	-1.5201263389354875	-1.7293769077507475	-2.2734901847659703	-0.6111755951709498	-0.45918974164423093	-1.0865081521259101	-1.5750082691481813	-1.8718680096096199	-0.921386895237656	-0.4904230820671596	-1.3019912210017286	-1.556618567351349	-0.1329122629386216	-0.7446863632474111	-1.0168505881385705
-100	-0.8698935486765327	-0.13173729148029203	-0.45361947898777755	-0.8085738400071923	-0.3135874561498724	-0.5250124322033711	-2.2632999363023187	-1.21116101436002	-0.6137741788626616	-0.6049647912010347	-0.9760904287489874	-1.959130878270528	-1.6457159477645222	-1.4081338608475749	-1.1322818965934724	-1.5206485948316908	-1.9825004289164816	-0.86168890973927	-1.0866590710861004	-1.591009851253472	-1.6668287473556878	-1.9348305414941118	-0.6947011930092317	-0.6065704807225851	-1.225816962008259	-1.6133785207068843	-1.6883530574133436	-0.8586769082324398	-0.7523766737062054	-1.4514578544210535	-1.5543249806261827	-0.4659347522415966	-0.8293725827258293	-0.9471043920446739
-96	-0.30299916786941533	0.2913490824496102	0.10999802472237705	-0.33134567653922603	0.45435300354685393	0.16981118874592005	-1.2768930164523635	-0.8809738136937237	-0.4826639878484682	0.021648501922667273	-0.35227274805774034	-1.239572402685505	-0.9015596486217604	-0.9636641120422322	-0.6989658457274989	-0.9942387913397335	-1.389440294572445	-0.2851008765651931	-0.6336019023157142	-1.3245815005238561	-1.2700070110681376	-1.3438826765462923	-0.5853552207473094	-0.32190385379580666	-1.0129675839598367	-1.3078979220747673	-1.165031907001204	-0.5463767633948537	-0.6820788366263052	-1.2119238346019297	-1.1447899312680085	-0.469662903553595	-0.593501685551418	-0.5685021266889072
-92	0.4589095700121716	0.7727859596768633	0.4302092183695451	0.3030742697216427	1.1530307502245583	0.9382129287873985	0.15551325639562055	-0.3710183491876278	-0.14002698624543436	0.6302178486171354	0.40829709069163733	-0.3187250486909936	0.08276605585182681	-0.06611026061771365	-0.19210953961983607	-0.25203442509914786	-0.7318477016091408	0.46667000533536707	0.2031900430556056	-0.8315476754174812	-0.6668020469996532	-0.7089434844237739	-0.24883392390369138	0.3313541702010851	-0.5227112756883375	-0.7361373882781506	-0.4877780961596072	-0.05053265007493006	-0.2606295042610259	-0.6096570476398411	-0.43993690498858556	-0.07884584347368576	-0.054946340481791554	0.06932867300887993
-88	1.1248160572263355	1.2219487397813922	0.49561071270744345	0.8969569183591808	1.5538511237014148	1.592495437416103	1.6187128979822345	0.17391392544706372	0.26605901054919756	1.0118490431988056	1.1176860304270153	0.5361928926281767	0.982375023268948	0.9191439724604209	0.17992924108377012	0.4641107905114299	-0.22176632229127488	1.0997348996053333	1.0343214247338652	-0.3745166649899527	-0.10342129293794869	-0.2713614099327067	0.21489869003875467	1.022421238225214	-0.019037771921967893	-0.13706110383238262	0.059269361048307705	0.4408470381096855	0.2998804740487065	0.10887342663933611	0.2702032320830002	0.5116734491781194	0.5625952468019346	0.7375056725001597
-84	1.4022303784253458	1.504293318765196	0.34748971374517035	1.2082655399334314	1.5366867741887813	1.9173445653190824	2.622560017640147	0.5586262331210069	0.5167059289284447	1.0345087025272768	1.5514013728073313	1.0617737743273357	1.466480132215157	1.5227242669761085	0.2545210414659319	0.899077293987067	-0.0017562122039860286	1.3092571463907936	1.3986650670024625	-0.21398208981371292	0.17810842349860742	-0.18717220378349336	0.6081982239626466	1.3220773901938747	0.19100189160761033	0.2051786775177097	0.23610110521311375	0.7069381457600136	0.6678169352836814	0.5956669434767069	0.6636888964108945	0.9506033634980895	0.9427841877976162	1.1375058860669776
-80	1.1664175957794438	1.5148204526802678	0.061748158030775005	1.0820459100107114	1.179449674489522	1.7919949247893074	2.8416874336976212	0.6473801715718516	0.4627188730478269	0.7382830362753577	1.5658599098725725	1.1281020612845065	1.3614020313223119	1.4314368927101269	0.027838086639095736	0.9206795669198923	-0.07189445179430641	0.9551954245292813	1.0251891587123054	-0.44108050950268124	0.07607160489426426	-0.43853434809591696	0.734970627359618	0.9484804248704843	-0.05620038122650634	0.12145741253228537	-0.02038783202388311	0.6121954902451264	0.5847629293936717	0.5932804331105703	0.5624836669071968	0.934287426497047	0.857507643918833	1.0669763061287756
-76	0.5455737100178225	1.2443981139236264	-0.25801122123426545	0.5508193955819709	0.7285550814354166	1.2732837168017472	2.275100940682314	0.4487456071967992	0.1253896799498018	0.32832491314963597	1.1827429503143372	0.8030295351734731	0.744007227926555	0.6674782020882781	-0.3236384383613583	0.5954300150143229	-0.28965061829870126	0.16509407717030522	0.0049774478995301295	-0.9031140781489333	-0.3033294074029596	-0.8302642682094178	0.5063096272083244	-0.05469907806414572	-0.6667060239171625	-0.3334430149719648	-0.5507400021953306	0.18598176491988364	0.026745006374545358	0.08965477324738308	0.03737185140949417	0.39127042790808747	0.30946218889306054	0.5451651797835634
-72	-0.13638904656307568	0.7961189726756618	-0.49022403235643475	-0.16517360466739597	0.458272932802933	0.5828523025102204	1.2328273026811725	0.11614092410090306	-0.3086574069813351	0.05989515393751485	0.585369585466664	0.3077570490219536	-0.09399411803594587	-0.41908866061258765	-0.5385270105116879	0.15254850647081672	-0.4531740236761733	-0.711174009434927	-1.2358407943041183	-1.2793601719026775	-0.6976951939133852	-1.0886166068248715	-0.0070859794326036726	-1.3184437718482513	-1.3247511353424586	-0.8979296065548146	-1.0513610813299434	-0.385485648135629	-0.7665317635256613	-0.6627823693707943	-0.6255336388053534	-0.4644910681441368	-0.4546301651443597	-0.1832083906078092
-68	-0.531843780128476	0.3403227022638604	-0.5206765519347772	-0.7657607774474382	0.5058244454010776	0.0026182869848813744	0.16151380498162113	-0.14135636353566472	-0.5973440393625178	0.08473084100550039	0.027513615717564065	-0.11114125670744386	-0.7936516384114138	-1.3420708145589846	-0.42987108122058804	-0.14605165981134685	-0.42354667079801805	-1.2848709789261177	-2.1536650603278993	-1.2703362671250458	-0.8366243818141181	-1.0141715977812598	-0.6072795375750429	-2.3342699945642984	-1.665821905698684	-1.2446261612939613	-1.2386932341772878	-0.8545042850854735	-1.4182490074589993	-1.2806252208801965	-1.0814166041727618	-1.2472476927738538	-1.0725580426793193	-0.7740395049579696
-64	-0.45247000341618626	0.03898781155637138	-0.28032252121722623	-1.0235025856879991	0.7923783639929367	-0.25657537514757384	-0.5783848151862947	-0.18100339128571666	-0.5896565899266655	0.359375535534467	-0.2877136461623258	-0.30913197916183854	-1.1016004057728035	-1.739814634698882	-0.007740839364952471	-0.1487970199404476	-0.20530801959654577	-1.3395390476738973	-2.372964137761893	-0.7866763452695399	-0.5974342807944799	-0.5963401779377452	-1.0656461688793262	-2.721040003582305	-1.487633224546089	-1.1629831761561569	-1.0025376056155033	-1.0382263634218212	-1.624657626818544	-1.4585262500178315	-1.1143836946962173	-1.6128486354161689	-1.2628585068289837	-0.9671639179606727
-60	0.04461252305568963	-0.020417507686325734	0.22040049676085638	-0.8919445253740942	1.0802099677469752	-0.14135333859995	-0.8588448741209929	-0.005534186013971611	-0.31734892645821616	0.674622414793019	-0.2924889020687722	-0.29678440019063285	-0.9762858723787126	-1.553570266615942	0.5128179179595622	0.11191324861404503	0.06488832069941966	-0.9429754591022176	-1.8798565817101172	-0.022564997839580943	-0.07642114888208643	-0.021323699450299872	-1.2282687394602598	-2.4212875305079304	-0.8753349162889847	-0.6772431118078868	-0.4614748645098605	-0.9050252414741862	-1.3266433443907208	-1.1344813079801315	-0.7498067002439135	-1.448382970014144	-0.9770218705305408	-0.7233710866784548
-56	0.7112182956858832	0.15040130875284918	0.8780173041110392	-0.5049040900834245	1.1314283580824438	0.24500133035314894	-0.7822721580782058	0.24992841419061618	0.026281041958139965	0.789477346334398	-0.059494674055570414	-0.1924249524980299	-0.573790667992541	-1.0258483860818568	0.8300492146516111	0.45724195126485606	0.21619352643742493	-0.3941207518163726	-1.0124261353680641	0.6384464486215371	0.4703591752097808	0.43590861448857837	-1.0758776637570586	-1.712870712724062	-0.16161204833712414	-0.026694497026161185	0.11323551805040388	-0.5736130461515587	-0.7388975601614405	-0.5127520548272517	-0.22478781583776164	-0.9249870753776448	-0.4166069616289852	-0.23361635149147425
-52	1.262080308588761	0.4625759411100163	1.5205019674059135	-0.07527720164128412	0.863734183514929	0.7183124404891392	-0.5550154433542749	0.4131623496114674	0.20597240276785725	0.5834382161668832	0.26443833045952414	-0.1127310913935239	-0.12916113403612026	-0.5307279215764532	0.7305870037706795	0.6840328556910433	0.16844949083714184	-0.031439866791263676	-0.25591057474374995	0.8356581309201038	0.7834060172329054	0.5772252068251171	-0.7102537733265631	-1.0324040625255715	0.2592827373157262	0.4815287577869423	0.46239068987452214	-0.2279443586078073	-0.21830080394465493	0.0682438610261261	0.16515469509388875	-0.3849515905197899	0.09448343491541344	0.20478030987535917
-48	1.5299972257132393	0.798806486497154	1.962654704860752	0.23420591593262033	0.4004583348654047	1.1099368305793318	-0.3334881654902682	0.39015272161208125	0.08835815615995467	0.12952145901403894	0.5468205795787309	-0.08023135343799163	0.18647186411031189	-0.3469728520693055	0.21585665588716613	0.6923872811002483	0.0010413159590000822	-0.01570675890652459	0.0324290542975877	0.43876072653620235	0.7580237965519027	0.40557506578090724	-0.28320890593550946	-0.7201957684453524	0.15700255294737955	0.6580265743808179	0.4937477993420144	-0.0020029889369104262	-0.04943850624000216	0.34210210952216996	0.2500362091904203	-0.1330352571228051	0.3048359445981763	0.36923599149940933
-44	1.525585409127393	1.0586297485326612	2.0660510011008615	0.38520109556218973	-0.016505429479530837	1.3268794979927248	-0.14157332444209939	0.22760423960441642	-0.2770394973912865	-0.35727238564887726	0.7253610473439018	-0.009958293263803878	0.3455216279843007	-0.5100821243759237	-0.49537968510487734	0.5405151830377962	-0.08299116769341391	-0.22763641121135272	-0.19002847325507988	-0.3696895530426826	0.508734582570244	0.1313257810138017	0.08706102498246636	-0.8357778766511552	-0.39917540449449834	0.5438415990450228	0.33498546396556805	0.096006646509964	-0.2728349261548012	0.27193078330048603	0.08991311467834857	-0.25534281070137543	0.18266294850484668	0.2428087287971384
-40	1.3712623084733202	1.1783404320530526	1.7817585423307158	0.43997967132110394	-0.19490714321995053	1.3480942215261988	0.09440710371739067	0.08002023378673023	-0.6900147182209541	-0.6628384573413864	0.8007226566125554	0.2134877139900328	0.43898621090681833	-0.8262295702101135	-1.091780182942983	0.39221641322292927	0.11543140531244937	-0.349228113007978	-0.6596518142258051	-1.1894484728346388	0.29539102241323645	0.04945322113664393	0.36327364949061336	-1.152054664564181	-1.0774638625598165	0.3775125136380896	0.24919091102151109	0.17359389320891147	-0.6626187546212989	0.06155683457210964	-0.06658273918507468	-0.5768210277299157	-0.07432166468214114	0.014766400642664369
-36	1.1694076031724074	1.12822544289888	1.1611624926814446	0.46774130941553277	-0.1289276924454468	1.1799527376901562	0.4339117694866772	0.10109266613232354	-0.9248341298595373	-0.7134368401634668	0.7860718349637542	0.6234901531690332	0.574753938654324	-1.0278778050220456	-1.3445832695392135	0.394390909868135	0.6480728967516821	-0.08307925590758894	-0.9950378512055749	-1.6205463368508966	0.3546930840597015	0.3560891142437837	0.5766101464972327	-1.3223180737488702	-1.4723670445461803	0.4356484104124684	0.46208962681452176	0.3654024293733918	-0.8673130847967867	0.01465726453835617	0.05415735380089171	-0.7798541168550628	-0.17247700647676886	-0.05009655269253196
-32	0.9066900588032044	0.9030555463879116	0.3409034303164409	0.4598174083544535	-0.007209790386683036	0.8204317072181598	0.8262085893752055	0.33385872756590124	-0.867452082828052	-0.6162824615177668	0.6633993966519514	1.1070152493183976	0.7750980238418632	-0.9567894315404851	-1.2245448796826743	0.568421422000085	1.3540260757592693	0.6240034087638983	-0.9379747486274774	-1.4756449423726823	0.7421028595307894	1.0145131323949603	0.7688059787413245	-1.1080833645500758	-1.3340202536280774	0.8459077456098022	1.00598001226117	0.7223399859310886	-0.6287851913789312	0.33047586596021483	0.5653946385413878	-0.6085970982444764	0.08574338235664651	0.20986761099757814
-28	0.4718526887901471	0.5197357522240177	-0.4917635607224514	0.3224236957039028	-0.08468487837391402	0.26404419474694196	1.1029646368789783	0.6681231243431195	-0.5822271689973945	-0.575932382083203	0.3842576136424221	1.4380159341745347	0.9473366713447771	-0.6593316776795248	-0.8945907331768613	0.7861327509105608	1.9189131211470314	1.5023065767505586	-0.5032525049855131	-0.868396756840712	1.2814030614925516	1.7519745782488085	0.9335604286465571	-0.5300133810966898	-0.7079905253655109	1.486554618896957	1.6754646258968116	1.1510325641181531	0.04974354045945068	0.9603830551695652	1.3254840340527665	-0.036471132096954656	0.6672537906012653	0.7365313749791211
-24	-0.22983421327260678	0.021919421796293758	-1.145560976950876	-0.04665547597549848	-0.5064877854911082	-0.46007504943084465	1.0676364871726411	0.8946996308625911	-0.2727003686695605	-0.7484933118996038	-0.08586830624119973	1.3939598763557728	0.943232653143774	-0.34631928714099347	-0.5955013617739389	0.843633530394139	2.03031515562529	2.0800831265384563	0.045747250203026515	-0.13761728967253875	1.6524819093944736	2.1924614850956705	0.9993337367576255	0.1455154266259789	0.088732562735166	2.0337545820387253	2.12348412931279	1.4446500503305755	0.8836430884939608	1.6112196404785701	1.9917700240392573	0.7011982780872801	1.3097782101941045	1.2673895327040796
-20	-1.1469978065142041	-0.5189152346861113	-1.4714050255819344	-0.6489069445439184	-1.1996074884645074	-1.2511435715558268	0.6243034585449401	0.828664062315173	-0.16129109222698018	-1.1312925787019883	-0.7112169843837015	0.8888056851835021	0.6664156300885499	-0.24924029346958282	-0.5003848659279644	0.5896543249501698	1.5462549885811279	1.9437961529293006	0.3740876009556203	0.34335732373332584	1.5708671768582214	2.0561656899991103	0.8650465585802801	0.571146009910534	0.639320610339606	2.135338301035791	2.048381800248255	1.391769644084386	1.449239011920247	1.899116511318473	2.1986756269256844	1.2284144132117232	1.6623997646321897	1.4791357479897844
-16	-2.0386738725689075	-1.0166805956921003	-1.4046515190900093	-1.3321441378338639	-1.9090325784168505	-1.9436614464324482	-0.14243434333602842	0.42498052012911475	-0.36053538231422294	-1.5644615849096724	-1.3667170966928037	0.03890108307315185	0.15328170320434764	-0.4713643479367352	-0.6296021326381601	0.026048418068684978	0.5806286320331991	0.9907276605388142	0.2835898094169849	0.35875949172994626	0.9529864167948378	1.3141548600396218	0.4709009516270989	0.5240372406126631	0.6460221393487178	1.6105964143143723	1.366633769399618	0.9035542584494882	1.4075791800246955	1.564653273446786	1.758670444816681	1.231655117739979	1.4820086918607047	1.1742131680406458
-12	-2.5703840190841345	-1.3947346175266073	-0.9924502347684739	-1.843669886702603	-2.353953593986648	-2.366101974235517	-0.9892441009341004	-0.18157637073449587	-0.807439623224625	-1.8406870318669941	-1.8768559646904104	-0.8787841774687832	-0.4280478049438346	-0.9256674623960381	-0.8688565470693486	-0.6785250288998346	-0.5410539494205606	-0.4803217041286434	-0.1750849033942034	-0.057169347857141374	-0.024609502342795186	0.21474236195706473	-0.13984286749818803	0.031847551384627144	0.0800817234282414	0.5662146196374926	0.2754926972586257	0.08574812092589419	0.6895074826951961	0.6302508099856129	0.7750037292940666	0.6340070946898744	0.7762569765519498	0.40438213842338444
-8	-2.4973237451444485	-1.6087969500931465	-0.3918634047151383	-1.9667326162274097	-2.4017803608336705	-2.421117061224303	-1.6278068978219453	-0.7390858512338107	-1.294570800373796	-1.8467292739019099	-2.094610208945016	-1.5547199210014673	-0.8610097148137693	-1.3866338694849258	-1.0645006868189248	-1.2685347763459025	-1.4316652977083295	-1.8991978120537414	-0.7396048288745596	-0.6645463092238237	-1.0034295295176705	-0.831647513197228	-0.8139883855295632	-0.6446502192433863	-0.8112456182025036	-0.6356310828373245	-0.8303771594063374	-0.7923232296966587	-0.4571322489164239	-0.5881165847234918	-0.39707475800398284	-0.35509818702689466	-0.18730574798977545	-0.5408677445107525
-4	-1.8242406799035125	-1.6528989034882695	0.1749375458115295	-1.6564340549609724	-2.144976848908795	-2.1374299472249683	-1.8608227921234683	-1.0044188474091544	-1.576398726297991	-1.6389849144563213	-1.974882597705551	-1.7871948435483747	-0.9970166061978324	-1.616874929160581	-1.1245229215840704	-1.5284496507201981	-1.8141525938007474	-2.704960577811134	-1.0932327481324917	-1.1585304707840982	-1.615206118320373	-1.4448589050053413	-1.3434990610534865	-1.157279130874843	-1.6342099863754203	-1.5416041573703358	-1.5434619149340048	-1.4183952772569088	-1.5810923536436237	-1.62294685430852	-1.3199832406096235	-1.3378324474889969	-1.0106554005855475	-1.276804920787608
0	-0.8346872904684534	-1.545855160624984	0.4976447212052683	-1.0829329463320192	-1.8254133416818628	-1.6581239658453777	-1.6659151273628774	-0.8652064778418087	-1.4908598623782137	-1.399119135185215	-1.598335381287162	-1.5620245894095386	-0.8354462960131068	-1.4891533814026026	-1.0585358116127324	-1.386302825288679	-1.6293181139817652	-2.6257378988729685	-1.0423849794773008	-1.3210570778871857	-1.6564426380297985	-1.4459289275856475	-1.5589375456551255	-1.2525426117744625	-2.03970479450234	-1.8187330915308821	-1.6342831808790197	-1.5870373208985114	-2.2390205803608105	-2.0767605252284853	-1.6839780764978758	-1.9177192401151946	-1.3617742027233497	-1.5189878902231517
4	0.03975034122563834	-1.3077571359041633	0.461220144061056	-0.545745252185053	-1.654072161313066	-1.1667519778357895	-1.1822353571607116	-0.39302191039039025	-1.0320968601871747	-1.296235796516748	-1.1276726694246286	-1.0325551006950509	-0.5164626823737304	-1.031505701321785	-0.9359865164967245	-0.9374568438703316	-1.030915972967866	-1.8046581699584465	-0.6047701224316898	-1.1020575733970766	-1.1732413739146814	-0.9212900376901406	-1.4129105770678145	-0.8830307699797291	-1.8737149191279672	-1.402783509527465	-1.1498526305731585	-1.2986881700151949	-2.191877121159768	-1.8055347158623005	-1.4454745017750272	-1.878608102823804	-1.1314840288205235	-1.2237108914950827
8	0.44032892473628354	-0.9496342515811332	0.09477442479047221	-0.3058294050124619	-1.6509419637959446	-0.7970363477610837	-0.6174164398817557	0.19840678522561825	-0.34476205619552325	-1.3529801334553915	-0.7251993399430345	-0.4231935430809378	-0.23540228545837022	-0.38790044090564	-0.8067367652552082	-0.386344849087897	-0.28653693126814095	-0.7064158898638102	0.02951910525558102	-0.6067960246978457	-0.4231543530270969	-0.1588442917628056	-1.009696004225665	-0.19937494346826057	-1.2230666844959768	-0.5163593875245954	-0.3757224073460698	-0.7563119511582754	-1.495734211006349	-0.975903150955576	-0.8269601443392809	-1.2676957813681624	-0.4732353079291886	-0.601264177234853
12	0.26195809178971496	-0.4902494835396896	-0.44481667763938176	-0.4371587623049411	-1.6179900128522238	-0.5827659949848035	-0.14213299715396607	0.6590992791701323	0.3451229325164047	-1.4137663805553389	-0.48351517197603416	0.07754588852615836	-0.1360533681057094	0.26514914564899844	-0.6525456888889796	0.05156597482059883	0.3487702599302918	0.130605578092799	0.6216270907919926	-0.020610576443491516	0.2533726089756216	0.49775948994849356	-0.562155006896735	0.5523233399751465	-0.35246339351357314	0.4412390578573835	0.30944928448749925	-0.2623566084436771	-0.4543964851351078	0.02342708030388751	-0.18862074565949005	-0.35253381640119746	0.2855086319390721	-0.0004146502168159086
16	-0.31316393534749015	0.010952538783017874	-0.9446015930168742	-0.7903897146296714	-1.2701249090552058	-0.47508039950587483	0.1669427450256689	0.8156782368093238	0.8257547000063868	-1.2435858218266782	-0.40698489444022007	0.3763798167739602	-0.24487060246632536	0.7912415842106505	-0.40872287647051536	0.23349668026622858	0.7198132854407944	0.35700935035214754	1.006866571745321	0.47470638036085355	0.5812751040088008	0.7981717566365434	-0.293681352589138	1.1562353343381717	0.42063814295425667	1.0715198489792428	0.6088006481058704	-0.06899572146400522	0.528991757487819	0.7645342926749916	0.15449021717643988	0.5133938776405726	0.8077689388861776	0.2708981626346819
20	-0.9448273158060687	0.43269750366637866	-1.2321867911700333	-1.0945569249174787	-0.448361485064514	-0.41089954868524986	0.31137567679945377	0.6330183132401919	0.9741541122637029	-0.700877307075975	-0.44858604556313836	0.4650371957005125	-0.479229925853049	1.1193538875929094	-0.042377661806640037	0.12150227247794618	0.7861984948335821	-0.0446596815054588	1.152050492239057	0.7499166708132464	0.4484919000269533	0.6673294288952943	-0.3369653812483958	1.5080660543513738	0.8476803281363021	1.135864970200454	0.42478358638327407	-0.2611153119170412	1.1218779058741957	0.9641358231997937	0.07313786428582651	1.0442664596895304	0.899695453756472	0.09182006097499426
24	-1.3433663811145515	0.6125783904821969	-1.2499574391277912	-1.1341204614615723	0.7202818375521907	-0.3821761598474759	0.3097172073650882	0.20122004994610793	0.7823192457474595	0.12647576598183446	-0.5703908786677812	0.3660150459108465	-0.7160009127659409	1.2248002259802475	0.3730817725775751	-0.2379142188979587	0.5799521789213511	-0.799668071635207	1.1225866050987856	0.736483870077355	-0.0807148141611248	0.1949445004309692	-0.6810868961304575	1.6162757832728116	0.8194767216019796	0.6299932583161887	-0.12952055004320842	-0.7307826262143384	1.1766266793107973	0.584708689167063	-0.34357950004616516	1.123193738008935	0.5780369624802637	-0.43110960613124893
28	-1.42618143198426	0.4119120229811708	-1.0697926255873023	-0.8912411309628757	1.8259431077632888	-0.45705386880874216	0.14485216104175416	-0.33073398387376296	0.3353717616673821	0.9154890752566665	-0.7844600061638075	0.08260933288936621	-0.8757380821052275	1.0980293723040362	0.6476382000784328	-0.7617170195421509	0.1491821255493691	-1.5267453155117936	1.000294563628979	0.4116298843958388	-0.8277752974591711	-0.44450676328965455	-1.190085169648522	1.5435761174331062	0.36821028497238173	-0.2487836026824668	-0.8180033543914966	-1.25210761707799	0.7462803106539703	-0.18570616794429923	-0.8699318744630264	0.8103138187930825	0.027861704979528355	-1.0436646911973975
32	-1.3279175724835122	-0.20059317299742666	-0.8400873520621803	-0.5625615701777216	2.356928581009166	-0.7325079422576509	-0.23530103206831365	-0.8299947360064239	-0.2366434627757169	1.2517111269819452	-1.141004440287881	-0.4038943936164189	-0.9644851064172957	0.7364622931960009	0.5524624572157011	-1.367131945019393	-0.4653981614283609	-1.9430489491042828	0.8230673649988285	-0.20885749108511992	-1.589298125069134	-1.0839101048759998	-1.678651567035616	1.345390912473881	-0.3756740977816014	-1.2071630924264494	-1.4091665709203458	-1.6097214181312787	0.019351568024176275	-1.0462073061278065	-1.2806367841812538	0.2753778689107558	-0.5112869130577269	-1.489445563370554
36	-1.2653945652484841	-1.0918288203329969	-0.6939112526540179	-0.4359953094441853	1.9674167583384143	-1.2457982270258654	-0.8589680173167878	-1.222603437197952	-0.8057587126415582	0.8502410032740326	-1.6693307119184628	-1.0875927182395049	-1.046927211025586	0.16508729714197912	-0.04894427942793361	-1.9779478261600314	-1.2105832069350262	-1.9756673524566826	0.5791358337085685	-1.057820794295812	-2.206134075316888	-1.6184867579605278	-1.9988089749415905	1.043031332243613	-1.2378234832029211	-1.9757814357464947	-1.7733601286937777	-1.7056539015621681	-0.7777968625458342	-1.7215774015830003	-1.4617735110569963	-0.2975763671037639	-0.8616948105990879	-1.635380502386564
40	-1.3552796806450202	-1.9795563170998791	-0.6798805577278941	-0.7068704944883644	0.6812241656270287	-1.9070522737038327	-1.6590561824873111	-1.491764303255752	-1.2776057687927882	-0.2729566686414476	-2.316809648386458	-1.883815402996814	-1.1806130379433109	-0.5372094498422544	-1.097811696141866	-2.5148763593121686	-1.9872897813213817	-1.7443911985224714	0.2482400083234877	-2.0048575350688367	-2.59446834862843	-2.0101706930907004	-2.0956950134771892	0.6376343353385229	-2.048206801011636	-2.397862428333186	-1.909869904464541	-1.5911575515628524	-1.4661349021134897	-2.06567143872389	-1.4439328872464487	-0.7870416025318013	-0.9721330379737616	-1.5155987701297797
44	-1.5115023813232886	-2.5265901024924333	-0.7491101603668269	-1.3444309200675524	-1.0815615626684896	-2.5001716550646265	-2.4429073272062753	-1.644330974242018	-1.6031850535924226	-1.7764220192881588	-2.9293646738479615	-2.6120860510680806	-1.3575115169583551	-1.237901684496669	-2.3315002859378686	-2.891132585855499	-2.638860457433587	-1.4460085593908663	-0.15405014118401306	-2.869651548769841	-2.7410361697610677	-2.254198307068096	-2.007231230436379	0.139723732714744	-2.675146096151179	-2.4588046011834725	-1.9022716235770476	-1.4111934864654603	-1.9550768087617205	-2.090157980410114	-1.3497180904643598	-1.1600872248924115	-0.9075173712705981	-1.2793716159944455
48	-1.495878335037052	-2.475779050298331	-0.7954387048665578	-2.0895383305245936	-2.6728713444937138	-2.760780804339513	-2.934935800771762	-1.6728312926972833	-1.7738811924970885	-3.132749788004263	-3.294620744016477	-3.0409173888678316	-1.4917255602367456	-1.7907216503708303	-3.383113375705286	-3.028055421813513	-2.984327547168056	-1.2239100902174191	-0.5666536674497996	-3.4704203518032166	-2.679686301141547	-2.340323203853825	-1.8149400903655317	-0.41207322374255884	-3.0456306857461906	-2.2573616447676286	-1.8377963258119756	-1.2974437442447162	-2.2357237282573177	-1.9182306479660762	-1.294095155309689	-1.445149418043243	-0.7793887833944761	-1.078998682158908
52	-1.0853733989015413	-1.7621930793140128	-0.7212468367486679	-2.586365693238121	-3.491071215398539	-2.4935660299287163	-2.881758205767473	-1.5411527117919468	-1.8050378515447072	-3.857257118023203	-3.2315032400559605	-2.9800262375933446	-1.4624963961870072	-2.0938613361899487	-3.9380063911195013	-2.888162367204551	-2.8875231669955936	-1.0993125410935212	-0.9099799371632759	-3.6895615961382435	-2.4675202307391046	-2.2377288285024997	-1.581156965078397	-0.9524768566879395	-3.1519565502696136	-1.9419313620175658	-1.7417788461578512	-1.2754260269388553	-2.344053977770187	-1.698212261680749	-1.2999707427582337	-1.6744028287574635	-0.6633859856069108	-0.966469464246148
56	-0.2509315603596533	-0.5512326941878001	-0.489308385805707	-2.572388880910738	-3.231826774066984	-1.6747288661635618	-2.1763729994185166	-1.2084293334968608	-1.7206102566193167	-3.715517988360918	-2.68766283310383	-2.380316251467086	-1.189225193835874	-2.1366670077737693	-3.8716361424925143	-2.5116898950105213	-2.3332774580220046	-0.998038110597414	-1.1367561788468854	-3.5274255186667385	-2.1753568594369512	-1.918534035607217	-1.3135514226174394	-1.4121651613821355	-3.048693649224175	-1.6489174324366151	-1.5687108000249816	-1.2441517083227471	-2.324550384374605	-1.528904791786554	-1.2814122406078237	-1.8372609568939549	-0.5545465336150108	-0.8626783468400435
60	0.7749551515086973	0.8183386901221563	-0.13484439219762132	-2.0170199820138373	-2.0008175322561605	-0.486308424437091	-0.9365819072918826	-0.6729025227723674	-1.5439928731083234	-2.811377995068701	-1.7921508505396462	-1.386228319482898	-0.6932690722128292	-2.0009524771715914	-3.2984552300144863	-2.0281293340976054	-1.465558644409256	-0.834676382818487	-1.2627037731715376	-3.1101305406248483	-1.8852325630274158	-1.4014289343737194	-0.9772797202231882	-1.739049191852609	-2.8338403630234636	-1.46290433037482	-1.249284025852819	-1.0396991941905025	-2.207473749309477	-1.4258986675501595	-1.0981341572692869	-1.8678293180991257	-0.3772849133025894	-0.6109473093820363
64	1.5964789350256747	1.959787125407848	0.25652533704841124	-1.1333041162487896	-0.24958832498954764	0.7362363915928725	0.5070129620148982	-0.006509312412099597	-1.2963330712967758	-1.5231757125544976	-0.8315500596032662	-0.3067084841137123	-0.10892000766911047	-1.8101854278638032	-2.50940822921428	-1.6269779164245022	-0.5590612874221241	-0.5904583916061596	-1.3452857698807625	-2.639068596852617	-1.683158274215705	-0.7834718803652159	-0.5439700470541894	-1.8977481078871745	-2.6109213763121097	-1.404704328805147	-0.7593778352638466	-0.5444564805589733	-1.999100799281674	-1.333440300435877	-0.6438112242656462	-1.6672050910818494	-0.035803183822836544	-0.07802350054353771
68	1.8640878153467313	2.5712673599174756	0.5838206991714412	-0.2632315152198037	1.411610838187124	1.615659948084547	1.7112209753701342	0.641331075002804	-1.0053526137718483	-0.3394636205208817	-0.15859006305231924	0.48533651110183734	0.36536574271462513	-1.6639881092021542	-1.8412474347357575	-1.4978970251412083	0.06766512972914061	-0.33454042588647626	-1.4311692678557613	-2.3081259669203447	-1.6444143015352037	-0.23609265625473816	-0.043121702860202414	-1.8568764878121427	-2.4473898349006467	-1.445376988576421	-0.167302727276881	0.22336670699945355	-1.6835093455725456	-1.1679321497993627	0.08397719242828254	-1.149456855732849	0.5270410762831798	0.7585344295424042
72	1.4658931456748912	2.5198130543985817	0.7514119725329513	0.28994429038276814	2.4302461085950533	1.8551541520010615	2.2694206180495606	1.079910275593801	-0.7171275597586408	0.32155078568337103	-0.07021971029195818	0.6834354979426126	0.5488045797797153	-1.5970689017981718	-1.5449707469080396	-1.7644660428321388	0.16262343484828065	-0.18290930940224256	-1.5132703742921525	-2.2290503922451137	-1.8136410667405765	0.041847217722381286	0.4214113344043309	-1.5844438036015926	-2.3473522603851507	-1.5333744248776862	0.3732834448926634	1.0955851050372583	-1.2312611310390085	-0.865979192454726	0.9726508235216181	-0.28850200699445705	1.2958675590222553	1.7885576441430784
76	0.5822356924615758	1.8511412096970452	0.6750541312340371	0.3865292956606888	2.4704248842809653	1.324491259091894	1.947600121349262	1.139411088927768	-0.5043951856276171	0.23228722752098352	-0.704977510579722	0.15298564693449573	0.3533462575097572	-1.5871795375805864	-1.7138574080111828	-2.441180699860781	-0.37152179981845207	-0.23114080668742928	-1.5320302209321053	-2.4019880234155435	-2.190157646371629	-0.1028825563575065	0.7028376442330434	-1.065968630006747	-2.2560257854722954	-1.62297069616637	0.6850260478844281	1.8256078912419185	-0.6153358205518341	-0.416543512484782	1.8457821560988201	0.8538513758082523	2.185909265721344	2.8221955228123856
80	-0.423228948239845	0.7394177894997267	0.2910242967410491	0.0757124571080769	1.4770253859421951	0.08933738596533605	0.7597632985006358	0.7389917951045925	-0.45705231908798194	-0.6112182720965011	-1.994255656929405	-1.0245293352963076	-0.18124028994577834	-1.59950840069338	-2.2871506156396846	-3.427731743741439	-1.4415816032252855	-0.4995056080127801	-1.4211583101631409	-2.7380020549310813	-2.723074906149799	-0.7059949618634691	0.679535744858739	-0.33826321278045846	-2.094130749183653	-1.6900907712227382	0.6564578993435797	2.2115516606761343	0.16978011982490934	0.13639529014960014	2.5490274364964534	2.135588402124637	3.079517595145498	3.6882653143269413
84	-1.209245917128222	-0.5856975898260348	-0.41761755837860043	-0.4741949725099719	-0.3419477930972361	-1.6130356747910017	-1.0372729275264012	-0.06623009575573201	-0.6492859704790882	-2.022027964255222	-3.678777446995549	-2.5769240791109573	-0.9033712125858451	-1.6290227133630042	-3.1031086366508775	-4.537155139911972	-2.787040464994039	-0.9198751426360346	-1.165518161692054	-3.1119480054487507	-3.316838971346856	-1.6451314646193305	0.3263267270432307	0.4882703709195643	-1.8039479210130962	-1.7299028591349175	0.3152553431180887	2.206316942366597	1.0901225777759644	0.7161838394202947	3.023985855097103	3.3734528933230603	3.873077144380966	4.321526993331137
88	-1.635839934987333	-1.9014221381818535	-1.3817785943430705	-1.0855579348813	-2.588665955683485	-3.440513125316225	-3.0275976581427937	-1.0854272815002821	-1.0965872975319813	-3.69089221022485	-5.385529981367443	-4.127210129808067	-1.6068613488635972	-1.7092798905132796	-3.967203130242564	-5.548795209226723	-4.0568213360404695	-1.3678936923776992	-0.8295299985922836	-3.41780327887698	-3.8509411714601693	-2.6587588719951647	-0.2538489096908192	1.244057175356372	-1.3867982590948014	-1.745676632288452	-0.1607929613106887	1.9509193847991335	2.058521980810422	1.240949508394919	3.3259365474652443	4.39223431431961	4.505794990607604	4.785527217226787
92	-1.8053810550884575	-3.023791543955626	-2.4221041141392914	-1.6484137731895347	-4.7744049905397805	-5.031322943382336	-4.762591349975124	-2.0423157163554895	-1.7239859060630034	-5.260199533533238	-6.734553796931213	-5.305566774324459	-2.101930136142111	-1.8779301595958404	-4.702221381713238	-6.2643503984601585	-4.9120468969305495	-1.7157676176621217	-0.5282443748488673	-3.5985376744015043	-4.2067842377309415	-3.4236183080065854	-0.8561118223510071	1.757085199688237	-0.9112168527485319	-1.7366540388130018	-0.5067647086700355	1.7111790137003182	2.936352483965207	1.6432976681228006	3.57722448399511	5.066484915339458	4.958967196342116	5.218476282295805
96	-1.9527685592939765	-3.816193570992479	-3.2713961518662513	-2.1304132884597244	-6.427921278937075	-6.089649661901724	-5.887914165890061	-2.6621596745988834	-2.368908399323036	-6.393939002106367	-7.443449955267154	-5.852236256129065	-2.272409433349632	-2.1261389201843834	-5.17292545919914	-6.552480681088412	-5.1238069404938065	-1.8727652979298033	-0.36090534834340976	-3.64483045611446	-4.296215046526147	-3.6656248476940396	-1.2464570967675492	1.9241346072254621	-0.48839884873105327	-1.6948203997737241	-0.4837387788003445	1.7489914849946213	3.55489992197872	1.8740953159699634	3.880758752561645	5.3380083903009	5.22996758094233	5.731698498559858
100	-2.2616026344419797	-4.1910042656943665	-3.6591210272911483	-2.530438655186574	-7.2032632645893875	-6.454211695588227	-6.23188112592861	-2.764958613090562	-2.8272390294219663	-6.8469338244184765	-7.399829368982021	-5.6814780091846995	-2.103322977477706	-2.3732855260057106	-5.296994195915926	-6.373267157676137	-4.636777389263721	-1.8010097696609564	-0.35304579049620305	-3.5753250031802035	-4.085314263519802	-3.262807360994381	-1.2524150578349653	1.7564226344585865	-0.22905553819522703	-1.6138521392130738	0.007154671457227443	2.1901285593050517	3.753036966385088	1.8930541229136741	4.237674702435665	5.207152353491388	5.299176679583511	6.315638049392682
104	-2.7226352622910457	-4.112075318444912	-3.4294636162956604	-2.8218266892714463	-6.966530782276923	-6.127934917237192	-5.82554577310319	-2.325416320651715	-2.9289333746394557	-6.5256380870094555	-6.676998598407091	-4.88634871202839	-1.6710648494491798	-2.4929578241349635	-5.052730070708659	-5.7755951735588935	-3.5767819791134143	-1.5098602733638726	-0.4430752683420206	-3.4155421170784894	-3.602541437590248	-2.2944409789330455	-0.8277142026984305	1.3692424262762715	-0.2019905740883352	-1.5015420875785996	0.8659511186671076	2.9554178640135067	3.42241787046384	1.6605702596700729	4.5143742447363335	4.708766448530208	5.113688456022283	6.8077497310420645
108	-3.1243019025122867	-3.600827208010836	-2.630054467236704	-2.9313120767971466	-5.830662712634949	-5.258863435819326	-4.857201563969655	-1.4778937064050905	-2.6096236639893364	-5.51887224711355	-5.490589127983299	-3.689883461219218	-1.1036289902479675	-2.379890197467307	-4.482841003543975	-4.871553885558175	-2.2039978448535313	-1.0408949825709675	-0.5252768980115718	-3.186248055996635	-2.9282030985335115	-1.0159393523315452	-0.06606882793911875	0.9171228385658351	-0.4119197119803274	-1.3861725295355292	1.818671937165497	3.7860474490898306	2.5447947914723494	1.1410239906113178	4.476282585286608	3.889412870124024	4.599009025406441	6.941338998435497
112	-3.1746394554094883	-2.73480033184041	-1.5130705795233699	-2.7664914061317356	-4.113629330739573	-4.074847687923668	-3.581581345098612	-0.4619890737790395	-1.9411510180101366	-4.074146260465723	-4.112166394341899	-2.3601722657696533	-0.5278011547114365	-2.015538210548462	-3.684312572713996	-3.796395292233871	-0.8257802703989309	-0.45713576559045677	-0.5211587535097927	-2.90115141136121	-2.1671986525178513	0.23231224657056482	0.8347234704877406	0.5104025589454272	-0.8034676293114661	-1.309409495862455	2.5164396699313905	4.344912994859007	1.2062157362047812	0.32026865997516707	3.873131503816864	2.7978174615793785	3.6945483591261414	6.451822264594504
116	-2.6713635854032822	-1.6304488140902995	-0.425457267879147	-2.271953815446119	-2.224675411329646	-2.793849699595988	-2.2194409314386867	0.4730735111213543	-1.1010205717898924	-2.513911717743559	-2.771074288047655	-1.118221756972904	-0.021826814804998103	-1.4874426088925787	-2.777613871237321	-2.6662366322912265	0.3029754750231769	0.16329029161234407	-0.42863315235637345	-2.567271464541822	-1.4137403929302823	1.1468681068075004	1.641889091161025	0.1619720752918197	-1.2842191425324996	-1.3058273759297874	2.6667632989311323	4.344981659409615	-0.41863623155756235	-0.7698808889024901	2.5395135815400045	1.4893574677057984	2.39551162114918	5.1899776327705895
120	-1.6100406606078896	-0.4109089662191006	0.3663713922787365	-1.4685736857529623	-0.5124451505120781	-1.5430451592587875	-0.8865299202470787	1.1680709094120494	-0.28838595675137235	-1.1122245760493248	-1.5768562515501316	-0.06924342346590516	0.41099709168617854	-0.9422344541602408	-1.8564226580479688	-1.5426672658118656	1.0596411201426565	0.7410162668592774	-0.3118647925132457	-2.1770281736722334	-0.7163649779353098	1.5676780899522107	2.1619629805339997	-0.20028792271114138	-1.7480480626794983	-1.3732165063519923	2.1452791636663324	3.651319971402641	-2.102031702456552	-2.0287659117021994	0.47452252983450804	0.042315784734938806	0.7855977992250524	3.196171752489524
124	-0.17050832466945293	0.823776481455931	0.8220586159931966	-0.4476366329812306	0.8554799535133385	-0.32767388141872045	0.4168556322063603	1.6109716851569307	0.3708940138989403	0.0099967093885872	-0.4972928749880475	0.8132124522658362	0.8341718295017372	-0.4958701717254957	-0.9455794072119457	-0.4221638728450426	1.4802485667049314	1.2148662774884826	-0.24234199462740308	-1.7002778010355803	-0.062399409553817564	1.5216313562122663	2.293423646858588	-0.6662703735695991	-2.0931901878914725	-1.4538271390448934	1.038699624300143	2.317270273080119	-3.611686935842915	-3.2847218430557517	-2.133260244705588	-1.4325305187297046	-0.9593293642618862	0.7034031731012444
128	1.3974781001094023	2.010139460256917	1.156811472833116	0.6709732992397932	1.921890253936756	0.9341277456540968	1.7549079612293785	1.9251475285562178	0.8796923734389329	0.9161965823883641	0.5987263306760139	1.644987579007206	1.3376394476497016	-0.1597647215862645	0.004150294688296328	0.744011996298125	1.7225003199003723	1.5589179953316885	-0.23608720242975498	-1.0880273553081097	0.60964608038523	1.189352151728925	2.0426397272036705	-1.2674983707851648	-2.2356336060346447	-1.4410332404947364	-0.39505678315556214	0.5502794967109585	-4.759179580116795	-4.32335232596813	-4.944409834776087	-2.8004984784946068	-2.6035735541413305	-1.929122204678385
132	2.9057633803437066	3.1180047910169546	1.730844612519991	1.790168042431554	2.8709082530971126	2.3333752096391893	3.17852758558766	2.300365203771604	1.3567936386184927	1.7974953606045827	1.858740563468142	2.5569634373003916	1.9833980748645326	0.1688295002489479	1.07936858858345	2.0128273913109216	1.9881071994177677	1.7889662935866268	-0.2305562490364317	-0.29010251091192496	1.3793662751658113	0.8200449922838334	1.503979917543758	-1.9386131714512975	-2.117558473962761	-1.2087502449035212	-1.8231199933752749	-1.36584210050971	-5.431729779834785	-4.936691748552898	-7.5517673301767845	-3.9272699256925065	-3.9074861904671874	-4.317782867974379
136	4.290349949495056	4.13449238686976	2.846601955856234	2.8627126144611883	3.896391620335286	3.8887672326134473	4.659918296492894	2.893905155504871	1.9585040758276524	2.8516290115838983	3.3599278842019342	3.6207234768052072	2.7629556586125865	0.638274548826439	2.3381607473468335	3.409401646589232	2.436282151746928	1.9510359714840197	-0.12693977323907818	0.7135670167073276	2.3063807429257275	0.632570324731191	0.8179320076318807	-2.5451865131968243	-1.7188675360197738	-0.6559337957033929	-2.949115745728027	-3.1559379021119787	-5.604674801981148	-4.980341898741764	-9.582631086951201	-4.712455260776755	-4.691141593533203	-6.154687865930634
140	5.573769555324557	5.05040501273113	4.563196170730014	3.8771498105388966	5.081687437578908	5.50936029950573	6.078915580660515	3.7513878250776065	2.775803797389352	4.162762154559616	5.0596570840883865	4.811141955626471	3.5888588337887337	1.333102818938011	3.752823104920174	4.90460060788685	3.1278641144936494	2.0947067684693086	0.13137239184589838	1.885246987351415	3.4040748987083935	0.7483850102603202	0.12504595486541115	-2.960461370623088	-1.0692557069485211	0.2539920204425636	-3.592534771432041	-4.614978301794345	-5.332849012262169	-4.416590679461973	-10.78683087486548	-5.116084562736204	-4.882776248048152	-7.2732705886313855
144	6.766037447059244	5.86027286957313	6.633658869207432	4.819224822274766	6.358976824918027	7.025895100974699	7.273232441658826	4.786276328400433	3.7656047249135383	5.651065812148446	6.808354360557139	6.024932846116632	4.329978455101791	2.193067783540795	5.200955377799025	6.423794253343246	4.0234746831400425	2.2488739433730425	0.5002278076893777	3.126869432184149	4.638406264992031	1.1805592745538591	-0.47211691617976925	-3.1391007820983363	-0.24919803377654376	1.4785757027488888	-3.7099440004141755	-5.63378427990448	-4.722969996925745	-3.324336520384933	-11.083915682465022	-5.163363443689835	-4.532874095916433	-7.663326720916852
148	7.781114081764487	6.567306501973833	8.601387002209366	5.636346325949037	7.560176830277623	8.266401270022898	8.11977956629152	5.819297298997872	4.752009856624155	7.112619858903933	8.408301332225669	7.135846119984209	4.872572409725525	3.0133798046325477	6.508967383163605	7.873267630726158	5.022723185255854	2.410168403262444	0.8396437146922372	4.3043837438627	5.941900238294043	1.864368314804336	-0.928603229562393	-3.143357984236025	0.6226445420757397	2.9054617808419043	-3.3692045126727757	-6.19638822898453	-3.901760091467362	-1.8781489086416137	-10.565057727842396	-4.9304323071929685	-3.7937087916913375	-7.445852737701273
152	8.440601327566483	7.181852799402965	10.000932668231517	6.236675723542238	8.523653008875353	9.131376243424983	8.59951303218236	6.656533701302998	5.50027416747911	8.32466314121369	9.685329412802753	8.051702479061055	5.171356664952612	3.535946598662315	7.5274505425184515	9.166855788928668	6.014701828076056	2.550789111372987	0.9898943876069581	5.29197691534998	7.230929833275639	2.700028174259134	-1.2559426991224456	-3.1009430807023657	1.418845769160984	4.379114139944776	-2.7026822498749916	-6.361638529928397	-2.987717144098585	-0.30469602269491936	-9.454106307002258	-4.516990173379631	-2.8724138664203376	-6.823992711958086
156	8.571976640039969	7.7087530895155405	10.5546550484253	6.527994139402188	9.189461684867688	9.626645063890859	8.807256676372212	7.165843468693873	5.826302513671348	9.154666877521453	10.539584133241183	8.742765404562382	5.263837324203985	3.58437990237304	8.196001032163531	10.238751385587626	6.912303907108657	2.6399755411252297	0.8727657772917174	6.014739498211459	8.416517236440766	3.582022419468836	-1.5037711820782818	-3.1204180638685277	2.0407762475941174	5.734484181231048	-1.8643009615559099	-6.237338527190467	-2.0718917794369447	1.1699471444155523	-8.039822558131576	-4.016355504386044	-1.971922988681346	-6.024887546586717
160	8.129547098615491	8.125345209588014	10.266654942340907	6.467724783780428	9.622241949583128	9.834134077038874	8.896425224731068	7.312922459258814	5.6825656747398146	9.610313391263634	10.952316256527746	9.225383735253066	5.237847791798899	3.164826385137023	8.557595231384871	11.033971758640922	7.651739578001771	2.655868523568014	0.5509039745726937	6.4642829731812075	9.40146539221817	4.399945724822602	-1.734079595002363	-3.2209079184274376	2.4454441008815113	6.822346193254968	-1.0092275117189133	-5.95540903495183	-1.2127282588857873	2.3626346528483975	-6.604392035022291	-3.495852938408927	-1.242504831991761	-5.249807821370753
164	7.256466847218733	8.36777589592662	9.378072714970104	6.095900997029983	9.952232335712873	9.844738935410536	8.991664863772838	7.150871735638411	5.178406225481689	9.807512258563607	10.957891436567381	9.519245123671295	5.1702146399616	2.476189845509086	8.716773964808668	11.491008729532913	8.171276071898808	2.5849027568404472	0.20457231946794058	6.681598646460663	10.075695966077426	5.027605044069213	-1.9962462136412982	-3.3174633896039465	2.6508405141660356	7.525646190716366	-0.2883219115607229	-5.646307930995908	-0.4393186856145361	3.1588277737019728	-5.365457044406404	-2.9886112137679586	-0.7564073781943199	-4.638821590155777
168	6.24544380518514	8.34473798552336	8.225995996687411	5.531378732067326	10.2748365142807	9.701333975140276	9.122431732033991	6.778763277105239	4.528686035166508	9.883398031077093	10.611059162052424	9.615701651137726	5.077836500698982	1.8206620170402332	8.770122505933742	11.54166981644114	8.401452996976847	2.4124116836675467	0.03630755460036219	6.721405489164115	10.329415295270831	5.3305702074888694	-2.310832733042051	-3.268779031130061	2.7197441986081596	7.7753228944927315	0.16418288606676315	-5.411881433174692	0.24519771275602684	3.5253047854109845	-4.440324772114453	-2.4927272733695545	-0.5062586652371701	-4.251308430428588
172	5.4121270043105465	7.976836661226391	7.093699914188518	4.928955065680585	10.567399951957576	9.383673644216216	9.211539245236752	6.293480857218398	3.9538543124509493	9.904169057635979	9.967226003277556	9.47491929523096	4.908633696560749	1.4587864838962639	8.745744683119312	11.132011385468592	8.27648351487049	2.115012640381542	0.1555198129065293	6.614055616846037	10.081999753292957	5.197815881957343	-2.6700630120575672	-2.962821714550234	2.723963730610446	7.560811500533589	0.25292119319955486	-5.30745266528039	0.8561970569928208	3.504894009324211	-3.8452253244592196	-1.9809157798344839	-0.4280681003253293	-4.070694913123362
176	4.953944670567443	7.250105839544363	6.136985763314194	4.425115097317649	10.682866069524938	8.849872566767548	9.132616020033181	5.766789898617746	3.5890169053062793	9.828974699000142	9.092664695671159	9.0642108688387	4.584484088767087	1.4906930885825531	8.593635537385188	10.267082188433578	7.775980452932234	1.6738166766822222	0.516731439716344	6.354114039590949	9.326468444165332	4.597619521930945	-3.042974225944548	-2.3837945401088168	2.7136490276488168	6.941490155814265	-0.042674239617132396	-5.331402765164991	1.4236617052373868	3.203680745619369	-3.516865244569255	-1.4127939903829283	-0.43091645728034195	-4.023345937107653
180	4.878561961254593	6.251839145134813	5.40666960304869	4.0991592303732745	10.429287884130005	8.103326777026417	8.798457123476949	5.250781046008189	3.4460446747559943	9.549849486081818	8.089087465844107	8.409909227119071	4.068402756909667	1.8230476333367003	8.23293874569332	9.0531129608467	6.969439965771776	1.1010144921161407	0.9505573487124391	5.923109039611017	8.166233995800699	3.6251683143641755	-3.3831078920779807	-1.6205550391290118	2.7078978946982493	6.050308212263503	-0.639181075866539	-5.42838715136422	1.9892685363136393	2.7709879805222384	-3.345692864554036	-0.7478238921358215	-0.4236672211917719	-4.007053841964461
184	5.035315977735047	5.162126051267422	4.916342722877955	3.9634668726988966	9.688296293593602	7.233875256394424	8.223865488269938	4.792343127548934	3.4366173657435413	8.976201034771353	7.100852471543506	7.621026496719451	3.4112291249934312	2.2315294686243528	7.621451358626337	7.700407962430897	6.024531826067595	0.4619829941052878	1.263289567618911	5.326523290537417	6.812444669689879	2.502378457427219	-3.637599697465724	-0.8194361904436347	2.703828566400418	5.073835836951758	-1.3543152774949894	-5.509065137305547	2.5943555766407997	2.36651634572495	-3.2135295786786098	0.035347916096610955	-0.33620962415687433	-3.9250733753287896
188	5.219670282536931	4.198293675313414	4.688693511569169	3.9777085680669924	8.50930116412399	6.40321873001873	7.526417713236391	4.438168514490503	3.43785857286321	8.114652613179464	6.289666636799562	6.863288862066392	2.7457947661693414	2.4833152231461253	6.8066782779502875	6.473749144421956	5.162953840571972	-0.12411755292073365	1.350282308030379	4.622875201951409	5.533694730138872	1.5173281392889266	-3.752515306535331	-0.10972385825826365	2.69771670614058	4.209436405998171	-1.954644198251033	-5.477683530329114	3.2620930589331962	2.1213922447050346	-3.0232515258753243	0.9207273698448815	-0.13176426258198481	-3.713657369774307
192	5.282251821532981	3.538169136651088	4.744104373398264	4.075201501094162	7.130109768985508	5.782727703753287	6.8685025995410225	4.224282254044185	3.3642921362813696	7.102614384838619	5.7869090887830135	6.2956671555832395	2.229543441865451	2.453795665267774	5.933828338900359	5.609538064145383	4.58181570803652	-0.5190777169473588	1.2552021710176258	3.93141364058683	4.57870911395867	0.9278568602024001	-3.6795537378871437	0.4560300100256979	2.7095642021433832	3.617807617590157	-2.2270419541398327	-5.256928430636223	3.987660636370723	2.1102085060247746	-2.709411852671722	1.8535188389711326	0.19384089063341678	-3.3511838828354605
196	5.174526201535187	3.256453744295945	5.039165007266345	4.185030926628637	5.90350292622668	5.476065621855415	6.375468714830003	4.1526713266431985	3.2055756964812843	6.170064433732388	5.64386366372913	6.000946983445257	1.9662933299965242	2.1772806589468643	5.199386583552498	5.231999860905461	4.375745285430576	-0.6270115955734725	1.1420249910131484	3.405755272849659	4.099892605920739	0.8699587561577523	-3.3922459993547136	0.9145174003399913	2.7910883356198055	3.3856313143128203	-2.0473284669684437	-4.8077235100479445	4.739490020229983	2.3413345754638204	-2.2364838066855746	2.756835215283923	0.6198317392912459	-2.8523216175544395
200	4.921215998622487	3.3049702560905665	5.42136190953015	4.244644631159523	5.1633605826668925	5.473922238834704	6.0827226485219965	4.178990830360927	3.0197131557518118	5.55019567995683	5.810179218881733	5.952701553574389	1.9534033487592317	1.8153756811084505	4.775144088133129	5.310327516499939	4.502883899764123	-0.44329234845774446	1.2019588916949597	3.1840426841455134	4.111447323909144	1.315320726888485	-2.903679125130463	1.3557692731959692	3.0108580513277574	3.5135025889380964	-1.4162759745126259	-4.139354218522524	5.473335252294438	2.7694375445062556	-1.5939826925087837	3.560351124357535	1.1109918327891926	-2.254373544723293
204	4.563205707473154	3.5487341791201414	5.660996899617269	4.213005055281154	5.09440754557902	5.672194943412238	5.946172699220756	4.228988636783767	2.8968491481121843	5.3884734971376	6.161660178840276	6.044877513882438	2.094161743598858	1.5745149811092656	4.746454703745114	5.686031327196885	4.820474135626103	-0.05948920905471637	1.5575638970151	3.3434216891752486	4.506073463507291	2.102777475770099	-2.2765653075914587	1.8709908676593199	3.428245535778106	3.9383504291282763	-0.4437074352029123	-3.30691312908676	6.159362777417854	3.330040923294115	-0.7908068279327565	4.2342266929534045	1.6337619978664195	-1.5989501435918232
208	4.125477303579532	3.8367097280909492	5.560950742032947	4.088116635491486	5.660511956228601	5.940709099075859	5.904500469559122	4.239778031135189	2.9153585360354235	5.689277634561736	6.564116461393508	6.166809543298711	2.2683386745403293	1.6167663294980745	5.089406477476412	6.157351478289631	5.170627104102404	0.38672980568520693	2.216108316548419	3.876452436196785	5.1186117996683	3.024052850717662	-1.6168729026026638	2.514081471771451	4.068051804762115	4.575836646924906	0.706861315373092	-2.398935073517856	6.805895311338495	3.9776961703009106	0.14587441049939356	4.808444964666484	2.1709675734067733	-0.9187871790576962
212	3.6334371475036993	4.068535317639313	5.0847024789226145	3.9198052784182624	6.619625551676944	6.197604163734878	5.946608528382253	4.203382481452909	3.113222352750831	6.319351180334235	6.93599937595142	6.276570304282578	2.4144897399977494	2.003840441412957	5.690060601173529	6.574514372439033	5.466283784416733	0.7893606404402225	3.0854854505839215	4.69354485280448	5.79912470307102	3.9145913025250545	-1.0441486809117517	3.288479081434327	4.90339754773974	5.355146871397767	1.8803555917949168	-1.5178688726249638	7.458859424832741	4.703328120754633	1.1656663388385917	5.359405504046927	2.7260723045186963	-0.2358231389529055
216	3.157844058647083	4.224017132584893	4.4117555506900015	3.802937736446479	7.616890888056797	6.442470534271435	6.133216842425273	4.179407586036145	3.479896536624262	7.0607490361284	7.272619705912082	6.423994524949186	2.569782012173423	2.6878638199655054	6.389494402965978	6.893693906545291	5.72509573444689	1.1314738960309374	4.030279626207578	5.646135792782231	6.45665357866922	4.699541080053745	-0.6488646252462348	4.153109063153323	5.851993069178995	6.224928840179562	2.965213052892585	-0.7594184260268362	8.169081667302297	5.517216668504449	2.187142843446501	5.9637336580387235	3.3103625690804925	0.42864587794800085
220	2.8360412049215933	4.345511425491041	3.868628968961899	3.842167606189962	8.315892198547848	6.729502184089963	6.552827818538708	4.262421597209611	3.9631423850135588	7.687291602753319	7.6194019125255545	6.7076382467672335	2.839172356113029	3.539052715903008	7.031721097358916	7.164146405252112	6.033870681787425	1.484480734891878	4.923128115622054	6.561148626928344	7.057013017003311	5.378176198732201	-0.45458710078861825	5.033004748035072	6.788384420422012	7.131841164702572	3.8915033242203085	-0.19353586386454885	8.942340828252838	6.407237990415076	3.0975778024668434	6.641488535325359	3.9173936744967386	1.0394518349153092
224	2.8257737088385078	4.490095127213404	3.7602686787081385	4.096090306430827	8.51806638474395	7.102482777783287	7.23625467380785	4.51829193881824	4.482832897312306	8.037220934602987	8.01509473684391	7.191286068879881	3.310381404148194	4.388786304837349	7.5007276345659015	7.463641624680286	6.467869265438999	1.944115156987333	5.663928017621343	7.279715996482545	7.588693122777648	5.968091949653696	-0.40767663614341443	5.826768860410893	7.570729713399173	7.994231203876565	4.607101428797875	0.14804452620321934	9.702766393959902	7.301177006407609	3.7696385288431733	7.321361523263386	4.499955642782991	1.5409296712117604
228	3.208721868043165	4.680828559501624	4.19268797769573	4.528962600717568	8.22465513060193	7.536778430983671	8.087825754726687	4.926228033979706	4.947395789053216	8.057046869916702	8.44137571110945	7.833443621885054	3.9672958750696004	5.0724487176620485	7.739287356863986	7.823222140587618	7.017213326857214	2.541399472495937	6.170291885056276	7.691630344044856	8.025365809205672	6.451717837257121	-0.4035843898597247	6.414854033486668	8.074532488463863	8.694658257467044	5.057189928638072	0.27365285089066643	10.295976612799103	8.059531191504668	4.093103875316541	7.851216773237886	4.963942038401089	1.8635472012199834
232	3.9046399494770587	4.885759818139496	4.9965348117563	5.0039067142035085	7.616084556424311	7.927908400546699	8.88497731826583	5.367259965697018	5.272408472101046	7.803073863355773	8.811927773162177	8.477869012408915	4.659514415420915	5.466365323570581	7.750624160271643	8.188434580156269	7.5691351699461675	3.182970754216579	6.367107375282021	7.759155253847516	8.31361959265759	6.76386736115774	-0.3374271980349496	6.682281477269486	8.2255592138516	9.10591695393848	5.189047800314441	0.2241641277375678	10.541964504328922	8.512887933218938	4.012713422180884	8.05696294657707	5.191625105148022	1.9461320589521505
236	4.663522708562651	5.032465922047663	5.809083447094949	5.334646688344056	6.961218816347952	8.137456873375795	9.358116126275371	5.674157605150447	5.40146063394563	7.406364899055853	9.011936164991189	8.918653465641745	5.156702505443713	5.5167918065975625	7.589533786685437	8.443545320173797	7.9623698987201905	3.671300640373801	6.207918151440771	7.52705047614373	8.39848897720894	6.831362707056666	-0.1546174879938752	6.564393026944567	8.025765398743237	9.145415283001354	4.985852228928047	0.06066542476000248	10.322791073485797	8.534655549435954	3.5593616872567617	7.828496436381187	5.092111097830911	1.7681767895879068
240	5.167364107437058	5.04536150612155	6.26956222858616	5.377237783207227	6.494066222007379	8.067845324174106	9.313986754743722	5.717452511657349	5.326329217814519	7.014214974814003	8.9626741183016	9.005056358490004	5.2630057202021785	5.257493482667267	7.342983227310359	8.481659867807059	8.0808095727986	3.7998657130625113	5.719040856227314	7.1114263354999645	8.266697862734551	6.635862333709925	0.1263395246653831	6.094370826593173	7.560150604233987	8.82567594207278	4.505582798072739	-0.14791509471741637	9.659651731898345	8.110791185882084	2.857169144092494	7.188319188089031	4.655626762079901	1.3756350244122924
244	5.190961347825479	4.881931292605949	6.2127365909122485	5.109594332192287	6.308531745241922	7.715470294546189	8.731184937367498	5.475840554717312	5.093319880023905	6.725992185777291	8.667045571379532	8.720643021500559	4.926345812757485	4.803442466052405	7.097477894983423	8.272509554004058	7.923206786178687	3.4730038555198384	5.031290041618503	6.661492807735791	7.97165964021285	6.250262721493773	0.42855951081793936	5.420676217698386	6.9745750251155005	8.264256456490715	3.889508237555424	-0.33580544506167287	8.731539704212306	7.363481026178285	2.094958061651047	6.30298469859455	3.9810016054732293	0.8834242798435427
248	4.726170527923523	4.546740043604814	5.741238102722785	4.6495599629313995	6.319076045294646	7.1668581781639675	7.768887023384713	5.045840250627177	4.784252154668971	6.549174769078937	8.204945543554523	8.18603322823362	4.274378288921367	4.313233364659449	6.901262265901183	7.882553557521561	7.601651649356259	2.777810804983162	4.362726200533027	6.303621276199144	7.616743068538127	5.817265972709055	0.6598404033213984	4.7701783059801395	6.428197844488134	7.639165859008859	3.3234887039197885	-0.44948360210422245	7.816300849253775	6.508858664291809	1.4684433899998122	5.42610214770788	3.253579608332132	0.4457372713756134
252	3.9871630567973946	4.079818715285385	5.129415499134431	4.192365158940442	6.307819350529365	6.539590342223252	6.6840596030279364	4.581774700041017	4.475717056418406	6.395208342618299	7.678180675194535	7.581380348137907	3.5509374052040563	3.9252407451708966	6.736036283652323	7.430544834450127	7.265326958432936	1.9584340999748628	3.9350922008345006	6.087882026560727	7.298687439610916	5.4757513861689535	0.7600966672780229	4.356268394915786	6.0346135940780306	7.105951291263299	2.963780872491538	-0.4551564443540753	7.173953991897273	5.764113888492665	1.1141403885368584	4.795957553198988	2.676417582430317	0.20221678861584785
256	3.2802920258672286	3.5272416979427152	4.622032630694991	3.894102325144533	6.03721807862956	5.903581127520428	5.699813828382791	4.195018757719143	4.193356026552686	6.119244083213724	7.137256604294612	7.031760674842946	2.98912738999041	3.694252243251645	6.515274031402077	7.004081231553456	6.993031484114312	1.300248261983607	3.8616213701026383	5.962082370964035	7.042968732218213	5.2762341366116505	0.7247300725759026	4.275912274055433	5.816464886285297	6.720161421021505	2.8641023563552626	-0.3458332410663997	6.929638845114207	5.250418172931712	1.0628287765371964	4.537384021747331	2.3849217831479628	0.2221618438118446
260	2.81262873893151	2.9132239745021162	4.254580963837073	3.7704822921924834	5.3764881951964245	5.233603464264449	4.89740847304783	3.8768315217365994	3.890652169895065	5.591675744244192	6.537539942448156	6.523982031563197	2.687391751180076	3.565584888992759	6.120057090566408	6.590432627251138	6.721814615444821	0.9805933212318204	4.0737442867423725	5.792718872703892	6.774082166734977	5.138690935512381	0.5914964064923024	4.455238807873918	5.698134407915839	6.410781844165895	2.94560026378805	-0.14746668897590323	7.0184426130479585	4.943786608611889	1.233579632505628	4.617033469941012	2.387084716492111	0.4729577589014928
264	2.563832038128387	2.233756774984696	3.8192403220071256	3.678178539526358	4.378901947409911	4.4283556826366155	4.194698799986796	3.500755539638615	3.472550383383532	4.770371901865881	5.758849606279394	5.911747917508353	2.5602676803798174	3.4049692067963457	5.4621047835727925	6.07087896721645	6.266867144974801	0.9778938268767585	4.339554775725806	5.429934011101525	6.34783552474474	4.8879842634768975	0.40715458886346717	4.681594836812922	5.544621930428666	6.025635704086048	3.0342061443016464	0.08443276562831183	7.2242379006143125	4.704009521051985	1.4743192158669352	4.8736519690489715	2.5649909908384734	0.8337635972907013
268	2.3090853632802273	1.4736041985500148	3.0075414104822493	3.397694340710587	3.262608519899912	3.386841765435863	3.4178533467784646	2.904950134572444	2.855656855049071	3.7339193726680966	4.6816215396937135	5.008861529101887	2.3940148293133596	3.074422113285804	4.542005050635811	5.288202272415174	5.427478776580137	1.0894073220404654	4.378399837883592	4.786731707885368	5.633879170498723	4.3507676014726435	0.19457709740150128	4.715757834926132	5.230628000404773	5.42651842654594	2.9473726675006158	0.2775001220849478	7.29458377903778	4.365514267390001	1.62916957920736	5.105516897662787	2.7374455859688633	1.1485474080651623
272	1.784060235287551	0.6385311468215491	1.6480330187196708	2.778066628117892	2.3066942633564547	2.1023006386130993	2.4279031692241375	2.0144159742994647	2.0401496835698203	2.6607830457266264	3.2851567185429347	3.725006332529467	1.978873843918924	2.5227086480344596	3.4755504043567926	4.160497654901026	4.129156102245782	1.0526928875094423	4.021387566903857	3.9003329178564634	4.613559234415115	3.4695897014757238	-0.05215188102668106	4.432308185830982	4.714531886595486	4.591074455113974	2.5940117770506035	0.3691433956839846	7.0799097836081	3.848679055987365	1.6101683337566761	5.175608621881575	2.7590405871350443	1.3010514941745723
276	0.8898742176476927	-0.21640933995445055	-0.11245562107780933	1.8587809754171976	1.7142112211816762	0.7146207672196513	1.2277653186317579	0.928957281151465	1.148333904228116	1.7611178115249795	1.708584900356953	2.165203804271545	1.2435516087606635	1.837806935438719	2.4681305823000637	2.7742946077874495	2.5208189423812715	0.7067012172976296	3.324756375501671	2.9417495653267025	3.435374251275244	2.370496267055844	-0.3388850084331854	3.9071731468736175	4.078994263840934	3.663325062085832	2.036017412767265	0.3395351758967539	6.622331125705759	3.2294876493933247	1.4407063686236135	5.079592215111053	2.6041827136093967	1.2755279508811639
280	-0.19719479928297665	-0.9828559135417817	-1.8079029276025371	0.8864717461139248	1.5131626090946708	-0.5168215023343723	-0.011677316360495541	-0.08595032968278418	0.39752015371094246	1.190411087845331	0.23129716457144156	0.628499983154401	0.31590416947715316	1.2215995757731795	1.7414487556359184	1.3950015271252376	0.9605025028773935	0.10076253090690736	2.558945410943459	2.161241049078303	2.3875348507683185	1.3386003937303443	-0.6344390495494711	3.3933029089132023	3.511721840575283	2.918020241045793	1.4749522171928517	0.23127961100359953	6.143647178397473	2.7248284747946636	1.2483271328880108	4.941157805365352	2.386940473252119	1.1678899497109683
284	-1.0927586527891453	-1.5265196523272437	-2.853569261975728	0.20608834870281384	1.5531693657761951	-1.312233683134072	-1.0196157668120092	-0.7113221269768198	0.012662792546369098	0.9895436738779851	-0.8244623521016297	-0.5009819852578167	-0.5230972753669284	0.8953568912788699	1.447421427887055	0.37944829368157257	-0.11397420586182089	-0.5156708942745332	2.0739264435858606	1.7932268335844148	1.794231410264923	0.7093240600797038	-0.8533441402824944	3.19215845255764	3.232866517487821	2.6533148221737046	1.170482394124284	0.14409328960755105	5.93919132640513	2.6002311640893443	1.2129720418823031	4.941891657749974	2.3067138136798917	1.1425663203956318
288	-1.421098705518516	-1.7361412004506491	-2.845000021427295	0.07948748002249227	1.6009653766265912	-1.4950132332249662	-1.5514994820523837	-0.7348287683054108	0.11811047017556606	1.0816694470752606	-1.2261363236941594	-0.9211409068692891	-0.9701285933796707	0.9840191577862814	1.6109677512503855	0.02606960565720399	-0.37283345962806774	-0.8250768759877124	2.1113092846017074	1.962440724186549	1.88014852525949	0.7247567754566946	-0.8782858230350744	3.4876766116778612	3.3998572740547353	3.0604998988128975	1.3274215426309437	0.1991488034465537	6.230825408463014	3.0442466658980005	1.4906966648612305	5.22284697167686	2.5459542210195933	1.3535711731114919
292	-1.0480937931301848	-1.5754860599794944	-1.7906386807055124	0.5338272438876589	1.4800721369568417	-1.078463313240887	-1.5067388973341556	-0.17340153411954573	0.6632194502298288	1.3226369585976134	-0.9368766522595527	-0.5548651800451755	-0.8464780428495733	1.444277044464513	2.1260969585145673	0.43295690307978624	0.2498302304397578	-0.6177539809842665	2.666888468684845	2.6307756834366653	2.6648402146769543	1.4220572674133736	-0.6173087342889184	4.231714237973176	4.030329217271906	4.12986992746981	2.001777882290357	0.48343586799636074	7.049609166466585	4.068672169903372	2.1406426375702505	5.804838642723341	3.1688084522351234	1.8639825535443237
296	-0.17965403153837578	-1.1123977871466046	-0.14155127072358817	1.3313822712662684	1.1755691737058622	-0.26970934799763824	-0.9765087937496096	0.7140284162613689	1.4282646143139004	1.5763150413769376	-0.14092236721698964	0.4054302562967911	-0.18497078074007833	2.077787394046083	2.806417458124438	1.4379378520900759	1.5124827585180791	0.08295509198225469	3.4863138110831575	3.609178295559942	3.940176953858162	2.608134501548028	-0.06559300406107815	5.150869833339298	4.9809961193211665	5.638587460586933	3.0686845701942107	0.9991897319362117	8.207164743683197	5.484310136299932	3.086139432744746	6.5668668581150795	4.074340333188621	2.6047427588502923
300	0.7440618257810314	-0.5043823110243781	1.4109913075108926	2.085875267484526	0.8448033311495473	0.6154931768136439	-0.1995333577125124	1.54007958977012	2.1162521785711617	1.7756128266327311	0.8285775759758223	1.5767035444506028	0.7837066034557487	2.6252975397584795	3.4648246677658303	2.6772284440157943	2.96072792259385	1.018700477889149	4.198942173846932	4.629605281585296	5.345449434135873	3.932642926777574	0.6683549268060658	5.876181587642095	5.99545954144251	7.226969700686761	4.264277447424653	1.6448692041829809	9.368452048490488	6.963090402189174	4.125533093526902	7.291031819055293	5.027286993685494	3.391899577160154
304	1.2983698812128979	0.058052509876548565	2.2630574646079844	2.461628907664379	0.7248098831950553	1.285851356120908	0.5475403056625765	1.971050972730484	2.48500203458901	1.936573858140101	1.6265714127481603	2.551138394590489	1.736101026920172	2.8891203330529622	3.980341424429364	3.7381315136944493	4.11936139020386	1.8216425134443128	4.511820781760603	5.442882047262683	6.507428152820812	5.026321875279728	1.3954424822861726	6.123410209454426	6.799122793197634	8.528839089794877	5.28215979196168	2.2427654209733037	10.18756100943513	8.157093981175336	4.990478026188096	7.749730090602269	5.750536904121427	3.993782987048015
308	1.3184355464072932	0.4280753422896513	2.177463764415152	2.345453017988823	0.992874500628914	1.5945663411889508	1.0725375386815683	1.8861964893402896	2.457410329336407	2.127783054701717	2.0372412153307033	3.072152606837066	2.3992888866883497	2.823395006680817	4.327666748564659	4.336695660132439	4.694461810657389	2.20021771829142	4.358755100689537	5.904922947280223	7.185565930344518	5.6457638597997715	1.92761337270435	5.830883965075796	7.203752499512468	9.302441573498456	5.887058243193247	2.608849518864948	10.445104572627669	8.824072815550947	5.437639699558633	7.7967009347524785	6.037740692153631	4.222657669850289
312	0.9855569576176039	0.5624558911428016	1.3731459344527566	1.8977423858412905	1.6603105026287976	1.5881587226824845	1.3423265184844255	1.430268164838322	2.151712650588566	2.4183785854316566	2.0531575627941807	3.135752670000466	2.6621062688372996	2.545331233273974	4.563063610000368	4.433421600592575	4.689965713104043	2.0875601715787826	3.9225926300195013	6.01826857001041	7.356386166119293	5.761013493297857	2.1682774965855622	5.182029234200569	7.176944237708815	9.506463980515088	5.99927328502419	2.6355926923966715	10.126028989021636	8.905673004553911	5.340848432407988	7.421592693664623	5.833653912120805	4.009908189186258
316	0.6975463611157569	0.5356255756206368	0.38245323203801473	1.4536842071070828	2.5609190399362785	1.4644839726666692	1.4798383675406228	0.9333600974359727	1.8165794565112952	2.8379273342961038	1.859789962841408	2.9749507828942447	2.606113427258087	2.2639255466523016	4.782437312449432	4.234481323995242	4.39025591695522	1.6745229917210274	3.51868866985762	5.918221458751775	7.204845887113468	5.55439852265862	2.162727112078091	4.502616870956204	6.849863988748236	9.297198272120092	5.721370682576412	2.3507344663397465	9.412766432839053	8.533766724975306	4.751830565853123	6.7513298817887595	5.251372324082868	3.4368312272084554
320	0.8033315519077875	0.49669173234468306	-0.23471835196362176	1.334558364359751	3.4371404561047694	1.4627042971874589	1.688738818673356	0.7432736139605117	1.7059265332066824	3.366616002166005	1.7346390441968125	2.936254732348022	2.4469196734638454	2.172907346961446	5.074439035955363	4.078128327563824	4.217389096102605	1.307262655772355	3.415330878217939	5.811529144873198	7.0284499944619006	5.333055482751149	2.0803198761869064	4.095859994083996	6.460682375808706	8.951892830181846	5.29710005376478	1.9210365962164382	8.603719689581407	7.967812041193023	3.90051459281328	6.001932129011617	4.5236744766464465	2.710323565315904
324	1.3702897990916203	0.5892621859931825	-0.1598575111167843	1.6781235890935284	4.0724859134850515	1.7407616332926825	2.1437067931411273	1.058676478574047	1.9579671571888713	3.9539120097469462	1.9099771928248659	3.307999125711826	2.419800990670985	2.3662214219433455	5.488149152250933	4.262190331188466	4.530653942113444	1.307392474688348	3.695922365394035	5.892903789900901	7.099111539083302	5.394451604574899	2.1343407577033484	4.105311860210035	6.257574542459199	8.752723671749154	5.017835604396613	1.5930334289384875	7.996167162733982	7.492989998019275	3.125538579678964	5.400760636999156	3.9138026138673774	2.093255276163403
328	2.133350843765418	0.8738805033554924	0.5633614049039432	2.3800074994079288	4.390430916191839	2.298182958522597	2.8957745955788865	1.8425326300831597	2.5347356732268724	4.5437416915616025	2.4617493090465215	4.17946719068077	2.666663878383898	2.812215082697813	6.019158348145371	4.895476328887669	5.459659562631701	1.8108208133755046	4.235307205951164	6.268646224407565	7.544171314265787	5.900685295465971	2.47386121125288	4.473270881803001	6.400674326948981	8.878866173261729	5.110600935430713	1.5907269676100821	7.783015708346601	7.320188027020011	2.7541048457229453	5.110301958533275	3.623497953803207	1.814720745273312
332	2.660573237377547	1.2947602239344138	1.6040974814923405	3.1694402614681474	4.464309681111514	2.97931980334525	3.8344213865745096	2.852755062530152	3.2487285055154005	5.084363924541145	3.273883334477159	5.3925509316671	3.1740877548188404	3.3883819494529703	6.608981115821251	5.842832073718726	6.842357618222755	2.7026965549897017	4.794141280467978	6.911926728917471	8.296072938954332	6.810582620591797	3.104367725163934	5.005302893399202	6.899322969183667	9.345936751611298	5.648282036825885	2.0143940397902425	7.997648218943621	7.521252613151776	2.972597829943032	5.1794152129059	3.7308525944928563	1.990492934923524
336	2.6318533354114835	1.7101751522755455	2.5489418442267717	3.762444009818369	4.441058147661917	3.5520803838693835	4.724664199344563	3.7646448517164988	3.8576197526811007	5.520211682687561	4.09078406254774	6.605284674180193	3.786760082220966	3.944989671283755	7.153714161931283	6.786470396073817	8.291239717530987	3.682397594691487	5.163573252038915	7.664060573301474	9.127310729824408	7.894566516017843	3.875586261501096	5.4893669943499095	7.6061134146343	10.010584805963497	6.514975054504639	2.7858588625189946	8.51764199967422	8.016079882410269	3.739662160968417	5.533840165471756	4.1741447343343445	2.5791988307684224
340	2.0533144422188334	1.9696639726500624	3.111232034457516	3.999469746982388	4.430569637556562	3.8197791479945344	5.302314268076566	4.316047657560058	4.172688950494026	5.778741821957931	4.629784572356328	7.436615925133041	4.283843983324958	4.357709873641395	7.520932655419429	7.370743256079383	9.356321311216426	4.4145302661065795	5.2699532375796565	8.283264139243018	9.751594518836622	8.826573349602251	4.539643753034351	5.7965092512648795	8.269694307429134	10.63489243683356	7.4444622805514635	3.667057743350822	9.119069076402834	8.611993767929658	4.786439883545284	6.006705745790336	4.781124579756213	3.390175095581866
344	1.2745469776399274	1.996653670991954	3.2390684999703314	3.894303788843365	4.437178123715415	3.712525358363591	5.387715802895128	4.404302585926104	4.130746354164374	5.777358517365476	4.702436435271044	7.626954059418108	4.481796730170147	4.550538051560312	7.582122783591355	7.361488800536342	9.710566496174094	4.686239707559252	5.186511503476362	8.529911973398125	9.945734952611602	9.314372992840891	4.854662406108634	5.913046821924019	8.628367402226697	10.983868571206386	8.120553949834486	4.349184978948562	9.55929276913903	9.079307533229295	5.714476570960517	6.39930961900565	5.331153856169037	4.144446362522118
348	0.7902071456031854	1.8316172315130013	3.079451314780675	3.5813302903354516	4.37555884210219	3.31629966852229	4.968836294980529	4.098239411497422	3.801291456161939	5.460994229834141	4.2918982397438326	7.143902283751711	4.316181171964018	4.495941627595371	7.259984474925917	6.746546251429743	9.277027106704711	4.494938362217045	5.056429850209816	8.261068323259018	9.639736151199115	9.214332557302454	4.686906802741893	5.900633797053016	8.510208108396602	10.917565318199957	8.301278093360136	4.577375400430543	9.659918760706265	9.235789275693104	6.1560396992707265	6.550336344393387	5.62898062238487	4.571487415215916
352	0.9473062133713738	1.6115021664940923	2.847069256270093	3.2122070708236725	4.154908646583839	2.8293709683509096	4.215955723608665	3.5767376332578134	3.3361728107145465	4.852927195694314	3.5560068994386937	6.191047652826138	3.86768483139104	4.208205689295956	6.575199587433641	5.735323891464524	8.249262788926032	4.026194562283567	4.984020220570855	7.498583774708033	8.940231300670273	8.586056687611842	4.067172517044609	5.822241291605185	7.902484397009815	10.444381687497659	7.918398360287507	4.2583980452788515	9.36473462601452	9.012807823314184	5.931799396797328	6.391493304328119	5.569625840430234	4.51166390233595
356	1.7367117361089988	1.4951170645159026	2.6895375183865724	2.8742000984104568	3.7681922817459945	2.4671456751522816	3.4147770318600843	3.035592309917043	2.8936057017702757	4.080578793713642	2.7555541922616444	5.116536604361039	3.3212640201638086	3.741631021589667	5.664346680645188	4.660922038708377	6.9999966444665995	3.542420378324315	4.96367977796474	6.436659796676242	8.079126337634394	7.66291234942742	3.1799302020849733	5.687088952011109	6.960862142154516	9.71432683399419	7.107174855408159	3.502912989355458	8.752638794735207	8.478557565263621	5.132068621075976	5.967463001443614	5.172803865724106	3.982841958480668
360	2.794982187843861	1.579497810190618	2.624623530437061	2.579535000964107	3.3271524822155922	2.3676481187170872	2.849969618277541	2.6144585543427303	2.5802707606973567	3.353754273530265	2.1482751315237585	4.269231785485874	2.8832321094197573	3.1968219199530927	4.755258071337633	3.840772619087161	5.927221283252978	3.2464685358098024	4.895455824889918	5.384650693649937	7.319770317670479	6.75667999469029	2.295886510774489	5.456537709764826	5.95935629293747	8.962685562393366	6.155613406852369	2.5856530601069854	8.008324602888834	7.81528613978368	4.085144986329067	5.41728924337222	4.579512107731056	3.18500136524966
364	3.6107892898948637	1.8531657410563747	2.575362437421785	2.31418418300002	3.01384662820925	2.5407590801940865	2.687862866291191	2.3699059426554787	2.4316921172736534	2.8907089160415054	1.8938660573827546	3.8645558259668116	2.6946327618276875	2.7132337024850703	4.0963549510529615	3.4586410435138646	5.304091440160702	3.1880967536543205	4.671232688554172	4.659656512893702	6.860939485393858	6.136240943674961	1.6766293006527822	5.099901186464807	5.1970167028822125	8.426083543484484	5.391482339598265	1.8381473971688163	7.359068375127414	7.256630402363584	3.221771470518763	4.923390852895561	4.007993211163749	2.4331772265991276
368	3.8088877104915153	2.208614820626176	2.4613151488150735	2.0947697109740324	2.975871793862989	2.879825584770155	2.911409609119734	2.2899384440780803	2.427948707172631	2.821765415696772	2.0061643072975928	3.915998448975359	2.7788109709199675	2.4325294433213442	3.8631462953307216	3.5150289446776513	5.194125639199326	3.260780803077134	4.268019188595625	4.468253601237055	6.775455457747135	5.931569084450497	1.4881603680231517	4.6536469342040405	4.894147860568269	8.261740663650388	5.054663168543134	1.5187952480117242	6.997136098361762	7.005554181531426	2.894082538927275	4.643951404290775	3.6786253359424665	2.037565464597463
372	3.3453972255166966	2.504902594917794	2.2725381793820216	1.9830001542570168	3.232805482331725	3.224413863624274	3.3408918296387893	2.3272266329182627	2.524465077702266	3.1230859677619387	2.367322677357435	4.257985581138048	3.043590776388548	2.4410102305771537	4.08528899115048	3.8585293195580768	5.460552201789603	3.281718007385235	3.7882666492185053	4.827768313616721	7.0033616842835436	6.100705131386751	1.7498495534586416	4.238615502146425	5.116529928640841	8.498639085293487	5.207904802525133	1.7126060681019277	7.014706593922869	7.1612911043560015	3.2287411608240424	4.654253471067743	3.7307338620407635	2.175334209671994
376	2.505050891273621	2.642693274501547	2.0788817353213966	2.04306244334335	3.6576731112639203	3.4395022305433867	3.727724065905784	2.4258868633057666	2.6758623055609916	3.6238641647397825	2.791369431123856	4.640795695985754	3.3321602260383982	2.7190570762649235	4.634059894305983	4.272914875686537	5.853604301932496	3.103313676628387	3.41993259520156	5.564217076558392	7.394482117103433	6.467482073667515	2.331875556780427	4.016794194570483	5.757726654774661	9.035829521254106	5.721935257770299	2.3009061755262197	7.375960808251269	7.682620982800512	4.079452027511653	4.920410620664316	4.163875092484052	2.8098368573772796
380	1.717622633412138	2.6091492110181225	1.9775279710432936	2.277538532228894	4.052431096335978	3.47444962577986	3.876548757302499	2.5333142216618576	2.845971577134681	4.092753876843304	3.107311479352669	4.850466715964198	3.4975986392407012	3.1382634560506455	5.283271776211802	4.574708927048603	6.130918964165693	2.6968936852075998	3.3399317180231716	6.39027736957777	7.776099185384327	6.808516962027676	3.0016603394063996	4.109542359466932	6.584807379310018	9.683930372584118	6.33828066179279	3.0136344356743856	7.934867362015947	8.400946595916114	5.097172724252458	5.315085397652477	4.830016600811972	3.6969365980269724
384	1.3198820319230504	2.470930570085963	2.019915575649715	2.5948388510994187	4.2702822577427435	3.3752067003865034	3.7354836369616327	2.603507512195086	3.005897275964916	4.359218586406141	3.224563590491572	4.79767655114997	3.4633872421560565	3.519404402430276	5.814129814727472	4.676415431613596	6.155549987510488	2.1689414923266837	3.6188750175660997	7.026041489981898	8.013646105560946	6.946682435616831	3.505963316648782	4.523542392753958	7.3252782636709775	10.2289733628462	6.77749822812772	3.5408799558886286	8.488368012931724	9.07553765866606	5.879185184894033	5.666000351905661	5.481173501481192	4.4778213387922445
388	1.405496951369369	2.3255724848206327	2.169618839508201	2.8451237606695363	4.308814991562694	3.2505156911798334	3.410024395916273	2.6030130320632776	3.132475129801832	4.403261650412374	3.158056251181948	4.538986194594849	3.2450826086129845	3.72460865034053	6.111764415569034	4.596796977835122	5.933412536899456	1.708522792317254	4.178920735298849	7.307994347241227	8.044782618238681	6.812383157696626	3.6617579367693542	5.1296267379949825	7.760973910764311	10.497263881883187	6.846025926471549	3.6571183112317516	8.84505746515617	9.47305867664435	6.129168494962348	5.817599281881798	5.858751759042303	4.822779643280195
392	1.8341169310992804	2.242823595106458	2.3197486342036227	2.9096345828028047	4.311108101450704	3.213000766271498	3.096308223536333	2.5223417218421487	3.2127749838776585	4.358725536785803	3.008427373919954	4.230017651368572	2.9312462732694806	3.7323036099616047	6.202360614375945	4.426672924309565	5.58613823433996	1.4976988993024751	4.829305636610886	7.236963730660308	7.882744769221517	6.454740031158182	3.422500124873422	5.712579235912817	7.793640117041701	10.403124782999772	6.500882609166683	3.306773654218338	8.88467404983398	9.444631552692684	5.760312065839911	5.684728131246806	5.79137657610694	4.564694393077305
396	2.367761605960453	2.23111032876335	2.3613362252698886	2.7828919817281457	4.468596447152937	3.3252520477263716	2.9724624081904443	2.3869423806007473	3.252319327726183	4.424784649167848	2.9104909823367753	4.041701783466338	2.6381843023449623	3.6480550673886674	6.213050349761554	4.276552666357284	5.283504949581575	1.6272299248619764	5.357586847130132	6.947770578009103	7.598132114300447	6.008340820401687	2.8956990168895023	6.06717155832078	7.461389999624936	9.96972653732886	5.853582367423273	2.6188380652111896	8.589839913615473	8.97496507286041	4.9066948766803895	5.2786526546719506	5.262234197682154	3.765187492401164
400	2.825417988319386	2.2466521206400043	2.2543604317014756	2.5861875945599815	4.879519927103004	3.5734853654285	3.110445014729889	2.257159942650218	3.2756771958617903	4.730545985676148	2.9721758290590876	4.084061135471208	2.463191264609287	3.637626877183673	6.277031405813396	4.232070912166611	5.170947061834751	2.060006136461582	5.6235632754442015	6.621233446570346	7.291236859032803	5.63600729473041	2.301686042696492	6.089796050908923	6.905754071920116	9.319557166411787	5.118576990555839	1.8476482583127367	8.04347799177713	8.186974504781537	3.849925031478604	4.699638354833772	4.4172782786423666	2.684941285030257
404	3.1502919117545294	2.232187265482433	2.052274937216575	2.4946050580938177	5.452129350248368	3.874775876752776	3.4506511601111853	2.207042450100971	3.3116381084754654	5.231840597295022	3.2266485609605513	4.368356216845717	2.4544939932841996	3.817003955740799	6.44007824225477	4.330760468039269	5.319259630124848	2.6527559690257014	5.608744130278979	6.387174590197176	7.062671643545421	5.469383225937229	1.8813823414032256	5.819035038561522	6.308043463993155	8.63571450914174	4.528144824993315	1.2632186380918073	7.395209770605013	7.297925453834031	2.898254864051018	4.0994186297866815	3.5078275115140705	1.6700985389505207
408	3.3617238913537717	2.159330362590207	1.8705406141738232	2.6200079851758873	5.923204883879574	4.114084710224507	3.8495569131934007	2.2902750911109218	3.370786658359699	5.710289463884907	3.6194810775926456	4.819877612342697	2.6074697905511712	4.167583931891192	6.6292328667161655	4.564297187725525	5.712053761365804	3.2191414751793337	5.405276284875939	6.273312075988802	6.990444642537591	5.569113717323617	1.7930046274692533	5.410311208416693	5.827093109677652	8.107222536599101	4.250035752056556	1.041319486849986	6.814167482338117	6.54536531703167	2.2754905166395822	3.631752958665178	2.7938146520649485	1.0097997163073122
412	3.454944363454228	2.049180740904807	1.8197507812332077	2.927769176720642	5.995688900115026	4.195843209163594	4.168817986453506	2.513467305513236	3.4341833504756387	5.887190803922893	4.036674489320095	5.326391206644928	2.878326170329971	4.537924278246212	6.705846769568388	4.896948802028483	6.26629207936346	3.5995311646181123	5.160309301699255	6.224281295320357	7.114991646922848	5.912368759486767	2.040801996800595	5.063137518497324	5.5621785977122205	7.873479346423866	4.335297573588117	1.1975629299445838	6.443747027340722	6.109568580461053	2.060552591843503	3.40817045304986	2.448927157894812	0.8283579328603795
416	3.349311820157082	1.9609498928151907	1.9438751886880732	3.247263661769099	5.522963033083447	4.0882792369620224	4.348026741494212	2.8289861607652114	3.4633941562948327	5.594726548374673	4.359833229501512	5.78860519855046	3.2033243098445126	4.736378180943406	6.571877939797984	5.285508619315285	6.865462285827995	3.709764709643144	5.0091886393915885	6.169972404161086	7.430040340738022	6.402499659585975	2.467498057811304	4.936574446612275	5.5446104863368975	7.981482485647033	4.70722006563006	1.5884542425105346	6.365693553111519	6.0570816840786765	2.187673086365084	3.468158236330412	2.50409125649516	1.0542914840782822
420	2.9469768926603064	1.9634213397999176	2.2066636029797353	3.3821983252010046	4.635938155867403	3.8486618898497134	4.4279174692893335	3.1580541054147413	3.4340634259306535	4.911558615681782	4.5306706314139396	6.154593929010705	3.520333519630689	4.660288322126726	6.268570407299602	5.6986508225568695	7.396323662203764	3.556737175544638	5.029404150662571	6.101370319220765	7.888058642499117	6.9019675080563845	2.8266966271558798	5.092962728993312	5.754980072750345	8.377094247648698	5.197835909117937	1.982821340323142	6.585311873022123	6.331483348119765	2.50055407846454	3.7755622768445747	2.8545701431682695	1.478625889859663
424	2.262395853052648	2.1035661644277757	2.5285081799564626	3.2533035196182296	3.728729477051317	3.614078274185266	4.51189755254288	3.4317967805048575	3.37198304278661	4.173721779776086	4.58972595963398	6.42341230678049	3.781637420643323	4.379894722370784	5.9967455712549365	6.1252755964126075	7.775489787497682	3.219908467746367	5.226259218372347	6.098630889753804	8.415050485345837	7.275023442020515	2.8975162432948265	5.486844048952226	6.143080695854958	8.92963597904175	5.611809716361328	2.1647846644105426	7.0323257268739905	6.787707311659073	2.825714819449618	4.232446659846326	3.3179817115936046	1.8636542511617298
428	1.526603218039008	2.3916277825054215	2.844120972128367	2.981764547449185	3.2943727886948375	3.5594329744117332	4.698099601328136	3.627015343091812	3.364655247776424	3.8401420019470294	4.669476020467786	6.6285552811160695	3.9632596869541805	4.116498459913237	6.037049755113139	6.573612673375147	7.967314700038273	2.817799799480588	5.543366418194287	6.292915805187354	8.934283233973865	7.4327673724389	2.5919239455586824	5.990962013377693	6.640184862538123	9.48424527634755	5.798307404183923	2.025315518034153	7.57919977181895	7.25642440871176	3.036924831352277	4.706145751515341	3.7151551152844418	2.0486204572453333
432	1.1597551078125614	2.8046405244588803	3.1443116585500235	2.8490569519590445	3.684465160604236	3.832525243619702	5.024960982033652	3.7771093750004585	3.531277647639557	4.269169319818308	4.938434588361729	6.815880281406058	4.070848454687916	4.115539063553355	6.603096468466723	7.061958295158551	7.992073992578301	2.4731182989622753	5.8827214092503395	6.781188470885737	9.39113996042051	7.366471271989827	2.003718609519344	6.441874964662343	7.162491780317326	9.921939824803026	5.705779538054008	1.6043842990422756	8.075752237911466	7.611781101082393	3.09063576871667	5.065470205869365	3.937760104727911	2.0053057619964156
436	1.5821704824555989	3.2977242386528065	3.471157542047937	3.1442785183676123	4.914073454847796	4.487825382346088	5.461113439123391	3.9501511950896933	3.9563989539392757	5.517287240403685	5.516959653276826	7.027366143604041	4.140641202009265	4.486470687983053	7.704071502308122	7.603646736021143	7.921365241078356	2.285077327681052	6.132571204914695	7.5445427704110894	9.768541311396374	7.15483663659886	1.3708658183772755	6.691445810589854	7.614565353242112	10.20212170886126	5.399134622293788	1.0664966079488345	8.39322278764704	7.814195613205623	3.025841228474987	5.216836916150042	3.9755878348112383	1.8245905591674605
440	2.9552109166873692	3.8153712653152336	3.8728167912932445	3.9811615843394024	6.6183609795365825	5.447491155222237	5.94040535380685	4.208468426569463	4.62202166344038	7.271345120191423	6.4039578276120785	7.294682961166436	4.229689587404557	5.110400663824773	9.09874723044584	8.192363718329942	7.859492282097608	2.313007825733703	6.197912677375457	8.424476602265397	10.086287473008694	6.938931447629808	0.969849524433537	6.647964460754566	7.905126074859591	10.369603130862727	5.033154951739527	0.6244842394320874	8.466535546861357	7.912695864726953	2.9351556227011386	5.13187550202739	3.898443450621854	1.649940963394114
444	5.007004725212532	4.292462338100563	4.348628033149188	5.195974813694169	8.193020799932286	6.506854040883784	6.404608710331383	4.569133270171811	5.380218492275629	8.958777405054601	7.448317032128645	7.630788783834697	4.389079082851746	5.680832371674123	10.374549839529436	8.789555527430087	7.906332949703955	2.5669388706248153	6.028841003455398	9.175333953580115	10.379805538673882	6.865705472778065	0.9910547708285157	6.300036891289981	7.973945120706347	10.51921460356849	4.787339675260541	0.4457329500388781	8.31691835210971	8.005323389822681	2.917564384723702	4.855443465371799	3.8058748149150157	1.5944492776669075
448	7.068620187078987	4.652073371585943	4.823065745574395	6.393062575411803	9.056362129234493	7.392062168531662	6.822395307482139	4.984961497118772	5.993943676120409	9.992875073952545	8.388910272399139	8.019224146623522	4.633596885426536	5.869062408888096	11.123161287834685	9.325415587722679	8.115500429644609	2.9993395729632844	5.649050698322967	9.573103880554358	10.67278954672323	7.024502259639104	1.456797119277263	5.726635441626841	7.821901778499887	10.739640208785893	4.791560160937141	0.584976612044652	8.046632746407838	8.182069757784642	3.034635059324367	4.491782177074867	3.7752432727865424	1.686868186506448
452	8.335560777599751	4.813282000787084	5.171371923741637	7.121950608392094	8.906098343297955	7.853798846443037	7.175980072977363	5.358847127736081	6.236920817840935	10.036192868642983	8.953598953529589	8.407116868727684	4.926590907056182	5.522615418795994	11.127887697734863	9.71846005847106	8.466114976488884	3.5157506377147696	5.168832765880616	9.52488706091291	10.960424395545362	7.4064464382097	2.2160932961779736	5.087003695042292	7.526361446451865	11.066619845106345	5.075211035312544	0.9713081692967976	7.80407855924557	8.480598428295579	3.2883481896347306	4.172172059015839	3.834021558618366	1.8711954307996725
456	8.238170602979915	4.711233127143366	5.279877649328282	7.095472794738241	7.84222839282845	7.757857303106165	7.429436188060103	5.58399628183072	6.004566177466881	9.14789960458932	8.972189880606676	8.709642388288588	5.188253866448037	4.77563332305621	10.463743183420455	9.904785131242821	8.864225365193224	4.003363599206444	4.76002739658194	9.115711189143244	11.209352464985239	7.9067806997943775	3.0167128963599725	4.580339897035607	7.222322922591803	11.4653444000689	5.560424790648777	1.450569029960407	7.726175765557978	8.87139413501155	3.624779692081221	4.009343137155214	3.961324920189656	2.0497584291205118
460	6.727448446454767	4.324119556953741	5.10968779227506	6.3309659798044216	6.300495608635014	7.135072690115556	7.51313827525112	5.5918512203179676	5.37808273864943	7.743175487042158	8.452891328450981	8.834840752230305	5.329763399019227	4.00201176586635	9.45817086692852	9.866523717765203	9.179961181351635	4.363711822936544	4.595073211512569	8.566312768289132	11.37595269192057	8.372328737101649	3.6200945285951254	4.3811755069744835	7.050639134725703	11.850694626451942	6.101998313756533	1.860235209536756	7.881470183500859	9.277406669081683	3.9608287711277983	4.055217255844324	4.112385739434119	2.1427051966928508
464	4.320547092973503	3.6956536676560656	4.724144446843434	5.140670286551084	4.837756621544384	6.170293792404904	7.351029854334721	5.38676212858113	4.601853835885098	6.389450533947534	7.58712432853112	8.726567246339117	5.301416860547094	3.6256077198043504	8.533381440552452	9.647195791683211	9.308024382932603	4.5501785163439346	4.7757816194120375	8.124224642269066	11.434437722900839	8.673777558362048	3.8996887108573572	4.574186313524532	7.095759850706755	12.134837119936211	6.554889662405572	2.099234814112173	8.24061677759532	9.616299604932603	4.222030152151678	4.28114079348193	4.2492632758622175	2.130983824118074
468	1.875826473268449	2.9411539957176105	4.2631478201997215	3.9804320234891937	3.881859054301421	5.136570917512362	6.922299367593675	5.051926123261959	3.9793610472345735	5.545229420966683	6.679231626813319	8.407191255324175	5.127856718468201	3.888490905480966	8.012513140475916	9.34555814290864	9.224384284571997	4.589964378212479	5.280669675846058	7.947585562667429	11.399374933072373	8.76699540785814	3.8775656125398	5.113776670896328	7.34549377494196	12.27603050947231	6.836136800672542	2.1605088656237306	8.689374901767492	9.841487859674116	4.373018253729698	4.591666210025809	4.3595232853494625	2.060550446076297
472	0.2101123774707303	2.2269825879137866	3.880644073225387	3.2409310259055704	3.5742013364197347	4.302914608581986	6.316979869152477	4.723299014564074	3.7375507260372243	5.375097261209457	6.0309190597856	7.992068270532417	4.90648506833131	4.7109231829913165	7.989463785980886	9.08695981592482	9.006747223048723	4.568232047945083	5.96052263662349	8.043067911822112	11.327569932948487	8.709922768536902	3.6868996527092954	5.8306832166327	7.695801238657128	12.300294845043373	6.950200540161171	2.1134862846419873	9.078077293364238	9.95876214374082	4.4246129877913285	4.864737975236028	4.453989971359737	2.008546108896804
476	-0.24392796991274368	1.7264536575597638	3.680273523575634	3.089544765301456	3.7728118801230033	3.8541884324993343	5.737606987772236	4.540364253978577	3.9282662769320567	5.727536663853569	5.832339272078958	7.658905486797155	4.764809119592328	5.727100834692072	8.324754693947835	8.983404136864984	8.80540750187737	4.581834781522799	6.5986580682093745	8.289230325751392	11.29818818100851	8.62722108570127	3.485152951024443	6.4947380855615915	8.003712633906337	12.286447494004117	6.968953591871636	2.0503821321218667	9.287166572011143	10.0133237585933	4.4171504862842905	5.002101885564266	4.548806655843248	2.03363465749374
480	0.42992430816823807	1.5706291159075896	3.6878063585633294	3.438837281127951	4.197299946678227	3.8551468751849027	5.429559693933281	4.593107688751418	4.422042358677945	6.274859412563265	6.108900531604097	7.579346637663305	4.800544249812164	6.483394606433737	8.763595558928735	9.10163304892	8.776186920896457	4.686605918495827	7.011029225768091	8.53139684430502	11.383989305364635	8.643434502713559	3.3729028616624617	6.91192053003443	8.166582086925308	12.327265708317563	6.983198148262674	2.0319423624235498	9.28115556281001	10.060567830434469	4.393947590224708	4.970737921562642	4.64919756669208	2.1427998488685147
484	1.757048960064305	1.8101386978224172	3.86649154640565	4.040416707328225	4.617755401396709	4.260986317367044	5.565836415543561	4.886208521904232	4.990776526248378	6.723358137322028	6.737842065965879	7.840877036325515	5.032996641803403	6.685767156887151	9.10018060293978	9.447243666638725	9.006205536038372	4.8620462294847675	7.133286934962594	8.68639276218762	11.623638123729307	8.81891439118653	3.3553054248019833	7.00601289887646	8.181667307224135	12.484237639378767	7.051700097400026	2.0589046426289137	9.120584464887777	10.13420579258986	4.377401340876835	4.810850131286388	4.74230622047922	2.2895901145348923
488	3.160574428208061	2.3992555080873594	4.1575379266675325	4.635156142929924	4.974003302413773	4.955915438537321	6.1464261853484645	5.333253847008462	5.431683049793398	6.97127292780328	7.517493705843151	8.398955323948485	5.392942414972996	6.3543362457061106	9.291718459511857	9.967378591167796	9.470666861464842	5.01644562408396	7.044025403358123	8.793595291824184	12.0064916307583	9.122553802346184	3.360580674269866	6.84244106472523	8.149908998893673	12.758518186781979	7.174793702130748	2.0815947003261437	8.925909019822644	10.228795025749482	4.360561359840251	4.60782669811367	4.8013672707451445	2.4010386406359583
492	4.237101544172952	3.211987248894296	4.519155014072408	5.074743734898686	5.365520463748285	5.798663124703045	6.981618863598693	5.791037544888313	5.665186867715821	7.133231145015225	8.25432393851042	9.092694259574893	5.760781273602398	5.8014645430004155	9.462800955722981	10.571191761030033	10.047372792625985	5.039881693513315	6.913540822693913	8.984375930990948	12.477848975149291	9.457601523363062	3.3056173241126148	6.584332926338804	8.219993570555104	13.093675580344968	7.307248097090523	2.0435352273845147	8.814326264061883	10.307074520791103	4.320141781390054	4.445212829810852	4.800758826532814	2.4196331439917214
496	4.8822922583337975	4.082863320532826	4.93802927677828	5.3581900461337355	5.932796463292613	6.657395822882854	7.78049705448333	6.1230263555430415	5.755619034540724	7.43040130646587	8.829164482713386	9.722804044971323	6.03246687319722	5.450545774049974	9.805217718164126	11.158985109765725	10.58416363904904	4.880060660439041	6.908998471936338	9.389670348302639	12.960725751579071	9.725107168439628	3.16554831659272	6.407375319516292	8.50185010670872	13.40637585116192	7.399317245875404	1.930575842751497	8.842335678664018	10.325991604483576	4.241147030612934	4.364577759213654	4.732182013961813	2.336359971823426
500	5.229459749370125	4.856651293890478	5.409687505415338	5.580900178170324	6.7178554365302565	7.428719978650291	8.300955751442004	6.26114986746238	5.8505415768730895	8.024017313725679	9.219649291602995	10.151325200200446	6.176530822418454	5.598731980493467	10.439418766367611	11.649235695991338	10.980154009753361	4.598659026933203	7.10634372824351	10.042575810826573	13.382788624353797	9.885668729618722	3.005495063822987	6.417016966830817	8.996739364797623	13.627066577838617	7.437159042654863	1.7936880543245224	8.983199096887473	10.265280697654434	4.134808053067693	4.352951038814543	4.611644256392606	2.1948261205572295
504	5.471068368450064	5.432009206408786	5.909444794040047	5.8435535283372655	7.598715286143458	8.046491602609366	8.477561929279807	6.237464889037072	6.079214080720796	8.897072769590274	9.479916548636313	10.368443462896904	6.248229011019172	6.259536727360252	11.323360414526498	11.99755474876182	11.23433682466337	4.366427410545655	7.454754333748134	10.837122889814188	13.69831081746587	9.982213948796355	2.955171816040495	6.608809931281888	9.585329985259817	13.730999911926796	7.456407528171451	1.7298320488171033	9.150502181792222	10.144049618858952	4.03841685229177	4.3622403034700445	4.4752144700549294	2.066784376648326
508	5.697859272876251	5.78393982380638	6.379851325139982	6.1823716007545375	8.344367006215213	8.487893083123353	8.450409867885957	6.168631061238448	6.473434431898337	9.856113408953597	9.69716355736516	10.487668010935735	6.352008326705641	7.173571091660203	12.264805762796549	12.20472237366602	11.433882684450092	4.39087723577079	7.815067271528617	11.572401017535427	13.899701083375867	10.11119935343896	3.137031547255538	6.891084176785035	10.085877393053673	13.748043025592262	7.52173660286613	1.8290214492395866	9.255865073677086	10.019247029757544	3.9978763956222747	4.3511910328680585	4.368103969989664	2.0147952982578574
512	5.860295757756666	5.957127079228499	6.746826631678059	6.557961447370961	8.757108666244918	8.776085831419174	8.47334573513762	6.195789798352496	6.952982408135104	10.646149608435998	9.947544072785256	10.6690950124308	6.573152525518643	7.969851950550666	13.02722927619144	12.312039344220265	11.68770310312078	4.807041632913435	8.048871973697107	12.05867573554598	14.01571365632515	10.357804272249936	3.586946716789167	7.152457696022591	10.352522823899013	13.748365367510393	7.684004764230124	2.115620607756716	9.26822564646082	9.966061566940164	4.042195309923833	4.322509754711712	4.331234921010484	2.0610268063961388
516	5.858022198192093	6.034691795371778	6.956086141190013	6.8953170602277165	8.809864975620998	8.972800232167634	8.751631714659625	6.4067525701892505	7.380395870648519	11.103562327007705	10.267994854752075	11.012219401212931	6.919154149706108	8.375535943819624	13.46384998736935	12.385515181742276	12.042943924062262	5.584727750029557	8.100993135980064	12.22440907252989	14.098846399950709	10.733077022156957	4.215069760170961	7.3281445318217	10.359169933867582	13.81302925437106	7.941791037535575	2.5198130543985817	9.239955878770964	10.05022618617347	4.166978348701803	4.329540241754509	4.391605366109528	2.1805434171936318
520	5.670905575739713	6.095892890798315	7.004366857010498	7.135592919453842	8.68371198369097	9.152892089623103	9.301441169143072	6.779674512912264	7.644139747393518	11.248413057537988	10.645821544471982	11.478465051280892	7.302662830988818	8.352025010956622	13.59613987350996	12.48936840718808	12.433384863933428	6.503872378141068	8.028031328913299	12.158407180606684	14.203535044095576	11.148968668445798	4.828162657945559	7.4262461474797785	10.218039486836208	13.999636614739764	8.228784540381543	2.895244114241725	9.281195617131198	10.300474140863919	4.333564270522425	4.445525634985843	4.554461944525259	2.3171164930969868
524	5.430081830620195	6.181692107805814	6.942383748646482	7.267189484368175	8.676699616460139	9.368370986173797	9.920477842079666	7.181570511806021	7.7172832294171	11.262080164131898	11.025739641962488	11.894381493101898	7.57987831109336	8.082997301674913	13.592341388717305	12.658641783225548	12.697030989061242	7.227810841431707	7.958351115161001	12.062649696412413	14.363795244191445	11.450853318867695	5.205398546427944	7.502892475258678	10.121200535969862	14.317430460067783	8.438146569882251	3.0780806463728805	9.49613950239174	10.692607852642432	4.484325397613714	4.712817180178917	4.798487174316869	2.4110166965647455
528	5.36747740344061	6.284303172457634	6.844901544455346	7.32175968228948	9.036026931837103	9.621433233764856	10.295420620674042	7.428640823682229	7.662510852541227	11.36985871305412	11.331681222916133	12.041091888544479	7.625817756472979	7.83826539921663	13.663476909472763	12.883838621035888	12.660405127032131	7.450697880053542	8.00993821982812	12.143315284587658	14.579886399651727	11.494714707917112	5.195768820042345	7.609475593428302	10.23788163461326	14.722252808594044	8.474456765713429	2.963152401118613	9.917121862168706	11.15301415488578	4.5674319151956375	5.103264318933123	5.0776686540197185	2.425970786645398
532	5.66757534503523	6.361968501241041	6.766946775517641	7.3408379369410195	9.807831739458797	9.85984227552133	10.182472203295635	7.3783454708734215	7.582053165366434	11.698529213933291	11.492160768104224	11.779684037031618	7.401591759114291	7.803695182171343	13.935883486848969	13.110819783487717	12.243182151400948	7.044394952154798	8.218891123048122	12.495478598517867	14.81419273450938	11.225849123268784	4.787389266324869	7.750061492426384	10.618555995834766	15.12703796382206	8.302446344394783	2.556343310577714	10.46914670208357	11.575687379221465	4.554323661749729	5.512210832030271	5.327036367318349	2.358644479518628
536	6.3226904709447	6.369885905395855	6.711081011040768	7.343091469344998	10.795587512416613	10.00203034736693	9.556073164654974	7.004731637435603	7.548705081954536	12.196918456754569	11.464432687424718	11.14086434412544	6.978150826955837	7.97977016341625	14.37659927553119	13.259258236787263	11.521667451379336	6.132337077870608	8.518132188271615	13.046819653949596	14.999866447724681	10.714894267686262	4.111752499689624	7.873769740252478	11.159608812767079	15.424560507931728	7.965496043121478	1.974834317943405	10.987359972869934	11.848902672415939	4.442450035323199	5.793989166890138	5.475358949188743	2.228931659793021
