time	FP1	FPZ	FP2	F7	F3	FZ	F4	F8	FT7	FC3	FCZ	FC4	FT8	T7	C3	CZ	C4	T8	TP7	CP3	CPZ	CP4	TP8	P7	P3	PZ	P4	P8	PO3	POZ	PO4	O1	OZ	O2
-200	0.8477608540111904	0.9378429031535671	0.8052327016527434	-0.009722432097087702	0.8116416314613915	0.6943220478647727	0.6006089433764915	-0.8273872116180183	-0.2331271314695542	0.7271519284963017	0.39176595112117657	0.2848276190719103	-0.410327552713107	0.5566965923559203	0.6974930149588175	-0.00995599848498582	-0.1397737410115843	-0.47539755581992393	0.6510189755215573	0.720495520203171	-0.3290554574764811	-0.19520278225729004	0.07275991123426	0.5839304313221957	0.9462751126240075	-0.5158682452528862	-0.6888642889750488	0.220175071994885	1.072843310508494	0.0027886792015657433	0.30035456939205296	0.9210385060898235	0.5986218437339864	0.6196282490344965
-196	0.8980749822830547	0.8655738808712766	0.7849144319744278	0.0923323628955453	0.9320934987376935	0.8102302530813184	0.752883015162294	-0.6773329360073365	-0.13219381835463534	0.8881576038824955	0.42499583852278333	0.2742870443094754	-0.4492024171932045	0.6552998407031625	0.8753619767976444	0.009439112594734091	-0.07561816256028031	-0.5973001107394292	0.7177655678747058	0.8496068694598683	-0.27875491906359123	-0.06635623408491946	0.19186973523334894	0.5426630364068545	1.0346614096268059	-0.37359052802177095	-0.33322620307714174	0.3208275429254925	1.0258649561730626	0.16887369709293726	0.6496573074151013	0.7326263766865205	0.5566204176200897	0.9184289551435005
-192	1.0155786250222751	0.9455373263328405	0.9526125764637504	0.4096021343856996	1.078339216370778	1.0522626611845398	1.0359116766524576	-0.22347064259851823	0.22074392382202393	1.0356487009603728	0.6366413815637165	0.4287919987342988	-0.26825967363339365	0.6890981776005569	0.9949608420047195	0.206271498874585	0.09532130485548629	-0.5427643643027169	0.714904306514132	0.9214888787846093	-0.11414482415705968	0.09588446443906352	0.24260364411614527	0.3679319610843057	1.0312483284662946	-0.2219261074423531	-0.13480097021401208	0.26523482732564674	0.7887628058546347	0.15235398671308334	0.6844324452286087	0.3723880341187858	0.3208544246202183	0.7747148851862143
-188	1.163673755568781	1.1570886344306217	1.2594629494339924	0.8319251516318907	1.2457494704265624	1.3886269295918934	1.4088854754162947	0.37960535192015915	0.7237105947342383	1.1698542803792267	1.0139330599934708	0.7760083655792194	0.09914650743009523	0.6764965636339598	1.0739511224334926	0.5788381681133117	0.3751052310533013	-0.2786787741300829	0.6731940490892278	0.9765412186762856	0.1875040526424425	0.3118802003138813	0.2654588215801471	0.15328690370959117	1.0023928855383542	-0.004502933926687415	-0.02687798247405837	0.12760880557267043	0.5384632335419393	0.09385225153115803	0.5247781263453507	0.08614303149885649	0.07869834432998087	0.36080121902925005
-184	1.2987600532166126	1.428629037111137	1.5971504409520187	1.2130984037289079	1.4196302854935368	1.7397899583760073	1.7848744347331271	0.9342707371965521	1.2122393815905739	1.2831397024183426	1.471903558829577	1.2600243059770697	0.5581482038711152	0.6673355681736907	1.12970959855004	1.0540497276396836	0.7329473476978257	0.16675686794140615	0.6514728648903759	1.0430875990281392	0.5908943399769463	0.5826224670005468	0.30390617174667245	-0.004109014280942007	0.9988189314420003	0.29440629407938845	0.07908879200517686	0.007796453758016509	0.4182181347778409	0.11385938496453159	0.3420695355838825	0.04575592640410973	-0.009749833469808856	-0.05774880186044295
-180	1.379159447048963	1.66087424335766	1.8379132701247296	1.4301404916895353	1.5695428808639453	2.0032789656605905	2.0554904885847995	1.280158278094205	1.5292897185815415	1.3535447086492784	1.8804088783472115	1.7481573775977404	0.9899204944413038	0.7111446839497715	1.1615556449173905	1.5049582681806313	1.1044203015100076	0.7076445800081079	0.7019255739609931	1.1162538500259682	1.0077308390923818	0.8766602255622195	0.38316124580919164	-0.04024223228069564	1.0314106915182528	0.632311640573519	0.24148379205293258	-0.008865273535220696	0.4733905482261142	0.24951676961367542	0.26613101295990443	0.26539260081996885	0.10838853540473194	-0.2619883411468621
-176	1.37542724262113	1.7662788584937605	1.8878561210652254	1.4318071567625368	1.6541376072128642	2.0929124302475204	2.1306436008065552	1.3532010282683713	1.5938662250331865	1.351597544118672	2.1132438129476534	2.0781037754997524	1.294427630017407	0.8272368887042743	1.1490547628002095	1.794758792160564	1.4040695393398919	1.2276910512445554	0.8397930243270226	1.1572332352984818	1.3270505633227982	1.1328160734186008	0.501201687977904	0.058554362357838806	1.0696141692812953	0.9221526957117968	0.4577935624485372	0.1159962040237538	0.6434482319798805	0.44380366690165923	0.32629337824456306	0.6104698761785908	0.3619447043340565	-0.18295888556540935
-172	1.2803225484947913	1.706032748683404	1.7274404720561736	1.252664086040208	1.63480591361238	1.973150248314173	1.975354904909559	1.1961740225155344	1.4314286672691687	1.2554511992228685	2.0958321041598267	2.124557251334617	1.4180746042688268	0.9924803947186541	1.0657445165429573	1.8282474233244876	1.5491911133753506	1.617041464537663	1.0332350704809319	1.1132682533767069	1.456774111884438	1.279021021474762	0.6329867823831853	0.2618497007434646	1.0613094541457075	1.0698534223248197	0.6683804971986098	0.3600232592076058	0.8082829693414227	0.5873072132541303	0.4519614267859243	0.8871830083382337	0.6047644003858059	0.08251636454491251
-168	1.1124777765796914	1.504477616326376	1.4169392549980118	0.9860417221923382	1.4912009201547574	1.6714001851798395	1.6242866475103985	0.9188975072548969	1.150874969437765	1.0650649043849443	1.8308137609034574	1.8532922221122687	1.358406182674175	1.1519542903426325	0.899680194967448	1.5887448747577257	1.487523909627847	1.8020722820560398	1.2175002067344571	0.9486490464101283	1.358792778399212	1.2607147661804046	0.7442234139726095	0.5159261809674617	0.9630610918525621	1.0175820563374074	0.7916645387689089	0.65181624724806	0.860159633372129	0.5866848811596017	0.5284952507980936	0.9576250886581262	0.7015685421396899	0.34624951990446
-164	0.91201883324196	1.2348250119504207	1.065244195155976	0.7332811337077252	1.2324014870999722	1.2637501923125722	1.1674405306904965	0.6346042736243712	0.8827114678984735	0.8075069764730511	1.392731186211475	1.3367307152377503	1.1503562898202389	1.2448247639698515	0.6675913317037762	1.1443818778709063	1.218305703901918	1.7563888982297289	1.3242500986997419	0.6685951335239041	1.0615928146262543	1.0651060315897354	0.803167639135069	0.7631995658679062	0.7624422292533021	0.7699437718025693	0.769244013274673	0.8990974999615949	0.7551687340743698	0.41572803153934634	0.4707196641004723	0.8055958131477983	0.5944899901639435	0.4423842716968841
-160	0.7263907771844417	0.9822996829981422	0.7776166777051331	0.5565847144379593	0.8982828236788617	0.8432219007183593	0.7144722920498906	0.40881338612337825	0.7128702384116625	0.5307257758092466	0.8979987479425795	0.7242584210229858	0.8471497275898513	1.2300189702450255	0.4140357066668338	0.6225462540167533	0.7981682995671552	1.4945629797394697	1.3095287051517046	0.32335993565934845	0.647670744214398	0.7307084184317805	0.7867361287280987	0.9526681279925409	0.4824146318176799	0.39252623816568954	0.5979393109483867	1.0223363612112681	0.5215638862793082	0.12449362842599447	0.27262657811951485	0.5224422799271453	0.32017129578817227	0.3166180245035033
-156	0.5924314841571778	0.8046771863648392	0.6096677168712289	0.45911145094351613	0.5511838779838523	0.4877112495506604	0.3550164988614362	0.24510556397543673	0.6470132453795406	0.2908734969901481	0.46647360803132804	0.18359667016405695	0.5055171834580363	1.1005508871902483	0.19844679484332273	0.16632901090112742	0.3294815412785822	1.0600644323287827	1.1687136858996845	-0.006809392461124959	0.2258133137485331	0.33991420183192367	0.684542833030454	1.0440250608787995	0.17197181241008935	-0.01191028204533455	0.3362004450416021	0.9839024518921058	0.2322099948027108	-0.19017736565735288	0.00979648434877614	0.23668450057354115	-0.019426261957117	0.046415608259076424
-152	0.5228490220220657	0.7101571541976262	0.5503433928899965	0.40133792060613444	0.26106887989887834	0.24208064316188405	0.13422761823620397	0.11169292004518908	0.6240758284071176	0.1391906138720577	0.1903348411284519	-0.15770430823087084	0.17935320689695392	0.8839628078077287	0.07741995136264651	-0.10818893435104429	-0.06577335281455196	0.5180321322713487	0.9358668303703177	-0.2373089635341151	-0.09849972998068983	-0.002464288606605928	0.5025628196425583	1.0144582961219055	-0.1081251424801345	-0.33557757650527187	0.08330206551977741	0.8009668568415836	-0.03397780648236004	-0.43048831711800123	-0.2029581809880147	0.039174161752500845	-0.3101403705396027	-0.21252451783405554
-148	0.5034155832932068	0.6643724424754529	0.5412691817923012	0.33861428413729916	0.08688360430715976	0.11723247885908007	0.04947404550935976	-0.017619676843503636	0.5631591663447308	0.11027280213409786	0.11581097514000133	-0.24951939221803893	-0.08453531541938898	0.6299574359247692	0.0878093016910874	-0.14206506276025482	-0.2829801731117614	-0.047346752017406665	0.6687436682983094	-0.3057833902268115	-0.2480197542604375	-0.20149505087524608	0.2647866302003898	0.8692129828442055	-0.2988053254689625	-0.4960162031048267	-0.06252349897334604	0.5352959619358612	-0.2190135562850795	-0.5356463776416109	-0.27477303077942455	-0.05133099468503602	-0.47196757674266154	-0.31963750639323396
-144	0.5028135763824952	0.6193932279207406	0.5181403743059876	0.25574254925055234	0.05995061233404804	0.10121588383392437	0.06598628295689385	-0.13581199909730085	0.41587126150038	0.21417394226359932	0.23901697932932517	-0.12221245436807132	-0.2551060610529253	0.39447405834738675	0.23718134998997317	0.05732995629737347	-0.2691865556596332	-0.5408143387491685	0.4294722069387582	-0.18896697413895497	-0.18800637078501886	-0.20247544297119763	0.011379531555949524	0.6506847126745008	-0.3515605023567951	-0.4541010845163468	-0.04517565656223485	0.2660415463883225	-0.2917229525830199	-0.4948226498985353	-0.1855096961344544	-0.06997199338889709	-0.47936835764019037	-0.226782291555039
-140	0.4899793254879272	0.5456105456882007	0.4491280902013572	0.1780409212385697	0.17349205867356982	0.17206010178993997	0.14053191209121307	-0.2045202995143442	0.19647493908868052	0.431606172425619	0.512636481421324	0.13985542917704272	-0.3240261069699987	0.22649395408666603	0.5021943437294871	0.42719992887404534	-0.041365936294067214	-0.8706333019209723	0.26848891309662104	0.09457788592540217	0.07058048230471156	-0.008193061666366758	-0.2089519197433669	0.43663903960613426	-0.23410242736839032	-0.21693411414688935	0.1279104795802782	0.05733061567375463	-0.23750770032045568	-0.33427256261353194	0.008097695166289484	-0.055056698481314566	-0.35184881002284574	0.00189074174954958
-136	0.4498181033698574	0.447653650107271	0.34779077680517073	0.15093198380510586	0.38214665554838656	0.3031764022802075	0.2369065278747689	-0.18601573956731982	-0.02857650995490222	0.7137356978516161	0.8582623579290737	0.4346548009865712	-0.308045714315872	0.15810261626857677	0.8326617458301653	0.8711762406288606	0.3167836062062713	-0.9730454658736797	0.21365696137844523	0.49181008214758115	0.4747169005806298	0.3210956446170153	-0.353801309169146	0.3173261574839695	0.0607217548744633	0.16864512818196192	0.3916203071720356	-0.06443091465656815	-0.052392527328773524	-0.09531349664704042	0.2094671422915046	-0.011512809403975954	-0.1330811825014886	0.23688542783057168
-132	0.3879964341858084	0.35595601707233626	0.2565293305596011	0.2048913831306177	0.6149100645752784	0.46390476705728395	0.3314155033804041	-0.07695966194511128	-0.17727251306122663	0.9910312865985335	1.1854506701103573	0.6760405284979347	-0.24051214693857972	0.1980849797492884	1.1614347666980913	1.2867873874600975	0.6838173252960797	-0.837542710573854	0.26534739069702085	0.9285925007263606	0.9408542490093065	0.6884011012816686	-0.40304285186098515	0.3570688953921278	0.5041194545415822	0.6289858206127386	0.6547653062501663	-0.1126942259208234	0.25123444136131473	0.18233425869206266	0.3396055391797336	0.08757058508936466	0.12698756126290622	0.36484619882975217
-128	0.32208478369456556	0.30120557470568504	0.213870882448004	0.32913944042075755	0.7989518622253942	0.6208925231516353	0.41229826107834017	0.08071166256554027	-0.19433803807307196	1.1920398443643512	1.416226383448298	0.8153323510565654	-0.153637989967593	0.32920432007643174	1.419319626085752	1.5925170142974574	0.9467992162641944	-0.5170263634979482	0.39740866322317153	1.3258877959154556	1.375255938872478	0.9958239768635327	-0.36634418275846525	0.5585674033367621	1.0258772347298553	1.0817091437685806	0.8437956550275187	-0.12201205610226182	0.633176086734514	0.46681305648246685	0.3825286021111429	0.2678593390377705	0.3828552355636874	0.3564316025317984
-124	0.2696494751321125	0.2920984320418345	0.22867271246396245	0.47231635332068417	0.8886197782969171	0.7457947116142112	0.4780518698543601	0.22055473867998449	-0.0741561723863401	1.270456191670031	1.5106762609487876	0.8486145713361529	-0.06043113380314314	0.512063621181834	1.5552463492227946	1.7490639642424852	1.0465837690632573	-0.11307169468465234	0.5654342756300634	1.6174000460797264	1.7004762845021812	1.181504961845478	-0.27575835515971886	0.8518571236083923	1.523635502783134	1.4560623132183272	0.9369918084329681	-0.11890665411730436	1.0208538744901576	0.731088576855198	0.3919685771105789	0.5157380687090255	0.5955075606569799	0.28032264042651545
-120	0.2400479012627575	0.31085386793808506	0.27766331960193075	0.5714868888731438	0.8859701730294062	0.8275435546008695	0.5380432592159122	0.29321271107077473	0.14508843385304726	1.2276166646480635	1.482309933734639	0.8115890601648323	0.05149392398111819	0.6958261710718822	1.5541851481298927	1.7675610736089316	1.0007188294894191	0.26103252106565716	0.7203427534989973	1.7638652280143197	1.878098959949418	1.2402925460018632	-0.16662976103674354	1.1189693184257896	1.887675518992012	1.708570952870111	0.9697725748373263	-0.10071374450528187	1.3224570717801354	0.947102782719269	0.4531543243411248	0.7661758045879614	0.7343478184279324	0.2548132234338832
-116	0.23498988092221051	0.32871779716468097	0.3254507771858231	0.5895923361197598	0.8405109026668849	0.8798477031428253	0.6117562040142409	0.2992556087567813	0.4054995466961675	1.1160483332113016	1.3922324145452538	0.763865409353011	0.20777071959967405	0.8331179001754796	1.4435996972829954	1.7000936226836894	0.8916628338235969	0.5248187171083403	0.8230053761684185	1.7604107812304388	1.9173815201987499	1.2186410396325777	-0.05617590979459753	1.2455910412811493	2.034358973135222	1.8292505694935248	1.0095225547098066	-0.03548097601515547	1.4583529197112624	1.0858797999622745	0.6224849804420789	0.9309303737024832	0.7838725427863845	0.36717933323662705
-112	0.2549932592629727	0.3284473708920178	0.3501949003437939	0.5363029824067989	0.823078570672018	0.9342141127841583	0.7203199845247507	0.2892134182303776	0.6540243609128341	1.0155105565181135	1.318985697277181	0.7645782212980802	0.4223008145160683	0.8931476451258478	1.2809598413551206	1.6129469830798	0.8225859382841931	0.6558961255679899	0.8538917281526633	1.6328766304751612	1.8631344986606007	1.1843609779973248	0.06459485723160895	1.174104926006007	1.9341641615672054	1.835035915510107	1.1120871277388198	0.11540675879189698	1.3949022257872925	1.1244776220541555	0.8818687774327666	0.9475708579935084	0.7497191410209595	0.6117268785290855
-108	0.3048208050184416	0.3184152237482334	0.35836663751722353	0.4608682680415129	0.8866834618116324	1.0202546093930989	0.8727520086188092	0.33033177173183415	0.8526588060785972	0.9917420719856854	1.317164656174601	0.8473770597044507	0.6764333231060128	0.8667734243443528	1.1269830436863186	1.5537830551972531	0.8626548626100613	0.6861718875726973	0.8128603676300369	1.4246549570354161	1.7676274731830437	1.18679773507888	0.21943360511691237	0.9281979179789438	1.6204224783993662	1.7530485347356601	1.28328632984412	0.36364033726434575	1.1583420008977943	1.0536125871760045	1.134835121150625	0.8114814141766398	0.6557141525879502	0.8801873900125428
-104	0.3896422972378359	0.32559752382088963	0.37663248086252515	0.41910481347128103	1.0315848562898466	1.1410547466079444	1.0521279546876874	0.4597090471105254	0.9756687854929109	1.0564248535186966	1.384427424750201	1.0027587388470618	0.9167468524675412	0.7615619878614815	1.0144160960335111	1.5270725450107845	1.0091630194934291	0.6732575280357533	0.709866223927212	1.1777052849599297	1.6600617128421333	1.2282870976908042	0.42300170553221256	0.5944784268628863	1.1730635136551206	1.602643128163493	1.4674730263853188	0.671115694735802	0.8211596587429638	0.8821462966581401	1.2503720490358021	0.5746743068491051	0.5329564796343337	1.0151371930241833
-100	0.5034260737106608	0.37116488720643814	0.4256889213304817	0.43577095756181716	1.194650527798922	1.2588193384813327	1.2094075649244447	0.6537743790332773	1.0009275649548954	1.151493546439682	1.4557788335284914	1.175345656288519	1.0746166678953741	0.5907810911521589	0.9292438602828216	1.4906908236060574	1.1859266728023317	0.6617584807854278	0.5529974089012095	0.9171327925414874	1.5310211142986057	1.2623505560474904	0.6584906561438674	0.27220815351424804	0.6860308033788701	1.3873128855964927	1.571468349303908	0.9545450186471344	0.4677827942481917	0.6364421828413801	1.134734031673341	0.3125393978811104	0.4047985066684117	0.8987661577421251
-96	0.617453394761423	0.44635140783150606	0.49618381136551193	0.4888648974473754	1.2743927208196382	1.3040002551534555	1.2757029501177828	0.8373840430098625	0.9094755030558154	1.1731469601575955	1.4333664142659244	1.2831972805050502	1.1005443306793394	0.3653582623317247	0.819115636664842	1.379103657101594	1.2825436559720935	0.6609958393574521	0.343317567435361	0.6487855894874621	1.3431003059809459	1.2221174209256807	0.8741978980881201	0.021335789879933006	0.23567937255007024	1.102733132439255	1.5137466154027055	1.1187702389127423	0.15989658196133594	0.35546263962645364	0.7899398783766873	0.0831317974018258	0.2765600972345684	0.5223134146854663
-92	0.6799949986455739	0.5060883151628321	0.5440238700482857	0.5246774541005792	1.179352280500205	1.2053730457390743	1.189532157755692	0.927304027123504	0.6947321874244367	1.0241298649680315	1.2359077899246766	1.2509223191149792	0.9919779871691108	0.09209308750027921	0.6237712486730843	1.1397057742907934	1.2112743823940966	0.6490134580438631	0.07814241926014497	0.36760049965554664	1.059479114718566	1.0596617433496966	1.0018458341099867	-0.16372545022158932	-0.13832972908857907	0.7527752499648122	1.2676312891426782	1.1004464598528654	-0.08248892405664332	0.08042612651546467	0.3193678847832732	-0.09679679548143404	0.13492685522345987	-0.0049576111944021894
-88	0.6352718456441702	0.48794141288587944	0.5091971742171778	0.492691783853195	0.8773646332523966	0.9262571907499569	0.9235301590490783	0.8793723561019418	0.3717015972289631	0.6691113693510005	0.8410541393979962	1.0396209928967548	0.7941291908241486	-0.21859306041841198	0.3133284739689772	0.7622948269671447	0.9487444734461726	0.593453226975338	-0.2364627712955365	0.0722008569205813	0.672916887491722	0.771965084511089	0.9865686272508224	-0.33801951919090956	-0.4318507898871596	0.3619095673960501	0.8730272032630423	0.8966083503974144	-0.27385961940287024	-0.15583439131969837	-0.12470871178612343	-0.24313281415112514	-0.038972183963608784	-0.513059316770293
-84	0.4529706824310355	0.3474749615956257	0.35027906210200427	0.3802911927635356	0.41957464708253683	0.48935612912605153	0.5013622628905235	0.7146586161689881	-0.016299605328415324	0.16322050947464947	0.29972168727542575	0.6635376794274811	0.5751900658390444	-0.5407536612209404	-0.08607856907569467	0.2872896783251088	0.5441027865977691	0.4748730051449025	-0.5719642028673001	-0.22330817523843188	0.21850568000939186	0.4012122144106205	0.8149405101228013	-0.5578308687431323	-0.6595903022325522	-0.02518537634212898	0.412611960323001	0.5650096521417556	-0.43864112981676245	-0.3363880804628813	-0.42145049465584944	-0.3747934391572684	-0.25216400559656243	-0.8604549743862453
-80	0.1519247736671394	0.08909762628233238	0.07401627283482487	0.2223670328009658	-0.07797454277855892	-0.025415692414249895	-0.006081032551373077	0.5060617314913294	-0.40262928503425527	-0.3671482196121329	-0.2862486832067349	0.18449184251935608	0.39106264611692504	-0.8299162962940976	-0.49844047301333305	-0.21266858226011393	0.08999891556428612	0.2981746785265087	-0.8763872362898374	-0.4908347117429392	-0.23963329135474667	0.009312976128191784	0.523672579396848	-0.8338355400967635	-0.837820468217806	-0.3604359617669886	-0.03410164630743914	0.19422192822534265	-0.5905005320899095	-0.46384322526170874	-0.5458390102910479	-0.4923619615521631	-0.4890781628658433	-1.0039645408078235
-76	-0.19663634846632475	-0.2278023356408273	-0.2599260502451628	0.07865641991306782	-0.4867883014309661	-0.511774419446114	-0.506132661018433	0.331555037853471	-0.7163203936611304	-0.7829930166502994	-0.8112232664607693	-0.3140990428146879	0.2576731734922753	-1.0333088610309775	-0.833402929586076	-0.6675676686598601	-0.32677662290085946	0.08218371847384151	-1.0889791222734801	-0.7024918180849297	-0.6406953318632348	-0.3574688127552386	0.18208919419568736	-1.1140062780864524	-0.9764527057790177	-0.617128430238928	-0.43151131163369844	-0.14035885000554466	-0.7284762244905778	-0.5588358626561527	-0.5788073525120406	-0.5813736304863658	-0.7143955212676137	-1.0088003848355311
-72	-0.4936519252711353	-0.5122497068823529	-0.5611025080819485	-0.003310361868725918	-0.723555086216412	-0.8782743789433064	-0.9142739153666986	0.22904641868459943	-0.9028387642954109	-0.9972081755256569	-1.2075781791716171	-0.7550501208315662	0.15223459860989966	-1.108709094109348	-1.0285100910922265	-1.0367035839609442	-0.6605436785233275	-0.15641201993075832	-1.1633771628571277	-0.845026014101866	-0.9541940664995829	-0.6860523206555798	-0.1364969160686856	-1.3050148454142607	-1.0785638066717247	-0.8020754436269623	-0.792754767323743	-0.4047847677978257	-0.8450115301732222	-0.648018894943652	-0.6490623338524556	-0.6313608868871071	-0.8852918721735749	-0.9903768872051967
-68	-0.65591519905427	-0.6836215836431315	-0.7468975167490612	-0.017679410010643513	-0.7835438231712781	-1.0798404189503008	-1.1753926247484834	0.17966708495554864	-0.9359599328252218	-1.0111131642562667	-1.4605575763066483	-1.0841495963381027	0.041422635212266655	-1.0433163616542094	-1.075706002380539	-1.3130255904425585	-0.9093402601171614	-0.4078432013228187	-1.0883964272676272	-0.925528762387996	-1.1852762669201848	-0.9856882070450679	-0.3807063987179927	-1.321704861164969	-1.1444061965659134	-0.9460921859696537	-1.1475067109700117	-0.6057167037929779	-0.9375015473538003	-0.7466532569153883	-0.8427189567270145	-0.6550686938913071	-0.966725287380878	-1.027780291823439
-64	-0.6555402262349347	-0.7091571670747541	-0.777890322628606	-0.0022243182118702794	-0.7332679014766184	-1.126595732705546	-1.2711659637782242	0.129466429025889	-0.8199735263149283	-0.9047699547812578	-1.5935895402728377	-1.273237463597518	-0.08662185796087007	-0.8614904858773138	-1.0184433434522373	-1.5067269764052307	-1.0898493500850037	-0.6595051868000279	-0.8941866136863045	-0.9650051569416479	-1.3568335737303914	-1.2588554588959753	-0.5324974046614327	-1.1351065607022466	-1.174536821260959	-1.0779347392523533	-1.4965975246790961	-0.7657061199883172	-1.0120468114096712	-0.8455805757154561	-1.136713025084177	-0.6875672323033662	-0.9433751678490722	-1.1051132651084168
-60	-0.5327037559411241	-0.6169949754396129	-0.6729393584427455	-0.011893874935578972	-0.6680672151864614	-1.0690063211154106	-1.2160214155013132	0.03321613735514984	-0.5849251732363406	-0.7876492122791077	-1.6384282070755247	-1.3152847256831315	-0.20729093201276588	-0.6139143689868194	-0.9218937731355462	-1.6221495825820174	-1.205635425384713	-0.8781501628639081	-0.6375699027176833	-0.9833368038146155	-1.481347437933236	-1.4760704003260148	-0.600285170946889	-0.7905091623374997	-1.1684001654689575	-1.197860237911973	-1.7849166348215215	-0.8929755069121711	-1.0742284032402876	-0.9103316641712075	-1.3976547682760705	-0.7601906638025964	-0.8235298970411177	-1.1186957331069614
-56	-0.37553101683217927	-0.4802953886780415	-0.49934986107637525	-0.0821366755080713	-0.6607429368503086	-0.9722220873128312	-1.0508143875294438	-0.10962549569347141	-0.28006336022239714	-0.7402405124094842	-1.614455457425967	-1.2228239743830642	-0.27318879892993925	-0.35759258179980224	-0.8369886854020655	-1.6488932329508974	-1.236054417350454	-1.00197243437517	-0.37851753735343235	-0.9874675845010552	-1.545975919634994	-1.5788207014276792	-0.6039804204950545	-0.3885780265057359	-1.1231859894051337	-1.2723066774670557	-1.9186483573156075	-0.9687184070924901	-1.1165196867409952	-0.8977991915923753	-1.4555318318811656	-0.8685078002936483	-0.6352829321080704	-0.9491199231026649
-52	-0.2769982509772061	-0.38266056679434246	-0.3452478936538608	-0.20705024845777054	-0.731963990270804	-0.8953468180939282	-0.8392324426443254	-0.2523309880084791	0.029861682950562653	-0.7821046094221652	-1.53218364328737	-1.0338909599903843	-0.24761617121168228	-0.1388835605452725	-0.7825686315805701	-1.5766491850147049	-1.1558636397742907	-0.9578906273499302	-0.16200715262518148	-0.973123428748849	-1.5240130386021882	-1.5140124521177325	-0.5637636766505166	-0.041226949438672805	-1.0379043791315574	-1.2565110890135887	-1.820610876255145	-0.9613718366192477	-1.115604278608846	-0.7844713310462863	-1.2107799022622885	-0.9608410572588629	-0.42086487902240977	-0.553747533353814
-48	-0.29399847910086485	-0.3854986717504796	-0.2887763075690209	-0.34720224054414445	-0.8570483305273536	-0.8832169748895373	-0.6624283177817224	-0.33373224651000716	0.2689343684082252	-0.8820483662270214	-1.4150270187891556	-0.8178096989011103	-0.13850644195873074	0.011754496924704214	-0.7551692109115268	-1.4234404527965392	-0.9716632341648281	-0.7046513539643345	-0.014323245697813645	-0.93981683016961	-1.4066925013312552	-1.2805446354006635	-0.49954438083410857	0.17199510292497652	-0.9234633422424537	-1.1337208719240068	-1.4914348087802654	-0.8582337476996537	-1.0484211418384648	-0.592457829410102	-0.7129833084225159	-0.9664647554792226	-0.2327532613361445	-0.021710682605527058
-44	-0.43251272926804146	-0.5139691816704922	-0.37735521698092445	-0.4641229498589334	-1.0012569402210927	-0.9678696369530315	-0.6056463703123206	-0.3261311642042164	0.36081865338780283	-0.9990465615798227	-1.3176481690517983	-0.6680471284212228	-0.008624924325028779	0.07168451678535692	-0.7560690026267843	-1.2536479203043867	-0.7458248715643915	-0.2750765078275323	0.045850157621971414	-0.907278058622429	-1.231179711094451	-0.9545530056695142	-0.43495836744164584	0.22519215884573585	-0.8108751157315152	-0.9431050992042767	-1.0331556770942913	-0.6885988098878895	-0.9148118472844383	-0.39055177470784497	-0.1546193208366974	-0.84435796524491	-0.12196742712459893	0.45384731774185627
-40	-0.660605726958382	-0.7612660508009189	-0.620303212030229	-0.5574858770600433	-1.1558957070730989	-1.1693513363878816	-0.7331091743079823	-0.2669554942066784	0.24873490568780826	-1.122443553951686	-1.3187828030668778	-0.674381194796222	0.046356949838184947	0.016541860955912664	-0.8113519528885145	-1.1651729315903867	-0.5841871485265951	0.2094003850895247	-0.004726809437559838	-0.9176656580644341	-1.07971024240644	-0.6696992499609359	-0.3980409790956749	0.13919550145291695	-0.7477087359624062	-0.772735474542866	-0.6129142626546582	-0.5194364176987115	-0.7502852659356068	-0.2650969021779847	0.2229041749571643	-0.6207565053526013	-0.1216381561665298	0.675275502884174
-36	-0.9382434463654464	-1.1014158697930447	-0.9907952522058189	-0.6766193492018872	-1.3492914404181346	-1.4880191050153908	-1.0564384433776712	-0.2489653819474116	-0.08111059645201475	-1.2828648057973326	-1.4842371903139406	-0.8813235737483827	-0.05978321641490929	-0.17813023879854015	-0.9670745109937353	-1.2447050778434448	-0.586793361612819	0.5702614173796559	-0.19279220651588624	-1.0181176636740068	-1.0435345146535366	-0.5565227852121941	-0.41393747821249194	-0.0436704492956513	-0.7804577330911792	-0.7164093237909107	-0.382771550642634	-0.4238227297095983	-0.6168065651579536	-0.27424159576794893	0.2571691864196494	-0.3876188387621097	-0.2307438099519051	0.5520426020989633
-32	-1.2407951323653403	-1.4982688389143783	-1.4325203859401185	-0.8942281581236081	-1.622904892638704	-1.8907360982842116	-1.51482486342397	-0.3717753579766864	-0.5856355413909803	-1.5242851934095454	-1.8192094518507242	-1.2554774252665035	-0.36272123364422976	-0.5200970159750893	-1.2569792238924726	-1.5133981666502283	-0.788688538467432	0.6422910674091327	-0.5301199542012791	-1.229677554840614	-1.168910619645525	-0.6723691208076191	-0.49060594911686883	-0.28381326722968364	-0.9277870035588996	-0.8163878897082278	-0.39926555651949347	-0.4393539417618317	-0.5714106545326686	-0.4086037863905548	-0.04390195373537442	-0.255585133384098	-0.40443146126681156	0.15912452299950958
-28	-1.5594989021982029	-1.9047192287039247	-1.86850559239704	-1.2543201414864664	-1.9867805192377066	-2.3031475485826944	-1.9844897935354824	-0.6816732270196327	-1.1679813832358228	-1.8551384163748805	-2.2421200218813055	-1.685934658562333	-0.8259534218915663	-0.9769749020705765	-1.6611707168600243	-1.8971738767408581	-1.1293522091008692	0.3532531848571754	-0.9873681043491762	-1.5202298125985563	-1.418404814000049	-0.9642580723259194	-0.608626244915698	-0.5532131777147518	-1.1586674422574461	-1.027314898758208	-0.591543494161556	-0.5438783155061118	-0.628425298534686	-0.5831738695679718	-0.5018456565584315	-0.284640549894755	-0.5599082694222439	-0.2943827800470839
-24	-1.879968161604855	-2.2571706714862505	-2.2129990998662055	-1.7247987942063978	-2.3860359131652915	-2.62057804399708	-2.321297401289556	-1.1335755558004115	-1.7021207766473823	-2.2150998059613656	-2.6035563880036783	-2.0261948057516594	-1.350232597756762	-1.4641538821447364	-2.088252539130745	-2.2462747040302395	-1.4744687043156544	-0.22973763884715329	-1.4801292382063922	-1.80357229254267	-1.676942225037063	-1.2907404867009102	-0.7254135590358164	-0.828737793260574	-1.3931288684004124	-1.229376432175969	-0.8011065105239398	-0.6667610390041513	-0.7423570733401146	-0.6737114770092166	-0.8641976692315323	-0.4397370506151582	-0.6067600234924923	-0.5755674824488093
-20	-2.156542534151811	-2.4774255690014493	-2.388333553006292	-2.184615606514405	-2.702525370450339	-2.739583723780848	-2.420513862220699	-1.5968538482403654	-2.0685684628712386	-2.4815926489164655	-2.7472150256414634	-2.1608848517220247	-1.8063015892200445	-1.8589465571199657	-2.396358483940011	-2.399634116790017	-1.6822627740348604	-0.9169446802830512	-1.8832087469238217	-1.9688001821401582	-1.8049627496924798	-1.493706580205499	-0.7933179120061591	-1.079298016684214	-1.5296066960816568	-1.2885917392621826	-0.8715532400061131	-0.7290481310557537	-0.8263337591289178	-0.5808529243109226	-0.9414237117840528	-0.6048942789064435	-0.4902837264080266	-0.5533968792294857
-16	-2.305418723961482	-2.4900205072478485	-2.3450710714260663	-2.460904830441476	-2.797450296968489	-2.598713391418616	-2.2633185329514416	-1.9061728667770368	-2.1885495130596486	-2.51890444119592	-2.583379500542413	-2.062420839824626	-2.075209373956767	-2.041504139514277	-2.4492218432578374	-2.2627096119019536	-1.6779433446481828	-1.470837350946527	-2.073409790526252	-1.9284402083345866	-1.7122119621916678	-1.4812356196199197	-0.7840629200213164	-1.2594001261385577	-1.4885187111466367	-1.1328477830895414	-0.7372143249972333	-0.6894270164249525	-0.7974007109536757	-0.28795078324096596	-0.7084355932469251	-0.6480435116618821	-0.22475077155112727	-0.26844811371737526
-12	-2.2294635716416535	-2.2523226681110393	-2.08012222718533	-2.404388660082456	-2.576039069347567	-2.2090682927624825	-1.9254966925644306	-1.9342405747216145	-2.0441405721553254	-2.245703214697576	-2.135095829341457	-1.804926033231391	-2.0837092346988566	-1.946218128058989	-2.1809601728688492	-1.8568831635323406	-1.4927080831987427	-1.7040364699256267	-1.983293766736439	-1.6616873699196328	-1.4102510178246512	-1.2742291656747873	-0.7054522615741594	-1.3184323277564833	-1.251177546203263	-0.799287972816434	-0.45844060066826287	-0.5683544263795267	-0.6238743647082854	0.12097362398360675	-0.3123060456974039	-0.4993685173301428	0.10284983340760742	0.09323799586597609
-8	-1.8690934134023307	-1.783873672749875	-1.6444339710679299	-1.9658865879016036	-2.0406970926260555	-1.6574814277763212	-1.5412905177303196	-1.6494831997233947	-1.6767519670114202	-1.6838871198101781	-1.5302431544769615	-1.5247547587999004	-1.8247349216167421	-1.5964353044258093	-1.6344759422997366	-1.3118997779148833	-1.2433726756174996	-1.5537111719958354	-1.6370948511752654	-1.229264256234785	-1.0114419434760176	-0.9898176168246812	-0.5989714249747116	-1.221606013074799	-0.8730357267272236	-0.4224438656631681	-0.18238195730892373	-0.4340609599121733	-0.34693509252693566	0.4970848249759843	0.01743041347036812	-0.1967537696162358	0.36714917328644686	0.30796325129003344
-4	-1.2518136469707	-1.1764105528693873	-1.1343888015716737	-1.235718485573348	-1.3035740819443875	-1.0784884664009187	-1.241459247315751	-1.135112878794577	-1.1716786593419055	-0.960783836800023	-0.9435464119930795	-1.3492473329811123	-1.36435317648698	-1.0996123524559844	-0.950918254835643	-0.8046318272302797	-1.064936396771133	-1.1020870180915212	-1.1449451417626118	-0.7499210815569487	-0.6726196987336223	-0.7723458985855975	-0.5209361897667633	-0.9683486198772373	-0.46154960873422013	-0.16552618104151345	-0.05327789099474155	-0.36129763631200856	-0.058547656835318505	0.7019605618873879	0.10310530636505033	0.137691422949291	0.4665168512010034	0.24251908002658368
0	-0.5112875687088178	-0.5755912647020147	-0.6685348732281884	-0.4239698935771772	-0.5527929053655015	-0.609005390060157	-1.0998671027071112	-0.5612717852726833	-0.6372441633348083	-0.26464357905329	-0.5217802511392965	-1.33504318853913	-0.8315221050249371	-0.6055707916229361	-0.31642189542036503	-0.47901549814401095	-1.0369317505405684	-0.5346127138945259	-0.6587349159775403	-0.35261842519424247	-0.5157229887339354	-0.7139757853601651	-0.5178805576600676	-0.6006892308328012	-0.13175821271055538	-0.1337535526951798	-0.1276313808318221	-0.38920497796022296	0.14856877885501768	0.680051086616166	-0.08012891540562317	0.37020575906745656	0.3776149740221998	-0.07105109822692807
4	0.14549100362284387	-0.13587668503788003	-0.3549446752646632	0.21436817889927073	0.014427556619874942	-0.3446401944995876	-1.114987251327689	-0.12335874854175573	-0.18494442058599297	0.2259778076665367	-0.33085787212761586	-1.45031427970928	-0.38913547894459033	-0.246032609914449	0.10854573520434954	-0.38994330069319166	-1.1479015321360069	-0.05818251878234635	-0.3095168463521816	-0.12835146454353555	-0.5706650004284111	-0.812395868634475	-0.6107854231672352	-0.19492231260200757	0.03780210753671904	-0.3202946476002235	-0.34734031470341803	-0.5044811951298108	0.22755241336591508	0.48550024506062195	-0.3984816958380314	0.42993521581820443	0.170102670359297	-0.45856439951514877
8	0.5159169422475448	0.036101091561962104	-0.25743630463453593	0.4817462849375009	0.26433595948238087	-0.3133296064572251	-1.2296782700963496	0.032055377879273025	0.09394104009990739	0.4081552912420747	-0.3469860246957676	-1.6066365201440722	-0.18281060411074374	-0.08405739047762534	0.24665638742160978	-0.4956241833571287	-1.3146409955211826	0.18167898013021763	-0.15651194711747196	-0.10120803837257561	-0.7695088367107414	-0.9853972767746537	-0.7915781716388474	0.1627275492612792	0.030595388186218046	-0.6136216505770665	-0.5825360402658407	-0.6564912779445696	0.19782458195808336	0.25101852353616105	-0.64574211672827	0.3467810741252249	-0.025721849808720568	-0.706132112150751
12	0.4914440798272619	-0.07392335664443522	-0.3717907955796443	0.3212599448199238	0.1730571980875477	-0.47466409086549216	-1.371377583856025	-0.13698409463152725	0.15391370615246666	0.28628402876099746	-0.4895035314122089	-1.7173536972555905	-0.2813587777663525	-0.09822973584170018	0.12289270727601419	-0.6968474966575299	-1.4403122627133536	0.14707265757144913	-0.17306566194708442	-0.23050805868125246	-0.9932680700973723	-1.1290353508100432	-1.0287376616254045	0.40388479726863424	-0.11228605331443206	-0.8634521939412086	-0.7155337911660156	-0.790591118723859	0.12367747692830683	0.11186709226736362	-0.6697962863223852	0.22250333372206182	-0.08919470734726519	-0.6830509287754927
16	0.11661143571499147	-0.37681403661005264	-0.6229780300624161	-0.16009415645710634	-0.1705188895927127	-0.741313634431311	-1.488041158733902	-0.5551711902906797	0.01220301256228089	-0.03980147456014593	-0.6707719547502502	-1.7464038089528757	-0.6388452036940777	-0.2095706159545734	-0.15810695250647322	-0.8960809685017732	-1.4748396836237998	-0.09683273708214285	-0.27660581399699574	-0.438636123026614	-1.1421993942033208	-1.1822085350706304	-1.2767907348821872	0.495346932352656	-0.32210898318028325	-0.9678848957420555	-0.7129387837529811	-0.8770334102422159	0.06272210909981679	0.12473879723049786	-0.4655415702033284	0.1512128110882561	0.0161416977236428	-0.4171380986172377
20	-0.418540148870427	-0.712839959252193	-0.8888035990209402	-0.7377041559667608	-0.6041746124272425	-1.0119334433755947	-1.5604739149749771	-1.0609853240882374	-0.24940140482400394	-0.4201787699581325	-0.8332790711345454	-1.7179669098394914	-1.0991609068775954	-0.3308391562692036	-0.46087464573848774	-1.0406528685045011	-1.4391331636333837	-0.42457699668500415	-0.3805755069183964	-0.6464520676503972	-1.186805364473392	-1.1565766305332938	-1.4827858172173243	0.4434851098784614	-0.5377602563632331	-0.9290805435565493	-0.6389362199864199	-0.9158287025217392	0.022037733290583904	0.23178628028523351	-0.17762187078453434	0.147816910966558	0.21174742227975835	-0.07924440483113133
24	-0.8570899345693018	-0.9173443294252612	-1.0449817154250294	-1.1678541869241934	-0.9581006145129438	-1.2046619623286992	-1.5917023380147242	-1.4725627861991286	-0.5085363971268662	-0.7135910969837561	-0.9593750810243135	-1.6862338738783498	-1.4555073939768695	-0.4112409044850167	-0.6713721139169784	-1.1308557958661771	-1.401696916855953	-0.7117832881122828	-0.4396733034477319	-0.7997162917927085	-1.1720218628856558	-1.1174674005905312	-1.5928078849632268	0.2851103835060108	-0.7272299509761156	-0.8456521608936506	-0.6044830068585317	-0.9196838713314333	-0.04871292772511234	0.29170510099195474	-0.014861644208162102	0.13276354935028248	0.33803224478253696	0.11076387735058185
28	-0.9945109461470907	-0.8950445033363907	-1.019537923146129	-1.2953679528910094	-1.1207326622323728	-1.2837949958813488	-1.592131253037445	-1.6632676082579283	-0.6522741897327131	-0.8371432998502225	-1.0597046586938266	-1.6927914576706924	-1.5457036456183475	-0.45431381349301303	-0.7331497650709718	-1.1980409591944756	-1.428453918665229	-0.883913812789847	-0.4655964958833503	-0.8792218543742639	-1.1771852940402219	-1.133417007445709	-1.5642588099086583	0.06938843411569696	-0.8880861975182349	-0.84728103662196	-0.6865701658080808	-0.8912217594533726	-0.22229522410535396	0.1621227707345926	-0.1251369264542699	-0.01718298713994957	0.23699536859758233	0.004629414516920174
32	-0.7830783108967576	-0.6702271682983786	-0.8337932207990798	-1.1200449438426905	-1.0807974311243982	-1.2737497059134246	-1.5769147833111534	-1.6136244494706067	-0.6307597144414203	-0.7922965864205114	-1.1575875253061323	-1.743811245330271	-1.3377140726647718	-0.5012390004854392	-0.6595361812152328	-1.2749999729390766	-1.5417892893965408	-0.9361298656670474	-0.5066322075450344	-0.8972303844687198	-1.261393543873393	-1.2310204474840132	-1.3858172858535647	-0.15967827995039724	-1.0324461434046766	-1.0121411059574679	-0.8725725986384881	-0.8167790153862565	-0.5381888733627308	-0.21124477631163655	-0.5048373328814446	-0.38245448373555185	-0.15661016067065264	-0.39307364722192467
36	-0.3680020263440623	-0.387514620040983	-0.6078920945078531	-0.7938138822540829	-0.9313682294218977	-1.2548900810983696	-1.5763258894222594	-1.418046947713721	-0.4885288166586579	-0.6627718789533403	-1.2821069923455717	-1.8207185222433375	-0.9559889411631727	-0.5965096339424137	-0.5245860205757246	-1.3800355161156599	-1.7141177610989045	-0.9209206677074	-0.6097688063485127	-0.88843577875896	-1.4296332561637775	-1.383974906288209	-1.0956213446611902	-0.3756821146063034	-1.1698939770725467	-1.3169611659178515	-1.066883918929607	-0.6824506503994753	-0.9609684323844264	-0.7480064611623075	-0.9934987400720706	-0.9319571829154364	-0.7637023906499618	-0.9235419607687141
40	-0.029719894676870875	-0.25604408914770976	-0.5191278444534884	-0.5470686541096597	-0.8310602882383834	-1.3369351591688137	-1.6425782400621782	-1.2388452260210812	-0.3496118179077508	-0.5834190830759586	-1.4683809243322454	-1.910680646840729	-0.6253731234973786	-0.7576421480123694	-0.4363600898692897	-1.5205860099548347	-1.8950853299932016	-0.9133118964024526	-0.7888315896145318	-0.8991248584934778	-1.6385369259473204	-1.5395029744380189	-0.7825914601594615	-0.5715161547536547	-1.2986842361086497	-1.6494983393031295	-1.1553839415943494	-0.4984620796970096	-1.3813724482945964	-1.2592052189506342	-1.3563069070904858	-1.5189127883709244	-1.38318180688683	-1.350815292762615
44	-0.051290340592111544	-0.4554463315432085	-0.7237732392157391	-0.5784292206465402	-0.935039994740081	-1.6148753125427049	-1.8377509070727716	-1.2284413545110935	-0.35813876896082253	-0.6884025913977843	-1.7552214816601055	-2.0300559946304606	-0.5566817507994087	-0.9648438071686484	-0.4996944057246295	-1.707473869781145	-2.050720209666179	-0.9718883013029318	-1.0153992150419542	-0.9752588843518254	-1.835614676609415	-1.6616351562509415	-0.5614479169975498	-0.7500351648467607	-1.4081658089370936	-1.877195591955483	-1.0874760123453293	-0.3116607062100501	-1.6624062019338093	-1.5368014535250396	-1.4102021420160589	-1.9461185883024652	-1.7803912117830205	-1.4769173823261348
48	-0.5718562588558843	-1.0443265411713123	-1.275528427718321	-0.9603692864966569	-1.3224055733671796	-2.122040027982818	-2.2001292649987962	-1.4560424052670227	-0.6022235735947354	-1.054696557243153	-2.170933717968626	-2.2182831708214925	-0.8336027243548586	-1.1738212078975925	-0.7770054320745048	-1.9624420354887306	-2.184625143257545	-1.113542196323403	-1.2350239722541787	-1.1481788129428019	-2.00343799085245	-1.7586250260774767	-0.5241509066699628	-0.9088361836375687	-1.4867993555677868	-1.9311454247355326	-0.9202056503904797	-0.18922504734901965	-1.7047177510136895	-1.461211200839605	-1.1232384414924037	-2.0631759114627344	-1.7980954601666663	-1.2347178427993852
52	-1.5022598467091726	-1.917740936205838	-2.083285088047706	-1.6066300828424527	-1.954826946091453	-2.8050730157602786	-2.7085738113682956	-1.8757991743412108	-1.0632417175151576	-1.6654881196887845	-2.7134513786472407	-2.5059461530358873	-1.3640813793074904	-1.3428281511735887	-1.262393352182331	-2.312013858679938	-2.3294575155572836	-1.3093374934517479	-1.398373719499536	-1.4226237499558887	-2.1811294500595837	-1.8772841644573957	-0.6895716768974571	-1.0294421885248708	-1.5303920468792345	-1.8575266552757113	-0.7942897061321235	-0.17835634901792471	-1.4974950514178578	-1.073293802412569	-0.6359779818690414	-1.843680377120057	-1.4365640842407612	-0.7175209504131652
56	-2.5535676414868216	-2.8431889939050117	-2.9398856088799925	-2.3207178057252236	-2.6908211640132143	-3.540626755358262	-3.2759334958336774	-2.358250373608368	-1.624853368471492	-2.4134032665355267	-3.3411643420740145	-2.8839878963136014	-1.9307150792013408	-1.456848140853062	-1.8816134882150808	-2.7728993822660697	-2.5199046071327253	-1.503036376019346	-1.488325592098052	-1.7723979905202425	-2.4496424136303108	-2.0705301709351334	-0.9836366747817233	-1.0781753035980595	-1.5444370469200683	-1.8045879556870785	-0.8541094043148335	-0.26822525195112273	-1.1239600153202327	-0.568924842828587	-0.19566646168898832	-1.3954429591233295	-0.8571760036761401	-0.1353059556644354
60	-3.3732354555794686	-3.564809551775478	-3.6158585457109225	-2.897624485329465	-3.3512163077621366	-4.190792549996658	-3.7853810691629244	-2.7660159994862075	-2.139105791413242	-3.144458285975801	-3.9853665728084002	-3.299756518615937	-2.3132572115668135	-1.5339728555097203	-2.5191295083340233	-3.3387954150780423	-2.767578594849694	-1.6427032906066013	-1.526916380841867	-2.146247619932198	-2.8864653037627908	-2.3588843286085988	-1.267488476414157	-1.0187102530508676	-1.537919279030335	-1.946108932350036	-1.1548937529969543	-0.3821787824518394	-0.7147748452260066	-0.21099847501888527	-0.03489129609001044	-0.8965865350974817	-0.30484175605102726	0.28094845939275465
64	-3.730098476529062	-3.9342212577672413	-3.98023556658051	-3.2316245951124167	-3.8117110632981075	-4.6762118221475575	-4.158977498044513	-3.035682908976873	-2.5157349046133457	-3.730912199137481	-4.586014736041054	-3.690566768865198	-2.4138741432280635	-1.616540308685657	-3.0690138262511186	-3.9814603228182626	-3.0582628172908355	-1.7093362765070947	-1.5647189577651626	-2.488644593631327	-3.5174548537138848	-2.7127368381674772	-1.4044557774370612	-0.8361243584503598	-1.5172842702704827	-2.3816566407154105	-1.612762327890752	-0.4094857861193918	-0.37814873361481577	-0.1987850064980856	-0.2538805895594373	-0.49973350637150343	0.01180307471007351	0.3828533282150594
68	-3.6538765338198926	-4.001550187498375	-4.084587086855378	-3.373267165250409	-4.0745816127900625	-5.02578924817536	-4.416816700274391	-3.2187697806154527	-2.7797827650459324	-4.136832226799155	-5.128532873556826	-4.032636155437469	-2.3127484263202955	-1.7525258020022996	-3.4849207313289843	-4.662823188453333	-3.37082146747216	-1.7284798578491427	-1.6590499836042703	-2.7641544272252827	-4.289988506930051	-3.065160505185408	-1.3323924507833713	-0.5582948312968925	-1.4826321564434812	-3.064321987044825	-2.029349560382366	-0.2618915432039913	-0.1420990821111745	-0.554864643603374	-0.7641076426287665	-0.25458097393610224	0.025083331327886	0.16983546273744354
72	-3.4487404736230896	-4.011826505068866	-4.15736817263964	-3.503264656758745	-4.274805535014038	-5.3671340806875705	-4.681474197012201	-3.4546034248869737	-3.0579035204930367	-4.436491478209336	-5.6518120622991495	-4.366003502313083	-2.217663997773129	-1.9745571563458992	-3.799252262060032	-5.3444857462415785	-3.697243919574658	-1.7583016112757421	-1.8497947407749686	-2.969165317668373	-5.078581797175372	-3.3428525840283703	-1.098904964533576	-0.25738179618702645	-1.4250487053178083	-3.793626537281755	-2.1789581720651876	0.07798090557437264	0.06291471405834159	-1.0850290032648986	-1.3156036105318747	-0.08917889721527843	-0.15452487727728925	-0.20547513611891283
76	-3.560156336378901	-4.298726547832062	-4.502167213517153	-3.8371782205977008	-4.611805904188829	-5.856183990951862	-5.115857588249472	-3.8896407982850696	-3.499107828842604	-4.772438514104316	-6.216809733907335	-4.773107039798428	-2.3401706159635856	-2.2875184955063093	-4.099795331140711	-5.987622722767227	-4.047335614476284	-1.8641093922280856	-2.144891018220535	-3.124638549545128	-5.723236069534593	-3.497882357349116	-0.8368920662731285	-0.026228409194291032	-1.3265795674209722	-4.285598267225558	-1.9178622912622942	0.5456021414333085	0.3702473035047601	-1.4406710826739955	-1.5992128808653296	0.1418347504134242	-0.2918304495596009	-0.4989290522853234
80	-4.349880684360625	-5.116449819998466	-5.340000615942843	-4.505695331641791	-5.232688413760167	-6.575966341582095	-5.818451389881355	-4.5851869467365045	-4.175607193894861	-5.266302572305671	-6.846884233354149	-5.314897523812619	-2.7725734640692608	-2.6647000245527965	-4.468749035043177	-6.541833861046934	-4.429709900162493	-2.089782709567556	-2.516206496561618	-3.250126592059722	-6.083007320304724	-3.522636881517574	-0.6906551701274486	0.06521704776510658	-1.1605458230281553	-4.292118061673209	-1.2634174791862762	1.0272874806216805	0.9109249091991591	-1.2643910614515792	-1.3843108380653149	0.5733749852009269	-0.14458075129245465	-0.48419690009893146
84	-5.884019836828848	-6.486310942485944	-6.67021511301162	-5.468141541980403	-6.123795493877282	-7.457410793549777	-6.733424646543438	-5.462226377047827	-5.016411291808656	-5.925472244561105	-7.474440555774848	-5.961796745506992	-3.4319922837392274	-3.0466837806074234	-4.913401114456427	-6.933912736552391	-4.820690142858224	-2.434892648271432	-2.8998083995085215	-3.332831612755453	-6.082593902489607	-3.4427997979026146	-0.7335503082828512	0.014875884130292021	-0.8925081468936672	-3.716732492599795	-0.4034098078556184	1.416737552880601	1.7472031072372958	-0.3583758762371404	-0.630003391105775	1.2550120322012723	0.41158261791265127	-0.059142146110226716
88	-7.842252234686301	-8.135706881009607	-8.22336004088352	-6.504974348810894	-7.073879700920688	-8.272363641834016	-7.636451225074062	-6.317894442819602	-5.815592751125145	-6.601774199030364	-7.935032824509425	-6.57092045078673	-4.103867997298641	-3.3458290015623593	-5.331442342649021	-7.0749592602441345	-5.149476038329389	-2.8480873036002863	-3.2027039447032566	-3.3147995388263705	-5.7375511978248666	-3.3006231701487834	-0.9262950396992937	-0.09123387164685007	-0.4873993980499829	-2.676195614733734	0.36607277300916574	1.6607273775133042	2.8348653244924336	1.1974494427012181	0.47605597852677295	2.121957535154657	1.3101522889437704	0.6943476778619614
92	-9.603630995345448	-9.566745733902929	-9.535245871311561	-7.29136608190235	-7.736274222868908	-8.710855462015994	-8.21252725435081	-6.90264843151658	-6.313914759907286	-7.031454068550996	-8.022525767098585	-6.932034951828128	-4.555021274510419	-3.4596831711204863	-5.536071763366513	-6.8902635400378385	-5.3146867617892255	-3.240105143949648	-3.318687192167385	-3.111678592455046	-5.150201784482342	-3.1399085442422927	-1.1411594123639055	-0.1027143222480527	0.07337886076520615	-1.4776756726150528	0.7473995666707367	1.7669391587469152	4.024456490846304	3.032596818896774	1.5690023859464868	3.015162221925411	2.304656738184597	1.524911042178107
96	-10.480975124600093	-10.23340031901178	-10.115206692906382	-7.518226604553459	-7.768208007273146	-8.510363557309784	-8.191387155832407	-7.01673410551443	-6.306762202552298	-6.944304925552032	-7.582338313986319	-6.862659437019154	-4.643074023921896	-3.2956564343214794	-5.334551320912656	-6.358503802458284	-5.226314531482559	-3.5051996619418477	-3.154580346726002	-2.6563072137524535	-4.475724685812919	-2.9964153690979862	-1.2361973492882645	0.13104470041091182	0.7707307915301965	-0.5136791454697475	0.5515974746129044	1.7746808484093761	5.101201044554787	4.597064483480198	2.2363214436336163	3.7397067452425965	3.063582412614319	2.1046905464439796
100	-9.999098752525699	-9.752128576452462	-9.635182356349773	-7.007669907997031	-6.982559186472296	-7.573744277905722	-7.471176128598031	-6.581102831437291	-5.723976120802256	-6.190561755763157	-6.593476278824264	-6.300880416220712	-4.363066662263124	-2.8029518056673677	-4.623398769149794	-5.535834298462327	-4.851077544362314	-3.5483128934919326	-2.662204974128798	-1.944830412722832	-3.8689756295750373	-2.892835132924565	-1.139026519760648	0.6835917813208191	1.5334202012447582	-0.11437828809947484	-0.23098045529222713	1.7089024739035146	5.846462711832118	5.357777581992932	2.1747431700158932	4.132108677921921	3.305133095979682	2.1623549406770532
104	-8.090953806476602	-8.05399606578622	-8.056148508712914	-5.774992451392446	-5.437942967990485	-6.016902431555608	-6.1647472225946895	-5.652799115214139	-4.645209300710939	-4.8213996765478395	-5.192186819318967	-5.341623769625269	-3.8127505683003657	-2.002739901254603	-3.4515354546188406	-4.545409191099629	-4.23316429976761	-3.3130788719453386	-1.8672198010031915	-1.059397098727562	-3.4303345593629193	-2.8335003781305232	-0.8922125078563277	1.496298309363079	2.2408912125277185	-0.41772726072703253	-1.4246592485698293	1.549605484864783	6.096288188801467	5.0011224620437895	1.3108891215606233	4.105685223703966	2.907088987640164	1.5983548124013096
108	-5.129349218769609	-5.4173560005742	-5.642985806523094	-4.02088974891195	-3.4235582265248032	-4.123835076410827	-4.545946109738409	-4.39023684346894	-3.2517278112329255	-3.0809495371279665	-3.621176710522935	-4.193058480166719	-3.1131787221509657	-0.9997733806163788	-2.01611375299696	-3.5312781244767137	-3.4755868823993032	-2.8053970266084596	-0.8785067178480543	-0.15002541206152223	-3.1692519107911328	-2.7963464189500358	-0.6336180551744076	2.3777220189144317	2.7505516936475654	-1.3093490567528052	-2.7249255111561133	1.2395570246871919	5.783815369308403	3.5626170545275953	-0.1595537658477758	3.6661896613065053	1.9516785095530762	0.5356461392230324
112	-1.7855656101921975	-2.3735914170419257	-2.869952194597329	-2.065317387134818	-1.34949874537214	-2.235716575699963	-2.9292604849291575	-2.995614282674228	-1.7553123191385138	-1.3146117892453164	-2.1328203624282565	-3.080353729100296	-2.345449203291567	0.03361947826003627	-0.5924551472010939	-2.601921313392328	-2.6955106190337235	-2.107484812183995	0.12997549739446915	0.6174257978109617	-3.0042486114945914	-2.7325067451152436	-0.5264325724662041	3.0649137419566608	2.9421942159756043	-2.4617288050487702	-3.8002409839050695	0.7223054748418508	4.956733691098732	1.42715072271515	-1.8379212571471095	2.902914755167793	0.6919577700310813	-0.7250490170292905
116	1.215068814070918	0.46904250861001673	-0.2643200152399437	-0.2523152821846204	0.4027585377061244	-0.6323514564761284	-1.5509060582104983	-1.6627192455273792	-0.3423622837959577	0.15964212973343223	-0.8995491243539179	-2.153989309594659	-1.5415910443485183	0.9026148296455551	0.566486297607693	-1.7970887377189517	-1.9819788882760137	-1.3721446956323473	0.9653549169963069	1.1210333080598607	-2.8039350438851	-2.582552903330755	-0.6805186850532483	3.3228683387785325	2.761054270449052	-3.4597835453420345	-4.403192985861766	-0.014972478113519538	3.7664594555174595	-0.8036133030629293	-3.2670957959658535	1.9637811134348737	-0.5431050644513928	-1.8249432994543506
120	3.3311107074558426	2.6105871134650536	1.7472645000212594	1.1374947996030773	1.5998171527525369	0.5398971424776805	-0.5099359737873035	-0.5487328753922316	0.845106420767465	1.1545169324336357	0.02342004323053148	-1.4527558051624054	-0.7260016184596857	1.448507066884253	1.3124067750220627	-1.0970945330577393	-1.3790858949174958	-0.7881066183219592	1.4738992415409082	1.3208998408346653	-2.4536149439852717	-2.307125800983539	-1.1068371506402583	3.0380082053729796	2.239796394415248	-3.9612488646631148	-4.44951628515277	-0.9200278497355636	2.4317340789434696	-2.5230855878070675	-4.093835820352535	1.0224966977053092	-1.4584244452848123	-2.48617481557665
124	4.3443603405940445	3.787864198657998	2.9391899034679305	1.9473800610013068	2.19880818765533	1.2710704771375352	0.21454252248479858	0.2397399687674641	1.7038960413828905	1.648223038326735	0.6716839654176558	-0.9331168508812585	0.03680514534956175	1.5982919891058749	1.6305466849167736	-0.46737572432772595	-0.8979362822750125	-0.5182382451324616	1.5884382684657752	1.2582936255157409	-1.9174095343817237	-1.9171466778989277	-1.7232863859536856	2.262310976038702	1.487350102484121	-3.8251342676862143	-4.0349259274653795	-1.8872032117880042	1.1834713190716535	-3.3282158290757007	-4.183954228328132	0.24336169598648477	-1.877559299496984	-2.60842179593512
128	4.3621945271029725	4.011338700657255	3.3117642319034917	2.165951961770877	2.3066267908987395	1.6356973606773901	0.6956984979230956	0.657122550735792	2.164865488308654	1.7436592534864774	1.1068085404108383	-0.5365247116848035	0.6325809343579343	1.38243019231811	1.6070688922361813	0.09073863900640348	-0.5422103391309284	-0.6280643924114823	1.3436498608043876	1.0177620623641748	-1.2660628525240185	-1.4829529486408524	-2.399658435485024	1.1863045662492537	0.6454877837096554	-3.155976525921696	-3.380814305352814	-2.79343938122239	0.1998921180685097	-3.1464686314297095	-3.645278921460618	-0.259350537598987	-1.7809356406070243	-2.2824573459219195
132	3.7114903833143242	3.5166654498004726	3.051180593416505	1.9124149035807352	2.0959794468413393	1.7297892526822625	0.9939487551389886	0.7309685331009235	2.2068779412818067	1.5895109136504448	1.3620772327366226	-0.2420847111788797	0.9453223323796784	0.9142919755740199	1.3654632533884743	0.5217927681146678	-0.3203616730231042	-1.0395611498335513	0.8540506341352333	0.6796772462850785	-0.6501936300074362	-1.1061362000194694	-3.008239500080096	0.0579704603579321	-0.16351155895435288	-2.2440752926435805	-2.726695053845737	-3.5334734827475383	-0.44451272375411705	-2.233526939475022	-2.7532825400457	-0.4542615700219993	-1.2893711295952979	-1.7224017338181628
136	2.792292587859807	2.6651227406924765	2.4520649848064453	1.3945463860588818	1.7289251045444907	1.6340411860218425	1.1342201204273852	0.5668743238442011	1.8845654678447739	1.3119075265186846	1.4333162271551503	-0.06998168659422921	0.9339809394143858	0.34369298728953096	1.0116503213136263	0.745559094454009	-0.2337774479447342	-1.5430198868894667	0.26761549643661	0.29124361203094645	-0.22886498214636122	-0.8640383460164499	-3.4522831352810153	-0.9126009918060114	-0.8726165868662213	-1.4315432273961377	-2.2177503052985457	-4.03600167209157	-0.7976255396732008	-1.0533130142321199	-1.8224574281456245	-0.40718078510477984	-0.6137503370048116	-1.1584310502368638
140	1.9546339462521574	1.8325273944364235	1.830578799394346	0.8491721131819743	1.3220194544792994	1.4153393471269902	1.1308571071683589	0.3306431165930323	1.3429710831113992	0.9885466073826997	1.3155668940707859	-0.03689583381635854	0.683464823427768	-0.1934159542207247	0.613435326457969	0.7181901913630137	-0.24913412269634472	-1.8690354776877554	-0.28266853022734006	-0.13062867489259114	-0.08792355634425277	-0.7552349548345481	-3.6649567988370837	-1.6191104609618827	-1.4731892310141363	-0.9661793088361139	-1.8398520900050885	-4.258787144398963	-1.0066521142339604	-0.09700856333320573	-1.087342259522791	-0.2699607901909884	0.005756434504310289	-0.7479494791220461
144	1.4305696451308347	1.3142650094228887	1.4449473582979646	0.47501855968707646	0.9522052383223838	1.1468809814107392	1.0270063851176294	0.19680607269189418	0.7905299047538292	0.6639345271513937	1.0505566570460858	-0.10422525528581053	0.38704189560446295	-0.6100440009927459	0.21323528832004635	0.4834167051031138	-0.28243198919514617	-1.798871751058261	-0.7115391474878991	-0.5733180031606655	-0.19269658576474674	-0.6832420808708047	-3.59671567962461	-2.069729322929953	-1.9883679101333571	-0.9101822949317775	-1.4380115234308324	-4.17780827421157	-1.257166978523041	0.285598277324588	-0.6437707527119458	-0.2377844446854491	0.35714068918657854	-0.5450265393801659
148	1.3209205832509947	1.2641653982670293	1.4373882972666343	0.38022136592235756	0.680024860572531	0.918769416873598	0.9111034847144553	0.2831108860974238	0.4299117315882222	0.3808466484467951	0.7451226096414209	-0.16378468233718532	0.261312454279138	-0.8746193625302627	-0.14571611546443097	0.176716759354744	-0.21598716025657236	-1.2649964062223897	-0.9866020058518123	-0.9997857187778162	-0.40114521879006215	-0.49631520980458754	-3.214568368425133	-2.3440656602805334	-2.4322996078116703	-1.139915463430584	-0.8136553147753992	-3.787954559299249	-1.6926959710300034	-0.016304057050310745	-0.4651756572899761	-0.48068874953024354	0.3031597427820348	-0.5285457359320909
152	1.6111198623034682	1.6740339952165246	1.8080410911687776	0.5612881765499551	0.5602253065270039	0.8207797387381246	0.8916601516145888	0.6025151595162406	0.3764787902863599	0.19570280562104836	0.539940296240389	-0.0795530004280962	0.44089883454586454	-0.9946387981098112	-0.4070503701423406	-0.027939546782763336	0.052234254645552675	-0.3867538859616354	-1.1123462887336488	-1.3411716188901732	-0.5332840667611921	-0.06790506822607816	-2.5222964223122335	-2.528099768931493	-2.781314127575635	-1.4290727340857248	0.14681228958256642	-3.119091502897756	-2.3499600827967795	-0.8741701223237248	-0.46919241429124836	-1.077756640574214	-0.18932832729699345	-0.6574358923525851
156	2.193028206056764	2.3922452866237354	2.42733549458873	0.9204457975036734	0.6249241813140638	0.9030761099903072	1.0444134447431754	1.0617331239597014	0.6079147442728106	0.1610573973165671	0.5422523008007444	0.2362249636646443	0.9151681042453613	-0.9964583490962756	-0.5174419866849176	-0.0035032257349258047	0.5511842952163646	0.5826327189994223	-1.1120830746229853	-1.5197873077168609	-0.46218430879250844	0.6238316281780893	-1.5888255794465478	-2.666548245373326	-2.975461952326548	-1.5689036806549879	1.3794947827796227	-2.2561621608991973	-3.138341895762972	-1.999720091539327	-0.5855504855631005	-1.9791846225359981	-1.0398768160314849	-0.9099517441663684
160	2.8888263629456725	3.177444211566958	3.0864536684312083	1.3167009320394192	0.8570227005301649	1.1438970536915274	1.3691645826103915	1.5140738449016962	0.9800207590155536	0.29227325246451935	0.7668931464860221	0.7636283020766931	1.5430927237651981	-0.9122969485137797	-0.45592841390893474	0.2643625729562059	1.209509846494621	1.372872349133928	-1.0175573800145328	-1.4853743277240945	-0.17466631487616388	1.4675340615414147	-0.5571953640221415	-2.7524895598536103	-2.9449810907396863	-1.4605287276586498	2.643092625620534	-1.3396133150610998	-3.868375530012954	-3.056801311404633	-0.7827745060231045	-3.0083289070470336	-2.0652568288158792	-1.279014464963853
164	3.4856803329200843	3.7743170166090714	3.5703833013036417	1.6259218413310381	1.1777365177937131	1.4483230077416513	1.7843410923730236	1.836879367959066	1.3036806550489768	0.5448361621452339	1.1232730121862862	1.3726477588329815	2.134084219312883	-0.7791663984653806	-0.25346380408189767	0.6698871238007935	1.878897304559524	1.8171499921696446	-0.8691579081525721	-1.2422484128105846	0.2295256996320283	2.2611591758859704	0.38374808333784616	-2.7523806025632362	-2.6465415887771093	-1.1387354106763001	3.616440048623883	-0.5346813784451337	-4.320340145647365	-3.7635247612347076	-1.0495845052922537	-3.911193360944278	-3.0204222126042697	-1.7376840070721202
168	3.788252344103795	3.992530335836578	3.730596771358126	1.7844110682258132	1.4675030671262097	1.6874920087170924	2.166769499076552	1.9907106110856942	1.4419238530947218	0.8253844955586216	1.4612896405519313	1.886074895865255	2.5492393906127395	-0.641741512585691	0.01703812550176932	1.0465002033514934	2.4015450416966915	1.9187914084627073	-0.7178370934482556	-0.8470340349746344	0.6000213607897792	2.808520548405383	1.0639706823189203	-2.6429440908461284	-2.0858039803295543	-0.7230456453188029	4.049813260344052	0.025573441694185135	-4.3227310071525595	-3.9525465865478786	-1.3512611355044093	-4.435574997193584	-3.6616382506429472	-2.204200977482413
172	3.6797068026145405	3.7626571560275477	3.5280067831611204	1.7956579878293755	1.615480538104226	1.7575840905637474	2.4102744995298764	2.022638315816181	1.37072205197444	1.034959790477798	1.649078126558524	2.1699087564996566	2.7575747897144285	-0.5494344220594667	0.27782481838654194	1.2578988043497457	2.683881514448826	1.8280239059071441	-0.6192010029418252	-0.37801566624569066	0.8215877393006599	3.0163955612319895	1.4033725226256482	-2.4331400333008815	-1.3151164021667108	-0.3336827150503239	3.890486945820165	0.29565384909370995	-3.8095273875376297	-3.5858597664897873	-1.603389020686329	-4.412610996549658	-3.817023029227079	-2.5448524887683464
176	3.167289249052924	3.1489622513422373	3.0300059242042185	1.7041680769809586	1.5735802610722578	1.6275135237611016	2.468371385064348	2.0148410746249295	1.1741464108386659	1.1227273912693898	1.6389472443209183	2.198482269458521	2.8225152421261535	-0.5384567366356752	0.49159860486845197	1.2702416149493814	2.736263268238084	1.7461150840543127	-0.6121148451609489	0.10761238607416819	0.8763290621566835	2.939405910700051	1.448640223660345	-2.156105751316	-0.4077442874150637	-0.021864606012335436	3.316771260470562	0.3399055293561307	-2.8337848114946733	-2.734842770347383	-1.6875762896845918	-3.80960678092427	-3.4379281910881323	-2.6213982039071184
180	2.3880231320170857	2.3173510969782303	2.369565242506803	1.5588642319422368	1.3825389111899058	1.3494836057924053	2.359875673058	2.0161330649018185	0.983752725024808	1.1157472105466566	1.483835574218458	2.0566210694840446	2.8407239842219045	-0.6060973986581972	0.6849294287554911	1.1639674872574926	2.6567699842133212	1.8168898775005016	-0.6910253149705693	0.601390360267524	0.8473486282889646	2.7471296717903604	1.3525075878328052	-1.8388906670872889	0.573398171407686	0.24678558048883426	2.6606392793237914	0.30625578683778615	-1.5402041634773862	-1.5464848240908013	-1.5046542844930442	-2.7383308341508323	-2.6131725245303032	-2.359688752892456
184	1.5607329567605168	1.4700256548960249	1.6872211652119167	1.387455221487857	1.1517479390629413	1.0272135708623455	2.1409933512992234	2.0023221919050718	0.8977169371827929	1.1032748194496063	1.296851035658566	1.8806067657673662	2.8744978832150028	-0.6964207274020155	0.9309698319772248	1.0796900960365567	2.5709741050659214	2.062600130595658	-0.7924755791683199	1.1369811267757	0.8636032321106881	2.633040421513833	1.3039816585043327	-1.4752839766448338	1.5914505679958286	0.5521409497625943	2.2593519630609435	0.36284732726993374	-0.11461445660263986	-0.20799167401729857	-1.0307092640603068	-1.418424483532775	-1.5368438920320127	-1.7944964125149254
188	0.9014562941679809	0.7738264779580801	1.0840988131808824	1.1970152824697702	1.0026274894195977	0.7618265132743268	1.868456955007026	1.8957395505726045	0.9319958067251534	1.18317949473157	1.1811007231456319	1.7773177578875818	2.922623150122307	-0.7111427169964989	1.2996783223717039	1.131354448323109	2.5640680725211014	2.3956930576874185	-0.80926304851299	1.75342988525197	1.019732115078317	2.716882937247586	1.4426686727339546	-1.0235714886571854	2.6278152399474357	0.9524774527343858	2.3123638571531755	0.6271448119542092	1.26644718327256	1.0858358117345412	-0.3400974563118229	-0.1101854738791418	-0.4415973115739015	-1.0617389652148745
192	0.5401095734311236	0.31205221931826876	0.6045979246133685	0.9922282670718908	1.0043605540667113	0.6040601715095626	1.5767317970521548	1.6279764134312587	1.0247827742452529	1.3988193238227518	1.1699753970171043	1.76835107356879	2.937949650022576	-0.5524926767705258	1.8022493078505757	1.335251685586028	2.64146923351953	2.6878397396890765	-0.6375120266077525	2.449236386791126	1.3154590096640149	2.9913849755102233	1.800737138016442	-0.43650689610900084	3.6570920851881166	1.4319025241939367	2.8113715577670813	1.1220138044639403	2.4687509474413196	2.1620683615456966	0.4201367784859943	0.9618943309340297	0.4743252980654442	-0.3396311989792446
196	0.47420859217126865	0.07343868147666782	0.2470461123904897	0.7913428525018682	1.1377118797188013	0.5379281030424968	1.2816641298360085	1.202606078926297	1.0851550074836356	1.7042765574341758	1.2125005691433202	1.792661423925503	2.8724672721819213	-0.17885905459069115	2.3640730321324854	1.5968631465649268	2.740076296564028	2.8493218349997576	-0.2353074842710943	3.1572439590849997	1.6503163534459615	3.3417186652690263	2.3015828074520015	0.2932217113721131	4.625283706431412	1.896377916316537	3.5743052869199605	1.7791300967120467	3.4123191747343316	2.899054043126149	1.094948885060532	1.66739093836379	1.099656459893007	0.23138561786406492
200	0.5794884547861694	-0.0256753898508806	-0.014517448805872447	0.6254941209259671	1.304587360903011	0.4984398769668868	0.9982506011555018	0.7148897033761988	1.0523600551738568	1.9788107822049108	1.207356211475034	1.758821244567582	2.714900486767361	0.35665348082141457	2.845472090212724	1.7608540013678697	2.7771177221754635	2.8699009346029514	0.338634966948984	3.7594277763817705	1.8755044889781853	3.6203761009363333	2.810277693328925	1.1028250428012667	5.450693593568644	2.220574373360874	4.35562752577678	2.4813105997381006	4.069581498361769	3.2506549276296774	1.5882103403047296	1.9928325364343409	1.4231492245029018	0.6026791914982482
204	0.6675797087980743	-0.102068327109608	-0.21633563881137186	0.514492331636365	1.3747719491581238	0.40715235368929376	0.7491149883430415	0.3040388814879298	0.9237776971382056	2.0817964024435542	1.0600347492157594	1.60611247610853	2.4899327692109607	0.9076045728656843	3.1003718297882803	1.6927223162829277	2.7008144787310258	2.797017328829934	0.929199931659733	4.135322560360096	1.8718715858882975	3.7288241292269815	3.203080646057286	1.8650858355163307	6.050800308209526	2.3170955122620787	4.965847479680458	3.11656903433723	4.45958756274575	3.256598941210251	1.8930586528666655	2.026970619806097	1.5103397331252353	0.8170136788721447
208	0.5641019926134075	-0.26589354805571885	-0.40353199737709944	0.4391131687998694	1.2463265625958206	0.206330254153024	0.5540230856259148	0.0686992628628021	0.7399582844171854	1.9205161284595735	0.7305610757502676	1.337047931156444	2.2287540379520387	1.2854297128648315	3.044247857990893	1.3478989567104076	2.5147244866776646	2.6790699891161256	1.340160843326624	4.220261563136368	1.6120227534602463	3.6614468005244123	3.4190382871136076	2.4329972205723602	6.38251016912741	2.188692802625327	5.339273916115577	3.615252247265798	4.640840995515669	3.0310289783245605	2.0720219559808055	1.9138740252811528	1.4596496783597217	0.9583512520435915
212	0.1713077868666456	-0.5948995336771612	-0.6360809190903086	0.33279442703147893	0.8897312857098822	-0.12402550099769107	0.40569373862835545	-0.001657798532867629	0.5439833388899408	1.496694799459124	0.24807666179489313	1.003440377562992	1.9372278403009255	1.3414856161580573	2.697509997233021	0.7934653142923165	2.2639632167877046	2.517321818671839	1.4194425308629683	4.043380250258975	1.175756570708563	3.4913868815964726	3.4681780250724277	2.7049097946539136	6.473633272992806	1.9354846428642256	5.524327741026778	3.9560489554660383	4.704555499596749	2.7313003471080357	2.2041664067885303	1.7996237232548489	1.3641229833494386	1.0875643464286635
216	-0.5080043064642996	-1.1238118381736952	-0.9853799318230679	0.10718996795771149	0.35848542957396096	-0.5657681212446075	0.25797510081962277	-0.029241461232982786	0.34991326839794124	0.9107692218673988	-0.3065831653483884	0.6665446741441629	1.5934644897284147	1.0430746052156108	2.1842846815274477	0.17823988154232764	2.0031194636315743	2.2652108612089927	1.1357722253734175	3.726536264547699	0.7174257617956992	3.319535247051108	3.4044408712263903	2.677675955687638	6.427282793983853	1.717602606251544	5.6229514933717715	4.151604641922991	4.763577926052956	2.5192871030144115	2.3417868555072343	1.7934858753699547	1.2970184055006728	1.2136745422238522
220	-1.383939620338591	-1.839579339151285	-1.5100095233940134	-0.29581385776220553	-0.23384492040244959	-1.0722203227628746	0.04182910536099589	-0.17769391789872468	0.14218661153180617	0.32298689999096347	-0.8360777476182631	0.3619052460593148	1.1774661511256945	0.5032512532879759	1.6868265824645	-0.3306772700544024	1.7694299176365007	1.873780126609187	0.6062343701315452	3.4419469746473217	0.40217250484017236	3.220384351229052	3.285058490088593	2.456999534125652	6.390319808084744	1.6899977879771233	5.72118519292234	4.227211464699631	4.928303229286967	2.5207798417343974	2.4946451124150055	1.949197883453077	1.3117148843072568	1.3068573441889058
224	-2.317591899742515	-2.680973046209709	-2.219236845135491	-0.8556943514200543	-0.7555749993321331	-1.5786695440489105	-0.2919557385226025	-0.5488838539570665	-0.09551510935748415	-0.10698664161373479	-1.257099625274615	0.0945776400562431	0.7106537800966408	-0.05445818216760389	1.3785513604644997	-0.6099693759776755	1.5789324005317062	1.3520165647703852	0.05755704626810406	3.349188319333419	0.34480133565633103	3.2175950922791854	3.144030324627394	2.218743080259418	6.499943239967394	1.9433513830711096	5.8541416974084335	4.209691037040009	5.27620886424233	2.7975890565811756	2.6497752599572992	2.2694864215772266	1.4479786121050087	1.3443508114251763
228	-3.1640880027994096	-3.5441477209255443	-3.0456492823953134	-1.4619950019164225	-1.0991535159016619	-2.0113050886872017	-0.7272376995799169	-1.1109100552167672	-0.34720149548608664	-0.27489602496360804	-1.5144112071902731	-0.13460116054406823	0.27482891013376043	-0.38447147510733626	1.3652380670410813	-0.6132509692921443	1.4448707067249769	0.798356471430236	-0.26474550299559857	3.5399536997111576	0.5779792651842668	3.299013844743911	2.994426004478986	2.1372120326442197	6.832888585959064	2.477578633728846	6.019253238739614	4.132004727421695	5.8244380803874805	3.3390245353319803	2.8093600202202804	2.720897190853784	1.730451341074756	1.3542696203372067
232	-3.80670045845236	-4.299180019968368	-3.849505176361866	-1.953194017247309	-1.2107970683999405	-2.299857849036557	-1.1694103449860602	-1.7040123896491983	-0.5552930221842931	-0.16164769191460981	-1.5827734430406244	-0.29911848827182175	-0.012295615828286255	-0.32145717658898765	1.655910368553298	-0.3696235408987605	1.3965618575122283	0.37650459909748246	-0.19886106202462697	4.011950482729685	1.0554070446070818	3.449647417895702	2.84821223493542	2.3146011770938157	7.379443150008834	3.2125310816718535	6.212198241761996	4.039403428369602	6.519816858996808	4.070583333228624	3.009762517959552	3.250353089709297	2.1555058901724946	1.4168132507792748
236	-4.177851666392857	-4.821143138157374	-4.461657512844284	-2.1876892988284222	-1.1004263134829821	-2.3950891434280788	-1.4780130349036298	-2.119812006366739	-0.6425104125013523	0.17050611929760182	-1.4641859494435445	-0.3395915320882467	-0.05372485132362254	0.15108343920709774	2.171007150890804	0.04350005079253957	1.4803737364586436	0.24323227940184297	0.2671310298850988	4.67950390587948	1.6809701877115246	3.6749715712269597	2.733377688182503	2.743289940583624	8.052639940911714	4.024998654693812	6.451447947426259	3.985556353996886	7.252075653839928	4.874431120963508	3.303740016225509	3.7933494948935382	2.6742453507616073	1.6184054572252593
240	-4.26860951299599	-5.0300731531938405	-4.7500195383308395	-2.1095828956747917	-0.8334472754416768	-2.287729257529703	-1.5330754479802478	-2.2074220124779425	-0.553715585264295	0.6075031742016755	-1.1869708269668708	-0.19060501408137542	0.17497087970903596	0.8958993531496011	2.778433077473046	0.5350527749857915	1.7374288991931257	0.470013140445411	0.9938871239364465	5.4110340935467045	2.345915073193955	3.9969503778633824	2.6921124390343683	3.3147604381794964	8.724861122991374	4.7918519852772254	6.770638448787129	4.0151867765142395	7.886683920975488	5.6167769290257885	3.7182767297327373	4.274501312907873	3.188850871618115	1.987890238511333
244	-4.123130311092782	-4.9203266973246835	-4.675915229435904	-1.7738989546811867	-0.506954370649232	-2.017805332811415	-1.2997541394796668	-1.9484256456773168	-0.2922851137887997	1.0256754134031554	-0.8046107271860825	0.17383865968206363	0.6100856646393388	1.6840677218833917	3.341213217882607	1.0277776692190757	2.1707968657045673	1.0053919528373008	1.7553360417870747	6.0752506102718185	2.9588398858707117	4.426143635065296	2.760072462742791	3.8691956899229925	9.273967719505404	5.421481595656557	7.183070164664784	4.140295971907597	8.30720136452438	6.177084430357731	4.214479912607752	4.613290775095725	3.574640503441331	2.456431621071666
248	-3.8201403521409616	-4.565106380380953	-4.311101902567662	-1.3181672062971919	-0.21722413544647298	-1.6641809898321605	-0.8509564378234653	-1.458908673417745	0.07592823337219963	1.3316820826287317	-0.38691255352562687	0.7095023375717769	1.1289586992370557	2.2939410151739317	3.7593085670925204	1.4732470475194224	2.7274112632555503	1.6937522845420458	2.337495082675663	6.578545076927147	3.46246503909442	4.933990942895654	2.9395825788667196	4.261355389326561	9.619594549687468	5.867079243152137	7.648165206672905	4.326512802644721	8.451127030970085	6.475085718973025	4.682134139637488	4.741981971212461	3.7246866132156993	2.8729641364995144
252	-3.4461076172607186	-4.0894327060448035	-3.8042271041190046	-0.895604131344774	-0.027943387557051353	-1.3148758378210048	-0.3325151792714113	-0.9212937331781074	0.4521897721794823	1.4878411255465407	-0.0007006449141545179	1.3100359406774627	1.6082628924773072	2.598314517136786	3.992739905767079	1.8551021767509486	3.310740224108836	2.341635459709887	2.6225280695506283	6.882038099079602	3.837392082062615	5.44881914670448	3.18848299175149	4.412268150633776	9.737039541456378	6.123849853313179	8.06953046668694	4.502727974013784	8.325191476783646	6.4894923999974425	4.979872690979276	4.63141297124748	3.5975394158133263	3.0719883364364797
256	-3.066380731470169	-3.6203269867091623	-3.3130011474887477	-0.6089018567924436	0.0509320086444975	-1.0304287646027022	0.1108863797964472	-0.4926888632256084	0.7486396413021579	1.5174128970935834	0.3140696577248879	1.8538893414421211	1.9744380662659387	2.60128855048499	4.062746514553342	2.183979982584125	3.8207430743074084	2.795189135169999	2.6209311419118375	6.997674447512014	4.096860875276538	5.882205948283623	3.435295096307182	4.327079762024392	9.648883795218989	6.21714590410302	8.332342126790007	4.593049514618264	7.994442442737116	6.260826571869934	5.00136231113376	4.30948304041965	3.239272824692106	2.9569909497944473
260	-2.7049310139074	-3.2372379221246117	-2.936973802780777	-0.47731256364475516	0.06455725415143121	-0.8193963745410253	0.40620025889837785	-0.24126651822211365	0.9216844416236235	1.4897159300385725	0.5592373595423461	2.261998886119446	2.217497581605336	2.414438480003372	4.033973206825695	2.486055129450243	4.198252190480755	2.987835399713521	2.4440874991698482	6.970345956370074	4.274847019846697	6.170343860306389	3.611320963324918	4.078482617571473	9.404623961546134	6.18793438302809	8.360393503061957	4.552650917002976	7.553437213900596	5.8765911907599575	4.730628955341467	3.8619899652249985	2.7665245463141472	2.5497105057238545
264	-2.345166200438888	-2.9474825784653045	-2.68533491410336	-0.4495115864848738	0.08994325227678704	-0.6425621493328867	0.5761218652484655	-0.14064493739858303	0.9790809129791082	1.4879970512968794	0.7708268742173319	2.5275037224852435	2.367271417363058	2.1888754312564576	3.98273037858593	2.7847783495212344	4.443963993296671	2.9406642839573722	2.2360320034793175	6.853219014984883	4.407881248789383	6.302036269489278	3.681788912060578	3.767116298701226	9.058462120073917	6.077783092412641	8.156106928260348	4.387847412475217	7.09106014368737	5.441173539729154	4.252861489048934	3.4066467199146686	2.315980666989015	1.9786738107315627
268	-1.9561490963185224	-2.7010323933117744	-2.4951126512474433	-0.4498090434638744	0.194505437717501	-0.4461981940924978	0.7053094488456381	-0.11489646852810202	0.9606859659735489	1.5702216585569337	0.9891702507794101	2.699257843832002	2.4529321131764488	2.039262051202066	3.9617631335369383	3.080420486302276	4.601045596903984	2.727661841181553	2.1005830711735882	6.684424383453041	4.514669406936516	6.3150434334579035	3.6568598654926583	3.4782714755932087	8.652357079595328	5.91533182558036	7.797364692075021	4.149096001640018	6.661358816494674	5.03931044259923	3.712996235056128	3.0445921344182465	1.9820867726827847	1.4132589066110024
272	-1.5298477372645198	-2.435039990952945	-2.2855668010227115	-0.42514499914595716	0.3962936987408181	-0.2054362738906174	0.8712685682233845	-0.09592047309499754	0.9097094512859681	1.739544029612285	1.2234511344538075	2.8306596207677	2.4787719187142367	1.9975098321073461	3.9762682814342765	3.337764969981767	4.713361251375053	2.435509913971168	2.0602946229415666	6.47405527387675	4.582521427028879	6.263961776177204	3.5775763898169752	3.254678717979015	8.209272363917135	5.708910927664022	7.393537502695417	3.902755965869755	6.272288306612725	4.709888923197785	3.2475724138282556	2.8142528462882495	1.7775834753933197	0.9840677355716506
276	-1.110349771557293	-2.1257324165080416	-2.018692965179169	-0.3698691120346151	0.6439191086724173	0.045974396053111447	1.0827296944938483	-0.058318547757251246	0.8542863109000802	1.9354355286370546	1.43108844395765	2.927947036980203	2.430076831404319	2.0138995596584346	3.9794177908562562	3.489783755074641	4.786212909058552	2.138075584735545	2.0625550694843215	6.204717143605835	4.568412292390429	6.181004508625421	3.48865412784971	3.093564740953538	7.735692958374526	5.4486451011421755	7.028049928087179	3.7003409769093683	5.8985175937502525	4.4440750963542515	2.92941736435381	2.6794917515814913	1.6427491861829624	0.7371002417074212
280	-0.792971668625533	-1.816428537551105	-1.7306959585362964	-0.31924876490099036	0.8299663045909379	0.21898573581720082	1.2644340960049985	-0.017116315619646327	0.8051198104558238	2.0526730962426694	1.5277702769807635	2.934533111792676	2.3001744689088044	1.998616332730163	3.891337384889673	3.460372916068086	4.776482093195669	1.8919844579612355	2.0228650518843336	5.844707474257204	4.417033661180826	6.055889114349021	3.415261736830174	2.9636113568822244	7.228774052488846	5.117257582142423	6.722054941371948	3.5626854806596246	5.506767735883125	4.204422940129481	2.752690308296707	2.555376523241898	1.4920985661028083	0.6404070241971841
284	-0.6875674707219448	-1.6032654006533769	-1.5160257778038726	-0.32066583552462513	0.8348996022126073	0.20772656745916815	1.2984800305961648	0.001170938133099731	0.7646034340627564	1.9831165025233246	1.4270316326351895	2.764487259560868	2.11585354270791	1.8763639879536764	3.6353194621809535	3.199204436808039	4.619334209223533	1.7430298284392385	1.8769252252874644	5.369369493279582	4.0901412860601045	5.847459301490247	3.3584721003616154	2.8303716111248725	6.685254556943376	4.705688941518936	6.438598139719444	3.4859566600525653	5.079870688010741	3.9534761805854486	2.6595628194418657	2.3582954347197047	1.2705513206828523	0.629226504167734
288	-0.8627042748604553	-1.5862302740102903	-1.4749592505409175	-0.40564909474953137	0.5819032773585027	-0.056001264460556276	1.097882268041102	-0.014981655366146629	0.7320679407710299	1.6636011558492494	1.0894912453800973	2.366374963507899	1.936940784332412	1.6242432553291117	3.1766066471006886	2.713062994782865	4.2766222845822055	1.7261831716824558	1.6131259162229639	4.781987178173225	3.5940120129444244	5.520274625192285	3.311438075288104	2.676756375230365	6.110453113387286	4.22676037674911	6.12326811198164	3.462779513199461	4.631782520044155	3.6793498900025265	2.5889639789066097	2.0606152959296486	0.9931468938548498	0.6575027091592096
292	-1.2966790166541786	-1.809912915428578	-1.6537436205118936	-0.5747023210320789	0.07931125889065874	-0.5592381344027262	0.6683701259904451	-0.054281163823648504	0.7019091230790766	1.1116236420222165	0.5562728629372818	1.7779439642840111	1.8304544641056586	1.2796598640558516	2.5486376221206064	2.078373188493457	3.777851095198171	1.8557664109106484	1.2747503486873875	4.125869740559743	2.991180173951292	5.083245264570825	3.2812292492993107	2.510884755470928	5.525126443264752	3.7197527791522282	5.754116997496177	3.500540009243651	4.204498280400287	3.403266421308701	2.5152909692201795	1.7132083134312177	0.7401464562802661	0.7212598305611961
296	-1.8658524704554962	-2.225847000224393	-2.009143585854524	-0.7995366433938091	-0.5728244767031713	-1.2002546756958445	0.12088284610984303	-0.09582444256192625	0.6550491435678701	0.42868617068776727	-0.055305480817398334	1.1328794927604817	1.8363786889442169	0.9146528816972237	1.849459881881466	1.4230669700933196	3.2246365465765927	2.1116127914521376	0.9312900877327945	3.4771718891091683	2.3852069317678484	4.601377475565256	3.2970065987315227	2.3569457471468183	4.964158522470367	3.239223710464935	5.364156709479267	3.6193187145406873	3.84731649381124	3.1636059204336835	2.4509420333017125	1.4211313688637703	0.6087002142796775	0.8382235148247597
300	-2.3820235669077214	-2.6989753178164797	-2.4168653427139195	-1.0342028114910617	-1.2138202159753155	-1.8208832694810808	-0.37169229890440164	-0.1260519471562291	0.5569733963255583	-0.22928658069895433	-0.5926626905736778	0.6117306336216969	1.9474433611338984	0.5978279694722274	1.2105485170318546	0.884684202821624	2.754283182819663	2.435242885163248	0.6417444928179223	2.9206912443807242	1.884460563670234	4.172622193292046	3.3958659086320733	2.236313814239104	4.466620433974333	2.8332958149901706	5.023560511303545	3.8303692244143304	3.5885169415471654	2.986844770519855	2.4172642169957492	1.2816716400212314	0.6493771655853643	1.006229994140727
304	-2.666132204953844	-3.0595736426354265	-2.7213046482044394	-1.225464221721369	-1.6779625373437521	-2.263943428045689	-0.6494792087369621	-0.1401701118983399	0.3756749024443038	-0.7028855067626771	-0.924688932945231	0.36345752981928114	2.1184081977765334	0.367702781225723	0.7520099263278284	0.5649822340052282	2.4834871229412236	2.747192375876506	0.43289300690074833	2.520730489088648	1.564111705645724	3.885112752642205	3.5954854397595524	2.1530692523002286	4.063232888453482	2.525786870301468	4.796604621221037	4.111734856714815	3.4183704766752303	2.867202036294336	2.4106755195789127	1.3245040144858438	0.829596040538528	1.176328775296962
308	-2.622633927399482	-3.1738536277747538	-2.8008999753808	-1.3229155507065902	-1.8539878083150414	-2.431552403986653	-0.6350584014117684	-0.1314562257785633	0.1074380573898015	-0.8854482747610706	-0.9903288458616291	0.43711820134427387	2.29639005081228	0.22476878705496514	0.5389665351611519	0.49778964989867375	2.4590823588274247	2.97907351695366	0.2973271302822649	2.2963058890540697	1.4407093488558447	3.7765726947802563	3.8722937009320164	2.0875320381865197	3.7621440792466165	2.308009618654037	4.698782908974116	4.399409759858134	3.2877049363099387	2.763098232922529	2.388209813764051	1.4826136790036475	1.0398242447349257	1.2621120182597014
312	-2.277458423586518	-2.998402349531202	-2.6165091925364052	-1.289529201112843	-1.720985050624718	-2.316479438655236	-0.3597685685611236	-0.07877253721137771	-0.20256391116498215	-0.7590789179710526	-0.8151720145625245	0.7630121092605608	2.450892203818806	0.14281372689906593	0.5601514563723136	0.6444723589838256	2.642663233760656	3.1023476045483065	0.2085148388843325	2.2131106797609434	1.4711856804897148	3.81942390431257	4.160778511986499	2.00196337194443	3.539807310703959	2.1441488211856656	4.681638228994209	4.6058401945176115	3.122490159734268	2.611878626904786	2.284350389435206	1.609760280359574	1.138675806031675	1.1833801239653774
316	-1.7593823626920808	-2.5896911555710336	-2.217572921876142	-1.1112618418293434	-1.3463833298068857	-1.992294306493378	0.0657952277191293	0.05517429471986921	-0.45944100502364726	-0.39547160167982914	-0.48878267284011534	1.194628116452543	2.5850527221263233	0.0913964060621616	0.7387272696917472	0.9190025902433706	2.9373881742702093	3.1390516678711653	0.1427649255962793	2.199760193039279	1.5774284561385308	3.940448512619073	4.379158485800377	1.8598720980417012	3.346938363208118	1.9895178029374607	4.655971992181568	4.6585860134762385	2.8549587654512236	2.3590772092386048	2.048581595017038	1.5489658078186683	1.0203723881708777	0.9153557992712852
320	-1.2323099343658284	-2.0649335332234338	-1.7065993504352084	-0.8049032071772569	-0.8501882531635396	-1.5710794886023753	0.5148440586442965	0.3060347430131947	-0.5476367459775796	0.07749696056350189	-0.11771812260232263	1.5851560791048602	2.7234353950404904	0.054567959021841805	0.9689247583721816	1.2280008761873156	3.2392742552035765	3.1457724491804906	0.0937012878674843	2.1802937929419426	1.6825277762848627	4.0612873928529245	4.470105159917683	1.6461172062321372	3.1271026055539215	1.8110884382298704	4.538689125046038	4.539843547803134	2.451841348179813	1.9838048169594529	1.679424639276401	1.2085692852024401	0.6627683026746628	0.5109124170755487
324	-0.8117258528242465	-1.536359783108369	-1.1820256680209211	-0.41751405491320925	-0.3540875604749571	-1.1513586015242514	0.9058108902949871	0.6809925419780163	-0.38038849734588576	0.5271916972201469	0.22034931127228474	1.8557248068687002	2.890191309307583	0.034456938418177326	1.1593760222727472	1.504824038520936	3.4830334098615814	3.1802046218688265	0.06996629369475484	2.105058187892026	1.7382532314282881	4.13375662713651	4.431746948497194	1.3751918042748617	2.837847702490885	1.5964336354957598	4.292546738277352	4.3006391416687855	1.9239318322244483	1.503918286341216	1.2288658587901122	0.6039942487726075	0.1303923722789757	0.07615751753891048
328	-0.5076086508332796	-1.0539380285356565	-0.6891139728313825	-0.00879439709350368	0.06513337774521437	-0.7782257179639104	1.2335852353422228	1.146931406940092	0.0564710906212315	0.8667904712727156	0.5032707440067683	2.023237223285372	3.0969526689540174	0.044570591188196014	1.267209765095891	1.7273284153242787	3.663234224607424	3.274416438418684	0.08436998703636064	1.9696490714889061	1.7361302331960382	4.155233849524913	4.322443951184046	1.086711403964081	2.4693803724885584	1.3519991602141548	3.9411220451033344	4.040319909385355	1.320330497269208	0.9652453040548417	0.7762308101129595	-0.1466222103708576	-0.4602999079526921	-0.2865461997903801
332	-0.22224506679690212	-0.5873040542079652	-0.20568151720092656	0.37775650525086163	0.39905896682122355	-0.43390330562714047	1.5556626280608548	1.6438993174056444	0.6947817188841199	1.0846689912113643	0.762113628847485	2.1755905096438806	3.3497850810354035	0.10142724190376427	1.3096067872361632	1.914925808840204	3.8225231074144865	3.426197043351637	0.14566241167962393	1.814318890759251	1.7010905699696854	4.158794392576225	4.2343797576808	0.8303336480157611	2.053042168202187	1.0953389378549574	3.5540273099814113	3.860977163103532	0.7111127358602526	0.42281469595970195	0.3893450488750915	-0.871689913456238	-0.9950687860161352	-0.5323397503763998
336	0.19619239817199732	-0.05299432562322886	0.33438873206590586	0.7401642184643643	0.7006611806345651	-0.05908452704532588	1.947884197085544	2.1178896373682967	1.4108010494852499	1.2413449256073603	1.0553809377727361	2.4137587486360697	3.6649892237637594	0.21739594583460425	1.3494929041169668	2.110255474484739	4.018344392167888	3.6120452789664	0.2555573576197028	1.7043499903563537	1.6740496116334165	4.187828530228751	4.2499837768064435	0.6457599385170127	1.6537179905147048	0.846236703643487	3.2130410590112644	3.8191225432293465	0.1638170327580555	-0.07719165812315255	0.09504918730103186	-1.4205294811623481	-1.4088056051924973	-0.6920292359999866
340	0.8729510881318563	0.6298515780759153	0.9945564840955842	1.12198686316457	1.053450581751914	0.40907144443228177	2.457320207113734	2.5510547096694354	2.0756983704612697	1.4381223880698346	1.4363667928670527	2.7961440015768897	4.073419560638456	0.398740618414282	1.4650027714934843	2.3575150907122753	4.289711941378991	3.8125545882288394	0.4127513457844564	1.702297206395472	1.6946334796081806	4.272331703843526	4.404409874286428	0.549023924871935	1.3489885296141508	0.6224094017526945	2.9789886399397143	3.8998031517750373	-0.274132102035773	-0.5064824210730919	-0.12608107892628953	-1.7228746370686168	-1.7021353201806708	-0.8472297766275825
344	1.8400049163139067	1.4861217699676907	1.7906799271195928	1.5857756097810916	1.5284150800263157	0.9992750857873146	3.0729179304740497	2.9647014066231248	2.6052524977711244	1.7683943465407876	1.9260600756654251	3.309769622075764	4.5987567785503884	0.6471327526920135	1.7140350298521652	2.683156006714452	4.636346805310951	4.025583257048293	0.6191817506416114	1.8422085000256896	1.7880102350868434	4.415489662466462	4.670894134172702	0.5313814865047652	1.2010865181162298	0.43800517806093703	2.8725149558976213	4.025888432828773	-0.583825169519788	-0.8546011426329889	-0.31846046367350367	-1.8081709100847707	-1.9241698931750801	-1.0751002999818606
348	3.012991897605329	2.4628996786877817	2.673839085503844	2.1691605990003247	2.147272819819746	1.687089558156585	3.7295169736161013	3.3936612520366873	2.985700361343057	2.2727818431692484	2.502761834501446	3.8813121220823428	5.221799360442933	0.9590573882684628	2.10899686280884	3.085255615074248	5.0202054850668985	4.2627081763409675	0.8802303053566727	2.1163132137272576	1.9583173940806873	4.595774162133358	4.976535784554596	0.5698454961694632	1.2323323457122073	0.3021377019406516	2.8745522426509007	4.098165024900931	-0.7743921856402151	-1.1245276899556402	-0.5194110261201013	-1.780699248586442	-2.1361529773185244	-1.398470994279564
352	4.221815098593871	3.4490759285630386	3.5484607130106025	2.8478925156216524	2.8653001712936446	2.400287383695106	4.337563503758178	3.847026338401206	3.2638828672019926	2.9149062559920096	3.1075496595125895	4.4135851748614074	5.857497677319394	1.3212007250807316	2.6083872252412377	3.5301284700911886	5.381188855890122	4.532842624664071	1.1964637010884114	2.4755358633482616	2.184547657219533	4.7748350976553935	5.235199438228925	0.6416724308025707	1.411875840437126	0.2123147392872982	2.9354827329908404	4.042212952898641	-0.8778245426903223	-1.331928011392454	-0.7431443910909649	-1.7667970612741295	-2.378159755424557	-1.774932737637561
356	5.278092371012477	4.321451653060331	4.311549652658084	3.530950537349855	3.5811183362191654	3.0428876800005527	4.817058551070518	4.283298958454509	3.5081086070181215	3.588579884051889	3.6592521575093233	4.821730124697639	6.368246062412935	1.7063035921885796	3.1280040661992286	3.955296744850872	5.654143319159719	4.823213565093064	1.5533890684962826	2.842975847695833	2.418805354687171	4.90365027143295	5.380176053768656	0.7356754522823075	1.661721344567069	0.14655938707542296	2.986497871488138	3.8391034506190853	-0.9374550557309929	-1.5037319622221186	-0.9831117962811564	-1.8546340418720646	-2.649564497933906	-2.123695368173341
360	6.045514091487033	4.992020117553832	4.892250525520569	4.096203793674193	4.17027281661951	3.52608727518562	5.120625959819465	4.621583926930255	3.7648162746744402	4.154398907663007	4.073013772217849	5.052732931731601	6.618199808577517	2.074384684093737	3.567035904461507	4.279274452849435	5.781357750601229	5.093174921528177	1.9171459626431921	3.1345317284599696	2.589841836112645	4.9264783734871305	5.382180200339524	0.8535691478159534	1.8800864172197909	0.06022404864126478	2.9507543966180543	3.5268342405920596	-0.9955019329686243	-1.675312514843729	-1.2281198470579868	-2.0565698094896674	-2.9135427401415703	-2.3735287129557805
364	6.481614573326659	5.434613690960316	5.274075971639072	4.451092231956652	4.530305850988835	3.7956697844994967	5.240776048780031	4.788283335994243	4.0371413128967975	4.49114607630743	4.280545700709995	5.087759958773293	6.5471477343245335	2.3819558560314276	3.839275111995605	4.420909393592916	5.722667202806293	5.288171277999969	2.2413258495963233	3.2804236329225605	2.6176683836650705	4.789318549462088	5.250406728839945	1.000670072890116	1.9739441821805768	-0.1048862037394755	2.758239262292707	3.1772944846996602	-1.0830990048719442	-1.8830171775959974	-1.477827545249557	-2.3107104243112806	-3.118658773177779	-2.5008201535981454
368	6.639475328848508	5.6828346108963625	5.491315350973408	4.583215701929469	4.620263564842524	3.8463175199673265	5.201476083974469	4.7674693940912265	4.289091576237735	4.541760433174271	4.248464573624244	4.933766352594707	6.217329963245622	2.5961196357031184	3.899682750392895	4.325216282414839	5.46343515924082	5.3639950616830445	2.482993358065151	3.242907515921332	2.438704484504484	4.455364692883365	5.019942270956236	1.1723892659151238	1.8896290016149486	-0.39927479523941034	2.365198844660161	2.8620312141638364	-1.2141237228257455	-2.1524624770179472	-1.7452592805667884	-2.51652240117813	-3.224748841727066	-2.5356852944250363
372	6.6369533371251395	5.808059677718871	5.607720837740059	4.572050559898332	4.480484951151242	3.7219023610559807	5.045673357622228	4.623614299544758	4.472141731415227	4.337844837680807	3.993164529255387	4.618740070125912	5.802268967284273	2.707815640288667	3.7605345154231657	3.9900309938781664	5.024935709664331	5.310270296041098	2.6207573347681117	3.0282378120260653	2.0363130518046044	3.927696694948021	4.739516246273618	1.3461695875512607	1.631432529145189	-0.8389632680691993	1.7765482619254744	2.627652161639742	-1.3846368754714131	-2.487851375020659	-2.0432224222095234	-2.587223046446405	-3.2242932238235533	-2.535802119528501
376	6.6070160698972575	5.89121006431924	5.690691456732239	4.550103652910286	4.220890988183607	3.5023388774184308	4.82553909990775	4.475971210623087	4.557219016967029	3.9894654650099652	3.5851735978208654	4.193916787049317	5.513843045618679	2.7349188258739243	3.488209477200808	3.4798672111391067	4.4714689141867	5.156081186628143	2.663047545385216	2.686571591270037	1.4608178101850806	3.2667007363812797	4.461821544826292	1.482787128519506	1.2580990759556852	-1.3884142602198717	1.0583584281903287	2.488588326846801	-1.5801448782126661	-2.8699028419515797	-2.367869371157935	-2.4971477922335157	-3.1508588711342016	-2.5510332519973704
380	6.651732427969174	5.999458297841105	5.791398510616162	4.631925094354098	3.9794864554068643	3.279899588887018	4.595387447199031	4.435919273620937	4.551802146863517	3.6425080207412956	3.1357166687951126	3.7357156182385127	5.498404965823672	2.710703366111454	3.180062285977462	2.915176861078607	3.9046206375722003	4.956517683866611	2.639770977984877	2.297905200878645	0.8241474011594316	2.586718075897143	4.234849442280445	1.538655634810031	0.8580731131823895	-1.9657758424718907	0.3271055213298997	2.433697932774571	-1.788092131868558	-3.2656588471932366	-2.6944031647365927	-2.302389854340223	-3.0722396296182186	-2.6018149787063174
384	6.814940435369613	6.171618446027048	5.93471811703532	4.851923930315988	3.8678433797457425	3.131672136029445	4.404386509265735	4.545672405210292	4.496747482390701	3.4219491395385093	2.766091101338435	3.337388030209159	5.762524113411231	2.665916436140302	2.9306974337017744	2.4370233951074836	3.44107960785874	4.768479812026908	2.5845813685966297	1.9485336492933771	0.2673004858897674	2.026907915719952	4.094362725411019	1.4857538901010658	0.5159417973843534	-2.469459765875199	-0.2840271584969201	2.440129273929598	-2.0055491873650637	-3.642552366596896	-2.9867982788970475	-2.1204230731834337	-3.0669794005207813	-2.680729620841061
388	7.076338273302176	6.410283072499673	6.1167764509262526	5.1459808219685845	3.9262561698967264	3.095366708569838	4.286013592389305	4.754933345233717	4.44684361288779	3.384114733734984	2.5669636661569792	3.084650508722016	6.1710600697162015	2.6148214274192068	2.799182407941289	2.157032961167785	3.1758620658800343	4.630158889524572	2.5183160241441827	1.7042295889742114	-0.09034157521565411	1.7021388964593482	4.0536513226207385	1.3282383646808833	0.28340345549556517	-2.8162000108188554	-0.6726669652168098	2.4840109285581873	-2.2367453518661886	-3.9786772627514364	-3.2165653624386454	-2.075721020226227	-3.1907961288000934	-2.771281235373793
392	7.364758472921886	6.678821070021143	6.306475623420941	5.386795984019276	4.106290330056198	3.154900542876927	4.245366085778063	4.950345503706413	4.4448737985922255	3.4955646903475213	2.561287158221482	3.0215890331274466	6.518752081625229	2.551731580013796	2.787628405208619	2.1117796844570873	3.1440758625758876	4.553405750222506	2.44189595559628	1.587772961422472	-0.1994761372536725	1.6541650253493916	4.09456442752843	1.106744048185354	0.16497917431662956	-2.974221698881193	-0.8082870820619019	2.5428419048958593	-2.4836177763222413	-4.266116608339199	-3.3798203382990493	-2.23875045211137	-3.449244728916616	-2.8689832614943067
396	7.586989383615689	6.90876625224088	6.453252776065502	5.454713330802147	4.292057026517114	3.245331994446095	4.253617275942777	5.021322237688591	4.5022697335059085	3.6495358851797284	2.6911411217455607	3.1263141553148235	6.638051969934866	2.4612870154228106	2.8416738438386466	2.2451507988511925	3.3013729965781646	4.528263080608251	2.3438179433774726	1.5711457689671982	-0.10228425983592287	1.8293093396731248	4.168729294742304	0.8874554015641696	0.12354769526521668	-2.9744720383886176	-0.744158027677456	2.5933804446547364	-2.735271685370104	-4.505920398779894	-3.499114027725645	-2.5880930358393504	-3.7894287013701122	-2.986340038389171
400	7.66305063220295	7.020980817234665	6.50306652334574	5.303857313116616	4.352653492428575	3.279043666190205	4.258035649039533	4.923024165121828	4.5922541502403895	3.7137112523730478	2.8392698693116354	3.314131251550836	6.483551962695547	2.3343980253409526	2.8736369537280404	2.430231088224608	3.536690226208655	4.536901939381606	2.215083831916606	1.5866908987039514	0.08555702843522675	2.097072119186603	4.214268196910044	0.7384610157442077	0.10083113585287062	-2.894779913269386	-0.5928626641563944	2.6128485136821222	-2.964786045218492	-4.699970233495044	-3.607629766892587	-3.0150558872394004	-4.116956700421113	-3.137900106137012
404	7.55973384855877	6.960500699589511	6.4221615629176805	4.985229002763848	4.201736916424105	3.1839053550442973	4.204840172641855	4.696262347762218	4.658504951159548	3.586825838569868	2.877926819210984	3.469622364820978	6.145845874528397	2.1778919641821375	2.7972323823877403	2.5215628083461903	3.7131779100129445	4.562461364671078	2.0598087258785847	1.5509017666760854	0.22313655856539563	2.301902288347191	4.180710781986224	0.6989915353293322	0.03799711903277057	-2.828353397857873	-0.4794155049140887	2.583097451364048	-3.144495956111204	-4.8520979758782925	-3.729640474439764	-3.378713122420497	-4.340164173612451	-3.3206224357690663
408	7.310688477178272	6.733424646543438	6.22269008972745	4.618373382352179	3.838263978804188	2.9395806715180917	4.068587769726583	4.438408363580473	4.6379918935025986	3.2404906667910818	2.7261145046070907	3.4969043643401103	5.7909154745761215	2.011234278369387	2.5604116852012315	2.4164602695490487	3.7226405049750153	4.588550079204819	1.8939418744907173	1.3928470576406258	0.20174743184174906	2.3254613817630516	4.050507535244643	0.7564201931929142	-0.11155838491169008	-2.8514444756041395	-0.4953165637862196	2.4954528745589624	-3.2705473817267925	-4.977615343878042	-3.87195943808496	-3.5793154149285513	-4.418197143843904	-3.5066006095091113
412	7.013200265343909	6.423949702256428	5.974916443044669	4.329199303187254	3.3482599173887415	2.593888037808362	3.8724841973762376	4.245745648155034	4.4855098611117	2.728238337304365	2.387869352033954	3.363692036719286	5.564625249164783	1.8501945687311125	2.162292951846643	2.0970208591922255	3.529489746719388	4.594393718563845	1.7306950048619825	1.0757003995439443	-0.015448581388331821	2.130310530052391	3.8461296461274688	0.8421535470681026	-0.3803679933481348	-3.005071155590415	-0.6751300675512892	2.35296487214161	-3.383333197634663	-5.114732729396112	-4.03294753010099	-3.6147084144882404	-4.389663685206227	-3.659274092018545
416	6.79778383446078	6.17296884885567	5.790494904203648	4.187780369675894	2.867012016687272	2.2470805588255685	3.6831660177699916	4.160626400933417	4.192553986454613	2.160323852806815	1.9505902479515147	3.1141369264179555	5.515616403005559	1.6888543324746392	1.6503087240514496	1.6329846340912215	3.1811056056769766	4.547654617271938	1.5635800322156699	0.6055160745591706	-0.38894855877904666	1.7635528996764853	3.614090195114191	0.8512632229293497	-0.7898179272737847	-3.295221558834296	-1.0045359109311978	2.1651844923666865	-3.5660447984306844	-5.325149522688102	-4.221423615287975	-3.5863895325712134	-4.361804474308547	-3.7625491524114874
420	6.778036577277972	6.120526298328895	5.778254494383478	4.1803932084396624	2.5184047158553846	2.0084896036936994	3.5803477673734547	4.15679787539987	3.794731368974522	1.6555392700358633	1.5437823495035083	2.8451480793645434	5.581044182991738	1.4941154680676259	1.0994925471202883	1.146156904187836	2.7825407911620155	4.410890091250048	1.360863920590638	0.02584955648511971	-0.8312250950807712	1.3237485852198678	3.3958375368212317	0.6816602332071044	-1.3486093248650473	-3.7039356138174067	-1.4473823272401811	1.9389197777432479	-3.913208713188335	-5.67566679475235	-4.46898840729599	-3.647336712211648	-4.4613971597565625	-3.8429903887043646
424	7.001512032951544	6.337626441213387	5.991656765115441	4.2304248703006495	2.3632030427395407	1.9470336388067468	3.617409220145484	4.170742978056312	3.3639709864561307	1.295706149644611	1.2802472082239853	2.661125891642509	5.640791878763741	1.2203623025600556	0.5876412972872529	0.7570562939603512	2.45121573782983	4.160968293174985	1.0792379352024322	-0.594861923146403	-1.2483466832114478	0.9137862897690222	3.205623618615563	0.27894133258965564	-2.0413293786962363	-4.198576439747514	-1.967667574682996	1.6751819806720003	-4.480395782602883	-6.203610881401597	-4.818024623150599	-3.9196474453192955	-4.770048129436279	-3.9627437491503072
428	7.42649553331289	6.78362081722359	6.394941790647537	4.250788201090301	2.3806033074355994	2.060076708360818	3.792522182426145	4.1526498689711335	2.9888446255563097	1.1030740710065097	1.2087640731810743	2.629187338866701	5.602115616959534	0.8399401285899568	0.17751327112202775	0.5399547801690329	2.2718508186202073	3.8105804823988625	0.6931645852708017	-1.1765164107182413	-1.5726556738248363	0.6034001096749865	3.0276012344214713	-0.3305260232686667	-2.811740152889442	-4.732490050765234	-2.5328164036699508	1.3746668065650056	-5.238997446184424	-6.882508260516404	-5.2884797916405475	-4.423199642457983	-5.276160703689473	-4.181666840486007
432	7.936347941388429	7.315045338281775	6.869118673147865	4.195059765714644	2.4889378484828817	2.276532167409047	4.047137727056129	4.102227200641407	2.7450370719268693	1.0461761925033124	1.3007463183940928	2.756515972807312	5.461184011022627	0.37082725669696043	-0.09198509878538004	0.5050545322064578	2.2713360729092265	3.4182732018952025	0.22159527186236258	-1.641409035353216	-1.7741380885154219	0.4171313930947174	2.8345293927153272	-1.0380283567923774	-3.5573429971526056	-5.241698728678824	-3.100525371352834	1.0484151813740021	-6.06680296319842	-7.6122364805673275	-5.844360336806909	-5.059428679090185	-5.873042568637569	-4.5121278648897105
436	8.388640382568278	7.750147323114644	7.262626152775693	4.081604470438347	2.595751994255072	2.4949357446621967	4.294689644460906	4.067772378188114	2.6703426770501473	1.0698862048793634	1.4767650328544735	2.998532526075063	5.306757913542643	-0.11409329594178144	-0.2040771538827192	0.6125602706702309	2.4212984977625416	3.0782544535166068	-0.2631842189342939	-1.9264625262259323	-1.8502364111916392	0.3471530965146512	2.6163227492080185	-1.6852176146874953	-4.1453513994461035	-5.646284565975215	-3.6049518494188795	0.7261526566291652	-6.7842974491493715	-8.244642236874709	-6.384748442742365	-5.657847867032446	-6.405361636202284	-4.8943509931971505
440	8.677733399416512	7.9587321080494435	7.463921528091444	3.9791321653992138	2.6484625272640807	2.636057608624746	4.4640388376063385	4.110043992156095	2.756267063811358	1.1297614545908639	1.6549150901973515	3.2873089230510506	5.264335142195892	-0.5056529032338472	-0.1596797253630294	0.8041403273307027	2.660090916593242	2.887147419315878	-0.6537812931720538	-1.9955497929735009	-1.8084951593515302	0.37438148165594337	2.3970689713039395	-2.120256657015641	-4.452250946248161	-5.866182789296978	-3.9622480769256065	0.4515300679727739	-7.2257261093813066	-8.639495827796745	-6.774883253158736	-6.061486228897879	-6.742232782507528	-5.212778078269665
444	8.775566078918045	7.92491290952643	7.454395275368914	3.9632477660252556	2.656175368278543	2.6792337826795545	4.532226074220071	4.255018223510041	2.9554791375881813	1.2099633186309273	1.7907103254883514	3.5603475480788576	5.4149374825139	-0.7016502601074707	0.022285541463257084	1.0299153301939032	2.9184646532761165	2.898131363227355	-0.8501927235118865	-1.852430577369571	-1.6582342344379337	0.47958853719743477	2.224121088134634	-2.257450098060252	-4.414817322075093	-5.85076092196531	-4.102447022570784	0.2614859037949965	-7.311472397464379	-8.725382782841132	-6.907986623489186	-6.203059657648106	-6.836538297558736	-5.351811872321714
448	8.73342511833108	7.7488283915383835	7.312659721985307	4.071825494022607	2.674272292060978	2.6642403535334496	4.528650749216891	4.4681472665510436	3.201390973591459	1.3190845217779692	1.8883274745949192	3.775613060001795	5.7376088951208635	-0.6532530768113879	0.3027182511792981	1.258559939067925	3.13741730851555	3.0870599668763328	-0.8052951673203103	-1.5467635354090674	-1.4153907263306567	0.6390568001824961	2.133522028304781	-2.1122765487746804	-4.0661244289735246	-5.607971177247483	-4.012966145874094	0.15976950485899566	-7.0853767216130965	-8.535365083125567	-6.768357736665202	-6.132134422078884	-6.740532858042825	-5.263116346422602
452	8.645327546226845	7.585936527173035	7.16796682455399	4.285407055525602	2.762887709317714	2.660181515653072	4.511198032433562	4.669598567617135	3.434005013378921	1.4707113467277897	1.9820376584556139	3.911333789487014	6.1113962972838305	-0.3899816264796855	0.6248812063652892	1.471854802230274	3.2757904446865775	3.3504497920322605	-0.5490738139594861	-1.1651357382921408	-1.1122634382776202	0.8139626363230852	2.114738697434846	-1.793552751781224	-3.5332908541164074	-5.213077055167103	-3.7648565674142067	0.10261425350030808	-6.693420393256988	-8.194604852967839	-6.455842001828008	-5.974742397482364	-6.567755682575726	-5.003737437012774
456	8.593068101168358	7.558054428091819	7.128555756690847	4.541467655159873	2.944594852642517	2.721439831538449	4.530361164099047	4.781877505627115	3.619399538438799	1.6630457597706345	2.104084724836012	3.9594001670054286	6.375741942520963	-0.010427501026291117	0.9257464385501661	1.6552455383471518	3.3124456322008435	3.541479578613555	-0.17923439993905532	-0.806377826085277	-0.7989708165023849	0.9490618681788003	2.1004254764932	-1.45664822687499	-2.9929075165525214	-4.7856116174035765	-3.4973134906208156	0.011453648068895449	-6.314190371784032	-7.8637451927008835	-6.150158389776298	-5.852451786524028	-6.425967677104849	-4.718816745288281
460	8.606290795531947	7.688353995939114	7.22554920279606	4.769154536604062	3.186630002559391	2.8570709156381517	4.601681220834264	4.776565062860986	3.7527501488351533	1.8717124414871489	2.2608604374071106	3.921128501528935	6.412061198258123	0.3565411260662966	1.1550507516308963	1.795408721205554	3.2474739469553353	3.531328669215356	0.17710676744568593	-0.5495013580753805	-0.5304009901006855	0.9883289312205297	1.9920145222915087	-1.240038630215761	-2.6037399703091233	-4.44266270469522	-3.361333600140768	-0.19073881160739717	-6.08088825597902	-7.668697337816135	-6.0299539413798335	-5.816080555536756	-6.364147170211369	-4.575246322524541
464	8.65690324505016	7.894853095149199	7.402085762408942	4.924420821154679	3.4168052587073805	3.0297593993940497	4.7015313983470595	4.693037498069432	3.846901407066072	2.059551710650962	2.431385034144546	3.8093807601118526	6.20309875829498	0.6025619491622711	1.2935385671381818	1.8878614854832416	3.1036159913859245	3.2673849977015736	0.4135277260830181	-0.42757502090266986	-0.3430286935251864	0.9026755071737832	1.7117717222864681	-1.2123247354416766	-2.4476485190583186	-4.249385823011567	-3.446693411708092	-0.5356041179485719	-6.030760749849477	-7.648147563698096	-6.182052119859348	-5.826014027191364	-6.357863886993591	-4.675881373997757
468	8.687351204873186	8.045762041759158	7.553991775514186	5.00671433138392	3.5637152105001646	3.183620921680147	4.788920867273151	4.6175722959284204	3.916736354475815	2.1965651456688056	2.586816781188642	3.654749622654358	5.840315327204084	0.6790013892196768	1.3592643703474843	1.9478895615035603	2.9256627485795983	2.801830523092684	0.4828194069593276	-0.42073941124547437	-0.23542515874074502	0.7132431846730805	1.2536282507716605	-1.3526169027510473	-2.5070235665921268	-4.192966927432575	-3.7325115109620564	-0.9830120181060544	-6.105304702603165	-7.744925479408345	-6.552154524473025	-5.787544712713293	-6.338308318347896	-5.002310263401875
472	8.652332284063164	8.040029505457714	7.5934247778865505	5.046244131699155	3.5945579914891885	3.278431645699196	4.833631503299183	4.630458820096325	3.966283549785291	2.2736918868833813	2.7115218570914434	3.501960507134352	5.474682794100118	0.6045840963358156	1.3929326499103072	2.0093760439685613	2.768652432127256	2.2733657302679937	0.40451818602474077	-0.47606986640897053	-0.17010517375437123	0.488939254241545	0.6991829258432228	-1.5733146627758092	-2.6919064453825445	-4.19817828072142	-4.094762314948584	-1.4329092466416513	-6.200255855164951	-7.847019175744822	-6.968615037490167	-5.62138174545093	-6.246889098608004	-5.420687661790153
476	8.546507813810326	7.862952212508794	7.4956593324241565	5.074305044714246	3.5277242571455987	3.3062229073020037	4.829965579236173	4.754960524951666	3.987637986605766	2.3001022280795187	2.806809418267491	3.390718451522267	5.238450513965346	0.44314768798523985	1.4273160659993396	2.1040046161936363	2.673237793848868	1.8459813548211566	0.2429476821249202	-0.5452717528881527	-0.10137948368225858	0.3118870846503355	0.18368896795625864	-1.7705788567662903	-2.9006922171790195	-4.17881249326421	-4.372629154609586	-1.7752052500727862	-6.233417495248462	-7.854781607823612	-7.231045227867633	-5.32246445265704	-6.078200801762172	-5.7494716499126906
480	8.402570703272852	7.587156753457796	7.304482918417084	5.095493303785506	3.4130201253551204	3.2819502270806935	4.789390075035638	4.937397944382413	3.9697322745232877	2.285365575742458	2.8751814292795608	3.330826274091693	5.181032167705284	0.26542416147929776	1.4570319615770853	2.2313413563659164	2.6406223707286993	1.6355544287395796	0.06930360925581515	-0.619187055454983	-0.013464229147414972	0.22808465304009315	-0.1720570619530641	-1.876128072770251	-3.079593650672039	-4.095870007664294	-4.460424411956284	-1.9523007820429603	-6.191323264702884	-7.738426188958446	-7.219999295125747	-4.970770346489318	-5.88637302819864	-5.855991348740433
484	8.26379964649431	7.320939045542285	7.0956501781606445	5.0786166062878335	3.2949097073336184	3.218594781378834	4.720506656172686	5.069950090959372	3.9072277447280936	2.221975082509559	2.8999576495386625	3.2889685547759866	5.250023828602874	0.11538075626567935	1.4305968248487835	2.34184789066333	2.6240420275241005	1.6603543716472415	-0.07193168234545523	-0.7363283615595287	0.05757680148250693	0.21416439061929818	-0.3249501279732962	-1.884081597339709	-3.245814553648978	-3.986532439657263	-4.371245373179975	-1.995556945530856	-6.129544719479221	-7.554531078338752	-6.964695436059634	-4.689505088410382	-5.753065571564994	-5.726666436042046
488	8.150364855215765	7.14006326780071	6.926550370848323	4.975433337047614	3.182579032492104	3.1077132146574407	4.614500987800189	5.048374640116628	3.807012786790194	2.0823380894539056	2.8395912575554525	3.2008433261166456	5.325309263135697	-0.002069092816105875	1.2733331886567858	2.349455350666096	2.5469160015652608	1.8390415860474791	-0.17583131745767994	-0.9591068005188568	0.0351582913703174	0.1831163461353472	-0.3328520945251535	-1.8429776383599292	-3.4639961632055445	-3.946402062942787	-4.235671032701955	-2.0144188353224064	-6.133616908799994	-7.417059879650189	-6.634662134585758	-4.582548606746827	-5.741751656340873	-5.475689397338543
492	8.041949251851792	7.044761163091374	6.803163034428889	4.752941119591774	3.045583717286226	2.9216520712520775	4.448218334411418	4.8290462371974785	3.6839516069861475	1.8354222728165657	2.6473619871057266	3.0068914814372594	5.285007940300437	-0.10999380024318926	0.9325149035751916	2.174798006288948	2.343718761248817	2.034056181540527	-0.2668553286013863	-1.328762170297847	-0.15375366768164878	0.0323128401417303	-0.3219574681736468	-1.8222813560254025	-3.7905106448793435	-4.0711979763239965	-4.230355252075728	-2.137524837819211	-6.263903125206894	-7.4363074114924625	-6.451888544959327	-4.685157287212863	-5.86341284225197	-5.282965646757009
496	7.890636424169855	6.96819351344338	6.684792978575401	4.421559799475062	2.8408756184378303	2.639361136448436	4.2060770882271115	4.454901207166762	3.548370829206508	1.4775980673677511	2.309365266691386	2.694426291338707	5.068715082722744	-0.2341534936476727	0.42312899125080905	1.7994183256494714	2.004252190298026	2.1186170524512993	-0.37424638772890106	-1.823002691434653	-0.5239714370849973	-0.2895549528440783	-0.41410159960146664	-1.871566410107818	-4.218464840728795	-4.389444816951165	-4.473089683683341	-2.435338252594648	-6.514355643037696	-7.656505565385978	-6.568310244189316	-4.950443255323598	-6.071250423361752	-5.29359148596358
500	7.653884868371111	6.827280980992753	6.520178778398971	4.040536393454632	2.550701850173256	2.275640720344037	3.9042036434784047	4.035784234347978	3.397238245969917	1.0544958088000564	1.8735704374693964	2.317978376258263	4.70696591142538	-0.38164111875500045	-0.15719610412963778	1.2957125869462305	1.5930457074952802	2.0323750921435266	-0.510296760701218	-2.3464181363945893	-1.0034143899379357	-0.7383114080861992	-0.6573768241497618	-1.9961718270448063	-4.661383140239195	-4.829244124617634	-4.946509825615511	-2.871075861357798	-6.810677034348883	-8.027359942196243	-6.979512673876227	-5.277803407695335	-6.286953433376236	-5.537209019985956
504	7.325828533750155	6.580528242663107	6.288466437675394	3.696097603049232	2.207019085080278	1.8912523937159524	3.5980877785438756	3.6944789793197983	3.2149834551703007	0.6571133120158751	1.4459547960014147	1.9822337577364297	4.304725159267112	-0.5353727923227827	-0.6570876224140418	0.8097475746691459	1.229189869638293	1.798018927802968	-0.6635134799417634	-2.7626433302747517	-1.451423760564328	-1.1814851731034626	-0.9986591313897609	-2.1595056002454043	-4.986575114058057	-5.240539537550159	-5.494175897078247	-3.3100523865098643	-7.0450568021287125	-8.421630838112426	-7.520349006739262	-5.5596136906447216	-6.437504275281288	-5.9101838916333955
508	6.945984822856141	6.2552747568509925	6.016634925910531	3.462503424485558	1.8849358511064729	1.5714865883251634	3.3632838641128946	3.5075676352635057	2.9839975758554127	0.3882514526578361	1.1474025220512072	1.7924768879457444	3.9901327986111856	-0.6661256534924498	-0.9349765753982001	0.49854662888541	1.032439706103057	1.4981263838137249	-0.8085910061448442	-2.955884210753052	-1.7199315981356176	-1.4577145539673295	-1.3130675521123745	-2.308394664658314	-5.082330214066543	-5.464066968473844	-5.893842682263032	-3.5856509118150215	-7.127178174144277	-8.689083077427409	-7.944359282463173	-5.718728051052322	-6.4809288814948935	-6.228939994344239
512	6.581300718857446	5.930530533122553	5.76396225427674	3.3676335726590416	1.6674537616592247	1.3833029235247079	3.257021657349931	3.472731581503192	2.701192610596526	0.31422790805636697	1.0519485447073664	1.798027987708951	3.8554434678965563	-0.7535552363443736	-0.926551637694404	0.45240622644643763	1.0613173219587981	1.228950258966901	-0.9254097915173246	-2.890317909572766	-1.7272647575638194	-1.460117455610738	-1.4755670987068021	-2.405426496154665	-4.922664153068294	-5.412040696785129	-5.971926674070284	-3.589302053926165	-7.028139096635537	-8.723896958259923	-8.050156572998063	-5.727159008825225	-6.415170653358915	-6.329426272624471
516	6.292905791607057	5.689789757668353	5.586562142572532	3.383415452044245	1.6037366349737814	1.338839885192447	3.2857057965292196	3.5204167277145855	2.3928863941813208	0.4308846284001122	1.1449320287407942	1.9642493675230468	3.9187128444915773	-0.799335000881043	-0.6773000342435035	0.648111222538176	1.2803237405876837	1.0576101514817076	-1.0114611361715868	-2.631355279000998	-1.5000890455519336	-1.194819924198946	-1.4304544889574193	-2.4468519625875516	-4.588815677501268	-5.112535463776659	-5.693253979613953	-3.3337581073515024	-6.791502935428787	-8.509020783875675	-7.783011893649345	-5.599560723472331	-6.266801341447135	-6.153369888028688
520	6.106205924829894	5.5730705120523965	5.504019246510182	3.442757359395642	1.6833432870326206	1.3882347310302616	3.3976752672243067	3.5583255201146025	2.1141581481961995	0.6624563915693407	1.3281130757178818	2.188971037106436	4.1192870036073685	-0.8264541009064155	-0.32305172004199306	0.9607850288929155	1.574392076332049	1.0024914716205637	-1.0820462676385791	-2.3171541632323898	-1.1590260237995096	-0.7817714790633566	-1.219616052409352	-2.460433953748939	-4.235516537463087	-4.692814338279956	-5.176994310659815	-2.9520957395406935	-6.511360628854584	-8.1182794365956	-7.255609017173292	-5.378931508788888	-6.07330368415979	-5.773061260906599
