time	FP1	FPZ	FP2	F7	F3	FZ	F4	F8	FT7	FC3	FCZ	FC4	FT8	T7	C3	CZ	C4	T8	TP7	CP3	CPZ	CP4	TP8	P7	P3	PZ	P4	P8	PO3	POZ	PO4	O1	OZ	O2
-200	0.3631772389779326	0.7537190895124475	0.9549343561858242	0.33600971017880243	0.3406056455118948	1.0070639823283185	1.1602046460423225	0.49155506367555346	0.0887341646099903	0.2697162323340924	0.5983270391616717	0.8991745687670949	0.9420579052028618	-0.44029423483311186	0.1393504735289417	0.26490569047802803	0.6516934616801326	1.2783246008069644	-0.4785597312288866	0.1344348486844036	0.31241691033640623	0.404259054832234	-0.04055653874767363	0.28648596929698666	0.09167072153788657	0.2389675074742865	0.4555462885322445	-0.23918859600236142	0.031926833012558845	-0.37311044241163965	-0.3848618855296294	-0.446265934771114	-0.6969371420430457	-0.19299647163301578
-196	0.057447228435672966	0.6127951725746976	0.7738727907669537	0.21271133369147113	0.10614946457765571	0.7213593703177197	0.8923973418593095	0.2828009419453743	0.21869474594214205	0.07739651183614776	0.3563967338146928	0.8245224335834116	0.898347137090412	-0.23376721084701987	0.1450079526816425	0.15192735156801943	0.6576146466818152	1.1557828158761794	-0.26425269179383987	0.2417245948172172	0.4157961298458303	0.5344580994463689	-0.004260544654400953	0.5710262641794825	0.22964899183943488	0.4860773968345249	0.6787124259025352	-0.10223491464075403	0.30003926082198723	-0.1748614306803435	-0.303157567212506	-0.01331845388179133	-0.42696377527204143	-0.32269030727931
-192	-0.13449621166604495	0.49998628966935765	0.5891678318407413	0.13682682777668445	-0.10877955677463247	0.4190751005559355	0.5851788506038642	0.11680711776329503	0.2795860462282409	-0.07894297669268262	0.1414315398936979	0.734774230055579	0.7479805331418957	0.13967077398799477	0.16963709848013186	0.08752437658861921	0.706083653574671	0.8466238358103257	0.12556360630281727	0.37134221102419723	0.5002729880100034	0.7137950044730178	0.11106935860486507	0.8994511343181545	0.4089879979298069	0.6661349518170112	0.9422333812766375	0.04977397235582198	0.619521854743841	0.10763992341998489	-0.06575569493858183	0.45500644926587674	-0.05167443292207442	-0.23965899585774117
-188	-0.15496391018843514	0.4309757340994214	0.43980213888708863	0.12579874662586252	-0.2311585688715275	0.20578713663120188	0.33814775858382	0.04374763731044055	0.24908627506787206	-0.1424012925605839	0.03642200669391287	0.6523148401003472	0.5301257954564523	0.5599714503455464	0.2205482268725592	0.12242106317367792	0.7899081687057469	0.47287088513195197	0.5654796347646229	0.510977028510322	0.5913150295587088	0.9195945835737852	0.2886762909753403	1.162738320276038	0.5964083060465514	0.7853369096955292	1.2203187911694795	0.1958193774047735	0.8760141112144855	0.41189303890185774	0.2867352061184857	0.7869095186393126	0.31004464548033506	0.050259977452222576
-184	-0.009296908951175083	0.40935897723795234	0.3579276493095611	0.1853856737701511	-0.21084481424504228	0.16308456618142123	0.23508661926043672	0.09291046089318167	0.17412976876641165	-0.0858492253043392	0.09020575858229568	0.5992199763427973	0.33373844539304814	0.8947599507629515	0.29356259033472293	0.2710182361912788	0.8848854281018776	0.18272522045731857	0.9164622998941019	0.6418137534149765	0.7098361235816764	1.1099418373694803	0.4764481770884048	1.2670462099510402	0.7535080294658307	0.866404888826637	1.4604172669732012	0.30770763677155955	0.9816986893663893	0.6618818027951566	0.6451655013961686	0.8818808175709808	0.547076700736684	0.4261279095381441
-180	0.23647119045158976	0.4281996179736942	0.35676094799567326	0.29808691068729853	-0.05048281314144307	0.30612844151454505	0.3025409869661837	0.2472614937738418	0.1292596009090406	0.06706593168730703	0.2849932603793229	0.5777899012282934	0.241796686634891	1.0495982143605174	0.3613496711667661	0.49120175714453934	0.9499374008036955	0.06432619674654277	1.079272625105604	0.727059720111067	0.8400287010918694	1.2248659102986241	0.5989703520911083	1.1742432087815367	0.8350192287343694	0.9139144993596104	1.5854495723749933	0.35587531238351416	0.9042355991421954	0.7872343043478737	0.8696041681268788	0.7464531641233826	0.5956749304990866	0.7044622284269397
-176	0.4867306935419361	0.4752961385170947	0.4260245252820422	0.42091801656309286	0.18752139759402836	0.5709254727254218	0.49484056109424507	0.4394535411229999	0.15794931312260152	0.24372856257415107	0.5345861898276678	0.5618630633473624	0.2774420075564385	0.9974240039438437	0.37449380660873904	0.6903875452730828	0.936901090163849	0.09724143867975524	1.025984046253023	0.7130073290942998	0.9170726514550609	1.1988539665471594	0.5873346909953023	0.9152163840075075	0.7916865328827755	0.8926182366722895	1.512329932209261	0.3195739380397415	0.6652173383130109	0.7406525593177762	0.8466730096421413	0.4666705417771687	0.4538654375538222	0.728578684874688
-172	0.6617940051536242	0.541362641875073	0.5397287593566152	0.5013380634048058	0.40616375105354513	0.8421967008308111	0.7163120490108829	0.5794667586955259	0.24001136361560244	0.3526123753228131	0.7196245175312673	0.5072594868250668	0.38847833773760077	0.7778311948211382	0.2823732786201906	0.7604910712115059	0.8087876418674619	0.17255648927037617	0.7991056422085264	0.5502609596664803	0.8486347773106807	0.9837211941678015	0.4131945063172425	0.5707204923525568	0.5852196797854323	0.7372816782456594	1.1836869686759064	0.1968027944364398	0.3165117196198148	0.5113760816060858	0.5410018549611585	0.14190615677768484	0.16904428558585374	0.44963249450649545
-168	0.7330079656214092	0.6264185889640994	0.6717855913367413	0.5058707582099512	0.5194599019286936	1.0084274981787578	0.8688140489577311	0.6019945725500866	0.30754470747547735	0.32817748106115624	0.7441691737460009	0.37698331380078737	0.4819882499923557	0.4719913589958669	0.06496927125740086	0.6281843169564675	0.5587488398750003	0.16759230154162993	0.48438638326419403	0.22676168324915993	0.5637151584697919	0.5735825285735108	0.10990618886617123	0.23310060740269611	0.21239326840659148	0.39275032182715686	0.5999734386555008	0.009919167471220491	-0.08406154045100735	0.13324739005302513	0.017164589793857064	-0.16948117272979313	-0.1851534540746925	-0.04152749095803273
-164	0.729897914474171	0.7396920900742905	0.8092439750267101	0.4429875303051327	0.49413013333496086	1.0145765517368412	0.8979191161373606	0.504330216564976	0.2959763698257753	0.1666589822137709	0.5836203083562123	0.1653982694741484	0.48378109809802816	0.16776888030133122	-0.24405372081174107	0.29483526870675386	0.21876814906199762	0.02611075335109176	0.17325672463542954	-0.20889930374332427	0.061880629353453856	0.01819472382839326	-0.23373579919930254	-0.03201833359263865	-0.277348487869022	-0.14047241175471625	-0.1657121922362266	-0.19792622277832997	-0.4871076631168663	-0.32020202198247644	-0.5803308472286531	-0.46535518647958635	-0.5331429229627204	-0.5519079552067556
-160	0.7171615940107217	0.8905687309668622	0.9530159806985717	0.36123031286590473	0.36299389509106633	0.8826804734832685	0.8109466413050651	0.34752410562511893	0.193486660230411	-0.06922694278166637	0.29610264226541316	-0.09578889584198808	0.3825574507591414	-0.07087048870313403	-0.56102996922944	-0.1571845557297417	-0.15010261497747263	-0.20496424980867162	-0.06945838016616429	-0.6533416493133005	-0.56797569846758	-0.5864704832528859	-0.5089864121937842	-0.20561671205105814	-0.7859031538194657	-0.7853541950424703	-0.9830498074507465	-0.3775509586338726	-0.851677117581625	-0.7558475713720028	-1.0852419110554987	-0.7665840367989974	-0.8123713115208895	-0.8785477258435562
-156	0.7558209280958554	1.0755671235585629	1.1060733767240347	0.32044771232762026	0.2024038726941643	0.69063508336221	0.6595821960008833	0.21764661316757428	0.053598735346176825	-0.2818576090372183	-0.00960508452165985	-0.35385495334930844	0.23262888134397347	-0.2190617615414199	-0.786563036840108	-0.5976544007470797	-0.4821965086206751	-0.4050870229507185	-0.22052878085725033	-0.987028715502682	-1.174816009416382	-1.129001376162607	-0.6357856376808368	-0.309460043125854	-1.1973054378798043	-1.409218188542591	-1.7069510178384952	-0.4928149568513124	-1.1394752235253842	-1.0924494238928313	-1.380298014970588	-1.0652606460378924	-0.9794703101224426	-0.9093139744688818
-152	0.8698618986102368	1.2686220375456334	1.2572565046992676	0.35229810983402826	0.08732851572638177	0.5236846791397068	0.5018454777444976	0.17131872431893427	-0.0368685125373786	-0.38972282311272416	-0.230801313532807	-0.562758384714273	0.11313196988152927	-0.28824967073143754	-0.853777525653562	-0.9049835182229488	-0.7328127604102627	-0.45903727296328045	-0.2937748126719099	-1.1279464931620355	-1.6071922738505549	-1.5202872714759748	-0.5979701265496578	-0.38153150581353523	-1.4235398733437736	-1.8776488256732107	-2.2272078934704687	-0.5337392078275479	-1.315310713308188	-1.291193124372192	-1.445759292767045	-1.2995116677853327	-1.015241143524409	-0.6800947172160313
-148	1.0355278227410734	1.4226785862289437	1.3735187019002406	0.4367034722269738	0.05095690103420897	0.4280033398789444	0.36854019668038057	0.20104122111107206	-0.015209861061318794	-0.3690048744898763	-0.32013359585044704	-0.7043983322479018	0.07310707103629717	-0.3094520859057966	-0.7626501898583984	-1.0169987652851082	-0.8909512735760647	-0.33191195046548494	-0.3212582162852297	-1.0697357627563302	-1.7773876145310823	-1.7198338465184326	-0.4459568548864115	-0.4471305001413982	-1.4404213392130172	-2.1114075130560495	-2.5003936227612096	-0.5160366879785963	-1.356001612100717	-1.3683127130294124	-1.3606628145196737	-1.3747436965565716	-0.9287866926585485	-0.3564998796522162
-144	1.1966865032500194	1.4851324520762066	1.4081958496779847	0.5097562061791148	0.07269965093854423	0.39225920935777	0.2532901161474607	0.23973645209343122	0.10909884395472691	-0.2618092887944089	-0.3012517981075917	-0.7911975959829174	0.09873906498060056	-0.31193771879594434	-0.5793765172635638	-0.9509943103621843	-0.9736543273185231	-0.09522587036886124	-0.3308366528741294	-0.8812767244977074	-1.6946352677475192	-1.7394823984097427	-0.267757713118685	-0.5029835688289656	-1.2931668725743009	-2.1147675460828443	-2.549243443728574	-0.4688780295931743	-1.2625782457899575	-1.3808126414722792	-1.2541260687635678	-1.2212574451130325	-0.7580525855952565	-0.1459489759098193
-140	1.2919379440114247	1.419100161784243	1.3218352761274084	0.49932545297440134	0.09855714415462477	0.3643448343614898	0.12929557231207173	0.20263130911689176	0.24875670608657982	-0.14736279808032202	-0.24462589559781783	-0.8491542317885867	0.12266103892351835	-0.31048759739686504	-0.39967045087043046	-0.7842709402310574	-1.0065624688484445	0.11256820680092519	-0.3340842119365172	-0.6672143323265236	-1.4503204785923212	-1.6249030787451093	-0.14292074703848995	-0.5236314521920568	-1.068436262294218	-1.9599729726897885	-2.432698005256343	-0.4173798550558363	-1.0661745044492814	-1.39066779262385	-1.2317696778669482	-0.8521625378074502	-0.5621442780607026	-0.1862011994190702
-136	1.2757781711792993	1.2180149524454378	1.102676269608283	0.36744695809099287	0.07858557979293113	0.2893779568518646	-0.02212554583327754	0.04122038547718349	0.28264921832248163	-0.09430020278725591	-0.22024048809236083	-0.8936679936734232	0.06760247779705926	-0.3048463754109857	-0.2956636838600731	-0.6079272016435371	-1.0034368012843147	0.16536068874571241	-0.32772916472661	-0.5102881776323921	-1.1644313306019636	-1.4270591699810062	-0.10528241816403898	-0.48317077633939143	-0.8469933846070001	-1.7377014116283507	-2.204996103441709	-0.36882477905614214	-0.8180367925971312	-1.423118349296986	-1.3123623099571726	-0.37743234539106907	-0.40019777316142696	-0.46743103743793785
-132	1.1269736261524679	0.9068871713629789	0.7751861195066189	0.13362625207542217	-0.0024169019828065574	0.14475303851774293	-0.19128072213516562	-0.22383397761099047	0.12544204263010478	-0.12300927905973935	-0.25608208710865815	-0.9144086218635509	-0.10330091390754811	-0.28892186211119486	-0.2782441072591558	-0.4802649009023158	-0.957144138780648	0.020876761473160612	-0.30489656252175984	-0.42981192361079784	-0.924500641872861	-1.180143949390113	-0.13553026284332007	-0.3786935498690097	-0.6652882082354699	-1.5049707851560026	-1.8890616846074089	-0.3133194438653165	-0.5678796157804447	-1.444667454886806	-1.4130648338881038	0.040247555720518705	-0.30496963781607	-0.8333469012201286
-128	0.8461810329054074	0.529092191314012	0.3896310915646464	-0.13718681002789654	-0.11952328651769072	-0.04886343317808051	-0.34340637835585214	-0.512676833765735	-0.2182790184470445	-0.19952310571363693	-0.32651665724332796	-0.8808958508185543	-0.3626945903680824	-0.26321124964063125	-0.29719412251778443	-0.4049516608027754	-0.848465500119946	-0.2593207948813192	-0.2683430307289016	-0.38127541445790436	-0.7504572253353496	-0.8973411895030775	-0.18493646336593553	-0.2415133261543442	-0.5092058168906485	-1.2613688675505181	-1.4785144291742145	-0.23719425439553446	-0.3452756992205783	-1.377066847185472	-1.3924192155015083	0.2635121040843755	-0.2672804587291734	-1.061241385641546
-124	0.45266517882501056	0.128895565541994	0.0009421622356826971	-0.3726388504633674	-0.22831748368315918	-0.24319732127777047	-0.4407213617164939	-0.7306222897202974	-0.6464162452589776	-0.26217433744041413	-0.373736946831292	-0.7641530613679707	-0.6321539862884861	-0.2418807440849733	-0.2778542332786643	-0.3423748305736512	-0.6649667007823632	-0.5490392432656036	-0.2366372340903536	-0.2951920621094785	-0.6016663893767819	-0.5825167879656268	-0.21267111545751047	-0.1286878433554762	-0.3410977712602404	-0.9658185219221994	-0.9641257500148521	-0.13963919842750472	-0.15561070998958226	-1.142496821379999	-1.1297148437587672	0.2471863323169698	-0.24302312670385418	-0.9800912713101448
-120	-0.009923699286857128	-0.25579032237321925	-0.34682574780637127	-0.529498993013577	-0.29321110174536985	-0.38972553512405456	-0.46493056299127855	-0.8165650943166978	-1.0028482650232884	-0.26135083967027645	-0.3454170516353063	-0.5585772977077699	-0.8202638605388961	-0.24902205106328873	-0.1710889037104218	-0.24357347128883705	-0.4163559366681474	-0.7282447796554993	-0.23833018481163473	-0.13077475097540564	-0.4183676232265602	-0.2471913987117629	-0.21172822958418913	-0.09869581436034461	-0.14206907117260587	-0.582750020940044	-0.3675201823969146	-0.04237386946112578	0.0057599525753270165	-0.719557819933932	-0.6051855072000808	0.05287877084375262	-0.18398556066791213	-0.5692076072626875
-116	-0.4651755380806869	-0.5884022101805344	-0.6227124913706121	-0.6057279690708121	-0.3052803270261773	-0.46099939825968766	-0.42558985841111513	-0.7658432702755991	-1.1499712438159622	-0.18836945247775147	-0.22559483292366053	-0.2901060871906025	-0.8611891247940903	-0.3058162919906444	0.01331298236167928	-0.08521980770768078	-0.13639420236483574	-0.741551516568009	-0.2970051459920012	0.08893202222782266	-0.17004726784211815	0.0805611235849595	-0.20738938398452508	-0.18373408867223967	0.05910298958399844	-0.12603123454222195	0.24328915713397628	0.0161600615421227	0.13241973485892486	-0.17476698712093533	0.06908845884046098	-0.19404756973865364	-0.07356395553850821	0.021245326793198703
-112	-0.807239888060487	-0.8243328908135044	-0.7997851947618949	-0.622381208755787	-0.2790206961739737	-0.4537773120867443	-0.347904591874082	-0.6167377217934118	-1.0325371000923742	-0.07584124784395016	-0.04069175560929551	-0.004160967179313188	-0.7317293863895604	-0.4128083576270401	0.21090209430852683	0.115384824282675	0.1312328871751538	-0.610900162108138	-0.41243529215633284	0.28497654127650557	0.11937968402762816	0.36257722882281596	-0.2296791219872928	-0.3699462404447597	0.19382606397806634	0.3298730841891232	0.769527492964509	0.0015165740585780354	0.19910994121825826	0.35523220807033373	0.6905976516453856	-0.3744550337874105	0.05916265755855826	0.5436701760870816
-108	-0.9250693297872272	-0.908755717367325	-0.8459945895770207	-0.5924843534769602	-0.23193442762944871	-0.3770449152010072	-0.2504537099236954	-0.41658657684052347	-0.7011899334370325	0.028621200399854885	0.159470229938334	0.25746127898063376	-0.44847270733138406	-0.5397578464231921	0.3410680285425725	0.3106233767773206	0.3525502970854362	-0.40243983167131503	-0.5508621321121671	0.36809939053105706	0.38164546989405806	0.5661888704310146	-0.28072857785873334	-0.5972890838801737	0.19437980602779287	0.6778537613920689	1.1188719244364724	-0.09442596113683388	0.17403659180570177	0.7220730763324583	1.0573810312277694	-0.4323590684941985	0.1536860909158053	0.7768991569931385
-104	-0.7476846556859776	-0.7923594693205906	-0.7281493526194548	-0.5031412231139983	-0.16709734457266473	-0.23932401775494921	-0.1307624724186129	-0.1923101986559658	-0.2848676435907759	0.09287013835109291	0.3296306720994337	0.4750398385452076	-0.0543596296130069	-0.6341789944849726	0.35243984967894626	0.44852054005869557	0.5154561387399497	-0.17503668323670188	-0.6552968008662866	0.2917259924198958	0.5401225672436519	0.6779204589894041	-0.3205468944562761	-0.7812985162082581	0.040572240846242	0.8286588767110906	1.2436425654483612	-0.24258968172814188	0.045543581132343226	0.8362702706204015	1.0645608875099961	-0.3853944232270306	0.1568152751539681	0.6381595714669575
-100	-0.29235929176903536	-0.46325740101201285	-0.43358296046460393	-0.3274388901072868	-0.07340478878561799	-0.046718235940998214	0.02968670234039538	0.0544225013372153	0.07182161491857478	0.11488835484585246	0.4486561704275395	0.6534449441624355	0.3912473311082953	-0.6439136250451117	0.24825280842092087	0.4987495528980355	0.6286125167234529	0.05417249710591673	-0.6700799448261551	0.08119580874208662	0.5505225048470943	0.707829056383222	-0.2822395257976523	-0.8455020167938404	-0.2164387697477341	0.7564097027754603	1.1609659165634718	-0.38180845879478487	-0.1541006710214938	0.7130138260005638	0.7600995879056095	-0.290406405192545	0.06367211772817082	0.22822458984451127
-96	0.31532284537812644	0.02324830734820598	0.0021527390872724903	-0.05930841699169817	0.05725002646893147	0.1862276787824448	0.24298684237643878	0.3250040999790041	0.2720099978731926	0.11428386689180842	0.519555507778672	0.8066365102429491	0.8122974613661993	-0.5447459207132718	0.07847105691886495	0.4631995845067267	0.707057891491065	0.3036061219656307	-0.5698147997774814	-0.17847004487754672	0.4223961819474682	0.6805394274695777	-0.11298472405756402	-0.7511914353478393	-0.4710081803827791	0.5122209178389991	0.9420893168505791	-0.4424501944338392	-0.3487521103160035	0.46389967086016853	0.3234342626511957	-0.19378225456426704	-0.06975742411882802	-0.22185029033439022
-92	0.8706537463140787	0.5405145869913499	0.48266675946444326	0.254108428313516	0.20751550741255137	0.42220613253808165	0.4895836400545848	0.5942568167941709	0.3003955177829103	0.10730078044264976	0.5528399930347552	0.9348360872508192	1.1167474956927517	-0.3592326632013011	-0.09537343656779133	0.36719795968807234	0.7546530346890751	0.5874192699860251	-0.3783549656852179	-0.38939207693970057	0.21074759906965906	0.6191108807191523	0.18340870691723232	-0.5124673830445231	-0.6140668376677699	0.198732301091076	0.6774167997423237	-0.3775511076454842	-0.4479316461698015	0.23800526499262323	-0.02243524225352282	-0.10050099317687386	-0.15369720718202784	-0.47058254361551266
-88	1.1644213170216666	0.9247770882146313	0.8697921611760256	0.5120233880467122	0.3271099618759242	0.5992530569205642	0.7102069240758879	0.7997373322322612	0.21391300803059266	0.08685137309557885	0.549362717671983	1.0121680472568382	1.2131164043315847	-0.15271052679606834	-0.23646151959799938	0.2416152500966528	0.7570974211651424	0.8745093323562851	-0.163845121446835	-0.4915723490224947	-0.01266658954849622	0.5339567647804287	0.5321698771392188	-0.19050989996971524	-0.5883893355772954	-0.07746555636636514	0.43827304133388134	-0.1846606726752561	-0.3915426423200894	0.1455498185059275	-0.11951268434152806	0.0190970338398862	-0.11519476742270793	-0.3896617283519836
-84	1.0752290460142504	1.039545771835238	1.033185002579447	0.6007153376671469	0.352433054749459	0.6494098885352634	0.8240531662162797	0.8613811709590717	0.09700389181918326	0.025712257186226245	0.49621412032730366	0.9941198204690621	1.0436214182253998	-0.006942440738137324	-0.34437373193579196	0.108422830427133	0.6890294534453044	1.0785738202520216	-0.010982600013005415	-0.48656290646731704	-0.19036032211402903	0.42184129250833263	0.8115200379863566	0.1298732903300986	-0.41635092987799893	-0.24962927338040494	0.252715944605789	0.08971730597017519	-0.18519316566917385	0.20447634108893334	0.048790674533444954	0.19299079429061528	0.05474061132557841	-0.029350580573484684
-80	0.6323208792934358	0.8409236052262677	0.9094823575899472	0.4568242121130024	0.24483308134253398	0.5313829170162362	0.7659993152352271	0.7241448145703308	0.012167953855370579	-0.09776426082008258	0.3791002919639301	0.842494664449291	0.6214646085307451	0.0196676123390741	-0.43703323492336105	-0.021773023475869274	0.531834720222493	1.0936142178580912	0.019989784756497427	-0.42284640563064235	-0.2957465939207463	0.27531713177788303	0.9072021223051769	0.3702353527735128	-0.18518701148961633	-0.30870506089471267	0.10658977153808046	0.36670055892867753	0.09482353901764314	0.3388443878678736	0.35487008005191517	0.4096037437111045	0.2879070334318113	0.4107908000111317
-76	0.011255474732711084	0.4062582542175979	0.5384136424776114	0.11410003871720463	0.021912481580485248	0.2586143904355471	0.5233133422036936	0.39764895934797684	-0.028972711340949676	-0.2715366475879039	0.20233192988810203	0.5543763623546067	0.048103239265824785	-0.0771350635130812	-0.5203534947609102	-0.1410468664184499	0.2916731529024358	0.8564863183331853	-0.07539060692826358	-0.3562392881459161	-0.3292118600639768	0.0964270231673423	0.7708093504518122	0.48205906031017004	0.0007182672252439171	-0.2889429621553921	-0.03321121997196829	0.5654596672086736	0.3340809932857075	0.42987564097590186	0.5994587525491647	0.6089471563223585	0.47258457422149625	0.6887444240347081
-72	-0.5395221696583453	-0.09392731613048251	0.05230486379769145	-0.29980093165045457	-0.2394949340734111	-0.09554684883074692	0.15010799429665003	-0.0347252226489243	-0.061279147708673085	-0.4403978277054699	0.0009082634910361417	0.17661158695930337	-0.5111269341915536	-0.2425115549401998	-0.5691066965993375	-0.2336318934025602	0.005713171776860904	0.3999426950847547	-0.24110135375185804	-0.312375872538582	-0.3016882829201798	-0.09525103097947352	0.4501864600736393	0.4560944426465374	0.07265801709427373	-0.23464417398338608	-0.18855753493386535	0.6343349202353114	0.43266370783287633	0.38820055029132644	0.6210280045088677	0.7079894524819076	0.5134927021413608	0.6491295678915925
-68	-0.8132116178008114	-0.4734815049138118	-0.3810871531878566	-0.6208241566242506	-0.43593606242742816	-0.4235721517835952	-0.25033476885534645	-0.44520175344598095	-0.13183192875479524	-0.5267710672430289	-0.16687831240482937	-0.20416597970437145	-0.8894743896915489	-0.3883456876009881	-0.5361908064656148	-0.2744593315347637	-0.2675833993354795	-0.13984367216089047	-0.38725957176663306	-0.2758130424211622	-0.22030025664975844	-0.2653802626585315	0.07362245749720756	0.31631514350184187	0.026415947758022713	-0.16996292726997392	-0.35003557712871153	0.5703589901829068	0.35145082981068526	0.20738267846200478	0.3846167912309318	0.647448597703881	0.38737803599782505	0.30597314161297484
-64	-0.7414606790896007	-0.6178694947855495	-0.6337621792051106	-0.7292815428441048	-0.4889232205921409	-0.6285220368729122	-0.5664536938670831	-0.7137707453826555	-0.25972068244210766	-0.472373186349334	-0.24408644376164013	-0.49146762366188873	-0.9888104175398096	-0.437003849833561	-0.38625854156248013	-0.23939420222399502	-0.4682185638050444	-0.5719916210038275	-0.4348056603421169	-0.2103392327481727	-0.08558350779860137	-0.3760073175473769	-0.20556932635858133	0.10488082442029811	-0.08555332549667943	-0.08825064428221249	-0.47643998144976885	0.4188779581938386	0.12940265205614035	-0.0302787198851968	0.0030705507301501266	0.43228211889798773	0.16101200837968524	-0.16332352120172244
-60	-0.42546474826204744	-0.5371828661707517	-0.6735228879136234	-0.6106522067864985	-0.38845723769340357	-0.667463598950345	-0.7238107901418528	-0.7774974684158833	-0.4148233820455519	-0.2782458357938499	-0.20669278450279382	-0.6166033133197827	-0.8224088528850125	-0.3616399457860894	-0.13342204656293724	-0.12394075809419561	-0.5564493522900162	-0.7380458693943953	-0.35646626263264775	-0.09626779680980743	0.09699857955523107	-0.40134066241978716	-0.27928560901700905	-0.1344530579033365	-0.1916347588230764	0.032893113708895465	-0.5160672055566442	0.252627521115488	-0.13813759351663069	-0.2002002591800593	-0.3231111756750064	0.1383983489357035	-0.042314384025790124	-0.5111681806056341
-56	-0.08697301127409712	-0.35823261647378446	-0.5731509909464265	-0.3615324786118307	-0.2043175841179749	-0.5731329903437498	-0.7145914417344958	-0.6515844447851137	-0.5288554416655619	-0.01906911837710516	-0.08551158734428084	-0.5673687443713646	-0.5058376776321843	-0.20371183701581316	0.14297921919486697	0.04009534780988844	-0.5283410535824489	-0.5921931847879675	-0.19452594171525195	0.04079927121232797	0.2994212500641939	-0.34191808018189057	-0.13633871044068996	-0.3682145467044724	-0.24512740907769176	0.201031773774899	-0.43978837021418027	0.1387832459283688	-0.34876400144260616	-0.20890806562608413	-0.4174118925523222	-0.12268330125828575	-0.1105014082979761	-0.5530363903387943
-52	0.04217903305371783	-0.2551991337055071	-0.4662642765194054	-0.13429573144384907	-0.05283617587458755	-0.43991634138618996	-0.5974881633932208	-0.41396212473304433	-0.5322423563870827	0.18459896696690817	0.037927936666812496	-0.3935328116017926	-0.19632285783792008	-0.051207009573635644	0.32411828555291106	0.18506111157900737	-0.417315541644286	-0.2258679116030095	-0.03861359869625507	0.1343027051872702	0.4646627295206565	-0.22869591357188268	0.1321237381937176	-0.5734860286538631	-0.2452562743193708	0.38580667875157876	-0.2660709016758002	0.10930839898406693	-0.439096151673829	-0.05029459657487878	-0.22842465283419475	-0.25635808641559377	-0.004805305029240547	-0.26885449818442786
-48	-0.16474740165600563	-0.35709503202879583	-0.4755703198823692	-0.05421235771200963	-0.037275697941843336	-0.38108611010657567	-0.4698739934025341	-0.16667717653154265	-0.39912617105803816	0.2231743926135713	0.0619123054967817	-0.1876453156502035	-0.01605837229310233	0.009266459359674907	0.308014809307634	0.22874368669454956	-0.28254535722922275	0.17449159876160714	0.023121355043090368	0.1123991605781884	0.5200247751458039	-0.11491616786315055	0.37730824852096	-0.7311786990778709	-0.2267651403185482	0.5194794522521307	-0.06302506460728402	0.1503567393798309	-0.4060066332103139	0.18705451441268148	0.137840792188721	-0.2269248211614983	0.21801800970823207	0.18459016038066486
-44	-0.6659794432991849	-0.6795821768769018	-0.650344310549048	-0.1540424372836953	-0.19293074261115567	-0.4762323188678957	-0.4252947260132549	0.006590639690061274	-0.16924308197683896	0.05555407688896765	-0.08943251497815739	-0.04919190319873749	-0.0003299020164233225	-0.05728438482126744	0.0680902673075083	0.11046352209573639	-0.18869474482579188	0.41751685633150665	-0.04483941186074462	-0.05492908121188236	0.4080593277642286	-0.057708397361967846	0.4660652566110028	-0.8189942816083857	-0.2276512974713478	0.5242931233520378	0.07660248111219654	0.2153132999467655	-0.2956700317547256	0.36520802882494763	0.4719597685342157	-0.0695604680212456	0.43598201760843397	0.5566320405257915
-40	-1.2711312738750526	-1.1177543373497556	-0.9455116367310071	-0.36247044710197046	-0.4667655515807008	-0.7333025913797901	-0.5146748410582065	0.06716997904508037	0.06903998536321979	-0.26422667436646113	-0.4257258166055045	-0.04666287812730284	-0.09532536542190136	-0.20944999105501377	-0.32008343854199517	-0.17420977310065944	-0.18330940557928724	0.40028419989613306	-0.20018093237403967	-0.3262120477069724	0.12138745158065688	-0.09476818120394775	0.34619507106159514	-0.8109742382555264	-0.25641703540912775	0.3551344266508266	0.0795167459030031	0.25353941257360435	-0.169853820967988	0.37192234303033145	0.5762509093040785	0.1322167661428159	0.5288690315245363	0.6379478557692498
-36	-1.7329604581948859	-1.5021895132285152	-1.2507809368979288	-0.5499285445634071	-0.7417365293849246	-1.0822370025013788	-0.726518807961096	0.02431842678605976	0.22393931391920383	-0.605995415111244	-0.8752639867618811	-0.19240589391291107	-0.2050366694518909	-0.3458282342762512	-0.7013512236053875	-0.5582226500722517	-0.2793416969876011	0.15476939043070176	-0.33951735410801104	-0.5954387172924381	-0.277193962827832	-0.22473356070999184	0.07135188561544707	-0.6857607347340747	-0.2791476242647024	0.03597515439845026	-0.06471735967747427	0.240613087404252	-0.06922566128180693	0.18515935493451036	0.37980982565354493	0.2914081804547558	0.4435039747484852	0.3768600215933807
-32	-1.8637896729143175	-1.6858196215982069	-1.4507815801231394	-0.6029095038450789	-0.8916191436190868	-1.402142163551301	-0.9933601592733178	-0.08120214173557802	0.24911343988465987	-0.8186989405942693	-1.3039799895742832	-0.4395790387022576	-0.25559052760443657	-0.35488155394600546	-0.9035001970368134	-0.9174672938071224	-0.448449997961782	-0.17739178195512106	-0.34923657686751475	-0.7335766535357754	-0.663205741161565	-0.4001944949059726	-0.22721545340868934	-0.43966141232112926	-0.23343340993595926	-0.33103313958513536	-0.2848620705565035	0.19261364590175117	0.0059682805871780625	-0.10796939554372963	-0.011612122849114483	0.3571930518668815	0.22226758245140918	-0.08617354162632386
-28	-1.622215386109683	-1.6178117949647952	-1.4842737875657404	-0.4848917710459686	-0.839268563058968	-1.5705563982411472	-1.2196689813337789	-0.20034180530988227	0.16943314628738662	-0.7962909320754046	-1.5637187918283568	-0.700973270553821	-0.2374681973422305	-0.1750740106453982	-0.8116837719451413	-1.1132844658400447	-0.6283485277524091	-0.42940199266739004	-0.1668678517896977	-0.6453819854654462	-0.8895805455636259	-0.5397967086514875	-0.4100419272560645	-0.09987456326302728	-0.061769429438325515	-0.5937319978982486	-0.4494715321636859	0.15296494922164974	0.08935205615849436	-0.34882107288983455	-0.3640021672595412	0.33133593117982985	-0.019349083255553474	-0.48980060096101946
-24	-1.1275963754795089	-1.3642579282648695	-1.370294925091058	-0.2499645942099035	-0.5879397377428898	-1.5123157463038401	-1.318969842441711	-0.29354259297645124	0.06667861325595383	-0.5212481604767301	-1.549155469797865	-0.8807419516261328	-0.2029047454241085	0.16843426185044016	-0.4176807094995805	-1.0457717153848878	-0.7424674611419598	-0.5040552603393212	0.18152701808874644	-0.311585157322988	-0.8412427284935895	-0.5572665915724683	-0.4033234109232346	0.27268999746139577	0.25576052005090677	-0.606232343573628	-0.42366221440162344	0.15972347517218408	0.22400627973743992	-0.38192853235138174	-0.4386763859640581	0.25959983402513065	-0.15221969744874342	-0.5911329373693798
-20	-0.5960113391133496	-1.0651212903787595	-1.1879698008107842	-0.004815314884247242	-0.20973253197169697	-1.2250262467926651	-1.2427554099177642	-0.33786469612649633	0.03460034346785455	-0.06397505833447689	-1.2364397017733093	-0.9043310857828846	-0.22225704733047172	0.5722439870691693	0.18142464711160317	-0.6926278454459545	-0.7237596493567646	-0.42211103332758265	0.5901100620629718	0.2052554482999866	-0.4804218101292909	-0.39519679446578604	-0.2371061438296177	0.5973814710793423	0.6882440430430821	-0.28915724085281863	-0.13455302979353362	0.2140534514744901	0.4352566290833489	-0.1291397657710222	-0.12319979785570227	0.20451681264263363	-0.09768982206952664	-0.2976450316543718
-16	-0.2338127487955133	-0.855049250351279	-1.0252404187066828	0.15483863612659474	0.19659070620970323	-0.7728587965525948	-0.990983841301412	-0.3246187559515041	0.12724584308922707	0.455534606021898	-0.6889551264534571	-0.7376822214575387	-0.32948931968470574	0.9010542012353413	0.8289589264921324	-0.11783205688052313	-0.5367371426382467	-0.30030035896776663	0.9207289195656417	0.788670418655466	0.13543747331280026	-0.051720373201919065	-0.028259038853823686	0.7974561432731768	1.1619796723592521	0.3307309440368871	0.3842695345713471	0.2697166495666048	0.7108852249317194	0.37011960055365123	0.4983793484502702	0.21172760373542057	0.13408267464163737	0.27759882737644664
-12	-0.14221964740608953	-0.7922881225609746	-0.9271470284895621	0.19650651464917057	0.5535607920022041	-0.2542411380547734	-0.6035343393346817	-0.25217556889761966	0.3305679849384826	0.9216784215545164	-0.02875431619775374	-0.391720591986617	-0.49201738710158655	1.0504411432448026	1.3739248479487147	0.5537364468899137	-0.19021834385053252	-0.27271220019151854	1.0671792003390788	1.3140325513088515	0.8723878242401509	0.41302513971954086	0.08377970733947908	0.8264811018104306	1.5851370056185803	1.121765491514433	0.9956064199106518	0.2539422803666241	0.9995746587311994	0.9730644201506704	1.1783509224705067	0.28820678518962994	0.4514331806229361	0.8695340134601552
-8	-0.2783601575022405	-0.8311616161342457	-0.8698728062602031	0.16459448594022041	0.8332065918866816	0.24039606689317272	-0.1378787752485082	-0.11858049750191689	0.5748013839514454	1.2649856773863573	0.612174747828797	0.08690654464475978	-0.6210226400908515	0.9916303132770138	1.7236951546065231	1.1838544577273025	0.26473742656625193	-0.3999197472965741	1.0008821462156914	1.6886255698485688	1.567416783190175	0.8960058666495458	0.014733471870476826	0.6848517042989003	1.87639522078746	1.8909922790468094	1.5128946266124372	0.11083088042172083	1.2269220321196048	1.4936472139794525	1.6269389349869174	0.3998435129560989	0.7262548189900523	1.1971348493868879
-4	-0.49038958425688045	-0.8540913441075122	-0.7776248435414468	0.14781427346103335	1.0500020954324956	0.6570265872579459	0.3503721645569084	0.0782828254511395	0.7745699266904865	1.4705543480938479	1.1344678373304462	0.627899645173739	-0.6192019566161392	0.7742297629836122	1.8593149138237475	1.6656161504654388	0.7473395447935994	-0.6237732752310016	0.7734624723933559	1.867549772315835	2.081442589273061	1.2863026824900077	-0.2169810379033703	0.41703310503573093	1.9838519046287066	2.4510881838903327	1.7803130104892726	-0.15840169747414337	1.3205792870558724	1.7785649254717135	1.6583021837328062	0.48753112431460394	0.8522347786367357	1.1089633675233177
0	-0.6064481123871701	-0.746618030570415	-0.5753272161263263	0.2211352283139864	1.2267355887912181	0.9789224838336952	0.8121154883861594	0.33251684820146077	0.8729760624779541	1.5553748568366057	1.4888603649696266	1.1458994121230563	-0.4379147578150411	0.49019920702194847	1.8137791110975279	1.9458792160496516	1.164507386128505	-0.797979233634405	0.4796597051431169	1.845841283906288	2.33597802526067	1.500255700138305	-0.5003081547503321	0.09228936559502901	1.891388173096408	2.6828122071242553	1.738683100125323	-0.48399647948138025	1.2364622323289776	1.7651826098698193	1.2819228139936807	0.4948571609877731	0.7896844724744696	0.6581265909744984
4	-0.5262777792041132	-0.468582599172091	-0.24332004724105313	0.39866825837570735	1.359121557618963	1.2061113088673983	1.1979174583708128	0.6197708829490839	0.8651818015189341	1.5351510009153762	1.6665154653435394	1.547511096861953	-0.11076353462387527	0.22334532383319436	1.634520645783205	2.0204296061049605	1.4293669426115934	-0.7777898291977685	0.20549324102971764	1.6408408838806514	2.3216850698981966	1.5023171863773017	-0.6946812850579269	-0.22066134158689613	1.6165687997057876	2.56736873932185	1.4426542484099554	-0.7558994870174711	0.9778147315133413	1.4960671625512236	0.6885834914942208	0.39681833882280654	0.574907301404944	0.0659022851114562
8	-0.2682681374929304	-0.08265891650311355	0.1566842492439214	0.621613202909795	1.4043738806553465	1.3302884068281122	1.4496387206671015	0.8893921948866111	0.7875674943113269	1.4052810633465376	1.675173278393885	1.7421193078879484	0.25411674316144117	0.01479967866081651	1.3561625446412042	1.9119409274466779	1.4783979616986174	-0.5157456981035374	-0.007010176294479379	1.2810145584188863	2.081667894829743	1.3059805598664733	-0.7104100567047696	-0.4720184195045266	1.2054921358190347	2.1783773844079626	1.0227200959133633	-0.8775455333488331	0.5995039328697904	1.0892552109873828	0.14489032291547524	0.21547946279481858	0.29626724049154485	-0.39932447571070523
12	0.05035712929767088	0.2764781408482092	0.5018628226960835	0.7873366455226947	1.3036698070036552	1.3247387375763766	1.5037028751555415	1.0677713128787827	0.6859666091766091	1.14908170409958	1.5214977225990172	1.6615910488139192	0.5199480639681716	-0.13773967290911485	0.9983379219598773	1.6488826233241543	1.2858536210974039	-0.10453388068509771	-0.1603831048730867	0.8076987246148095	1.6834185080941373	0.9586781835193591	-0.5602966532866198	-0.6363217218545932	0.7259890418796698	1.6408640104827659	0.6136466249231644	-0.8155067542467379	0.19228343617052923	0.6800696832652889	-0.1464675959227006	0.011521798529443447	0.049626953774564365	-0.5618672356724861
16	0.28695049809487083	0.4761916386979392	0.6677602512666431	0.804870305413424	1.0273362372209836	1.1605234116817764	1.3145024743270743	1.079772708074007	0.5879655465540123	0.767451403587579	1.2142734496930434	1.2884687152756769	0.5814996943097475	-0.24990293320503904	0.5857748970501133	1.2606743542313488	0.8750978686173114	0.26350197129478925	-0.27072942188574883	0.2856158010901077	1.1974447935389374	0.5232038484715177	-0.3524969509284969	-0.7038850170483921	0.2600721412291384	1.0809377404578453	0.29108354375780626	-0.6153669341763283	-0.14603722058618648	0.36487257388499866	-0.14271829986302145	-0.1427316215010951	-0.10308299932679947	-0.4195348609822497
20	0.3548481157403709	0.4590869534345753	0.593584476402802	0.6449381692815692	0.6124583467279223	0.8374059179144399	0.8861209727803072	0.8802269674965737	0.49380656952161456	0.30675077360907366	0.7824155668531734	0.6778762919477371	0.40727466242006405	-0.31557699958280705	0.16988438324951943	0.7873782495646428	0.3202352217695325	0.3941359808030743	-0.33180484091909396	-0.1933089936859453	0.6893293244124122	0.06423092617269044	-0.23014549852916033	-0.6680948121369227	-0.10805131467718597	0.5892720207595457	0.05149105923288591	-0.375488071685727	-0.34257301601702905	0.1722968812407124	0.03706836318551561	-0.1965336347624749	-0.15332460364731643	-0.1250694241942322
24	0.2664831572003484	0.2724296145713519	0.31585889974956055	0.3565388908921232	0.16501638251603665	0.4064709533919419	0.2914691858085294	0.48158228275781545	0.38958752056942564	-0.13990750873528374	0.28947850988734686	-0.04445227224332529	0.046101100626422836	-0.2974377267003664	-0.17120902197050214	0.2897955171897844	-0.2681396596814414	0.19322057019564426	-0.3055706016455006	-0.5267682062200869	0.2207272494226901	-0.358483522225333	-0.2923899285563726	-0.5227439986382366	-0.31152200620200793	0.21032848901097906	-0.15799525340244616	-0.195378660662417	-0.37497541213730823	0.06984680128344306	0.1967911864318991	-0.1473798301075236	-0.1396422382643806	0.1137739715087841
28	0.11157370330535868	0.03490081048140869	-0.05084653930939567	0.04089568172500875	-0.1832689787290704	-0.036698561069101555	-0.33921039018819277	-0.038326110594068014	0.27017235687708446	-0.46774235249681373	-0.17403027371337154	-0.7161859255828567	-0.40243804353197626	-0.15322612187323492	-0.36252599863076085	-0.15543915292119065	-0.7731217722446799	-0.2856235496939089	-0.14941891990130268	-0.6384242756937367	-0.15052045843745437	-0.6939846855761957	-0.5422773943561314	-0.2732384197965895	-0.3216999761088672	-0.04443876806602746	-0.3826941242092663	-0.12835305896777927	-0.27615454723254057	-0.000251075194049022	0.18226069165943437	-0.041123658314828136	-0.11982382803705063	0.15323738715106902
32	-0.014119204098101445	-0.14235207402528488	-0.38025054239590145	-0.20461967535809505	-0.3439317038912537	-0.39282229443554145	-0.8662171341960686	-0.5604864940797502	0.14770771525760518	-0.6155272706703693	-0.5253533707706256	-1.197962877110017	-0.8373104908783954	0.11858476668458814	-0.37686383629063674	-0.4811364698183435	-1.1111882896978762	-0.8782166220426649	0.13704584504335865	-0.516955195552266	-0.37943297528790393	-0.9075440741513899	-0.8909331537640988	0.04562403622671597	-0.16099518496873985	-0.17459377602365536	-0.6152752026282506	-0.16499923127954583	-0.11510593415047508	-0.07678677122279616	-0.033643867735558726	0.05508092776935459	-0.1362300362723776	-0.014711379967740149
36	-0.08419985302885943	-0.23390906990122715	-0.6105508192859915	-0.3418309679937713	-0.3274852625208049	-0.6128461345458519	-1.2021173208403728	-0.9723030304202319	0.040412299232971655	-0.6085693820847259	-0.7340526562277498	-1.4313898050408733	-1.1977788179674154	0.44678738600461493	-0.26571926407483565	-0.6637003405026625	-1.2640680042777124	-1.4048995936209383	0.4796168494036316	-0.23514901042219785	-0.45136031394488213	-0.9916472409960873	-1.2114368646553442	0.35930246024015683	0.09894104276949262	-0.17841815903440073	-0.7928985337265783	-0.25249239738612334	0.03365179515329384	-0.15321345588625213	-0.3454009881835799	0.08715826250959131	-0.19444380651495885	-0.27409726312098975
40	-0.17057940320816814	-0.32590162671776585	-0.7827097157743973	-0.4135721017409413	-0.24939124223209538	-0.7307171207098957	-1.3533540929957681	-1.2152657478167588	-0.0483430548281828	-0.5588132724958399	-0.8469350316599124	-1.4636299573184834	-1.4760363064692894	0.6977833491827854	-0.150758117056735	-0.7431762795758392	-1.2847526041018926	-1.7622722342820747	0.7406710367576099	0.06866417807885977	-0.39669942755677984	-0.9736775731299268	-1.40717482211556	0.5659405574815073	0.3580194106599612	-0.058258496077791655	-0.839000818995313	-0.33344682966922085	0.12074659734281108	-0.18126302911770276	-0.5863437637784134	0.0422317421860177	-0.26157721811056184	-0.4663855421688947
44	-0.402076898990194	-0.5681791887243295	-1.0140547726777949	-0.5171501027401895	-0.274477481149052	-0.8490747191926572	-1.413390394457045	-1.3062506881159135	-0.14170199596868338	-0.6130208953638921	-0.9705533956819125	-1.420338031043813	-1.6959859089947196	0.7343534808691717	-0.1707969303587267	-0.8105279782812198	-1.2698389259702956	-1.9538333366655558	0.7798482159952449	0.24531535742335525	-0.2889654331064157	-0.9106387473003149	-1.452679272798707	0.5745729789532428	0.5228162990721666	0.16243688721176586	-0.7207954507749235	-0.375151752478431	0.1394119110163888	-0.10123477850627047	-0.6268558486370677	-0.044420458264256744	-0.2835209958547655	-0.4841549086267932
48	-0.8731187559971861	-1.0742731067237563	-1.4170236551748006	-0.7411676030519799	-0.5257095681269041	-1.0802025767710417	-1.5068846902949082	-1.3185054030507937	-0.2766115062405574	-0.8735707976220214	-1.2151421277838066	-1.4382936918184865	-1.8772625875760414	0.49500957006407903	-0.40921145574250567	-0.9647983288247995	-1.3102687564193674	-2.0491399713278837	0.5353361354663383	0.20044860193188896	-0.2234896415789924	-0.8694989063244711	-1.387048240974358	0.35318735152718717	0.5406432734190951	0.42261302364461356	-0.4850046026382435	-0.3729478707434252	0.12018983780795044	0.11393590987764939	-0.44502329713997396	-0.11075047375612183	-0.21530896370886904	-0.3242019108693198
52	-1.5595468243324813	-1.829650993496115	-2.01192187754978	-1.1027320595556518	-1.0082207892711987	-1.4749510250999591	-1.7161091522758225	-1.3338947262464973	-0.4729846405962186	-1.335661646331758	-1.6298736292696692	-1.5934867818655045	-2.007039065062108	0.04588231805303684	-0.841591594478579	-1.2621617285333186	-1.445568438694956	-2.105724329400354	0.0764239130474809	-0.06089262276415146	-0.2838038198935106	-0.8998542405297527	-1.2702573505755623	-0.03752351915303253	0.42006373299400646	0.6246831997358453	-0.24413503644817058	-0.32946419632699636	0.11229216279050612	0.42868199836264353	-0.12964168158224737	-0.09976349000776877	-0.0429264827478947	-0.07155298423583091
56	-2.299597734367414	-2.6678614549037016	-2.689805024031649	-1.5239019355446073	-1.5974647958477706	-1.986631865254012	-2.034671301473056	-1.3962599003825584	-0.7087797504649892	-1.8827123594433857	-2.1721076910491584	-1.86738371377591	-2.041251892658224	-0.4328967023887151	-1.339158173994744	-1.6897174077288077	-1.6492469269121015	-2.113869900134793	-0.41129681364167486	-0.4373583782597899	-0.5144765364055394	-1.0148929331905103	-1.1376949519997277	-0.45072650795626323	0.22728455009297074	0.6572634561156853	-0.11931601136600761	-0.23107220174146603	0.16152870614277737	0.7445406894959479	0.17837408139970062	0.014523926154362545	0.20828756637437773	0.16613472956197256
60	-2.865493767179386	-3.3416950618297547	-3.25861405503573	-1.8675628853376525	-2.1063368267285196	-2.4987978872153116	-2.3819131791058763	-1.4965074024564233	-0.922645745332134	-2.3501906335621885	-2.735204451330967	-2.174477333300866	-1.9407480906124723	-0.728002486775099	-1.733536000643384	-2.1829850618560465	-1.8574765873742263	-2.0081546255909077	-0.7092939597341683	-0.7832611779464669	-0.9145960188662515	-1.193923827971655	-0.9874094699725459	-0.7043336612084838	0.05990782737507822	0.4333753574873754	-0.17345200435238187	-0.046814542145550905	0.30009409709504214	0.9368618107030412	0.36577814725078484	0.22732430639093557	0.48727646347044407	0.3267902425621562
64	-3.097912542151057	-3.662992229750247	-3.5583317189976436	-2.0218117186045226	-2.400659316677565	-2.9072990344078224	-2.6735358170719925	-1.602991100078813	-1.0538899871920888	-2.6283292704026806	-3.2237682261136973	-2.436821931408651	-1.7225390629193784	-0.7049181443536756	-1.9136941384636748	-2.679030650050673	-2.026612991938348	-1.742339606654482	-0.6806686503391246	-0.985131380454982	-1.4539807998187364	-1.4071229660747364	-0.8082540610887797	-0.6576846821392495	0.00822123138021003	-0.07128771376492778	-0.37562426829869494	0.24518130657759382	0.549949704212249	0.9163504219761409	0.4032989432166161	0.524190603363283	0.7471095900746366	0.42436730754521373
68	-3.0267245693083282	-3.6345348266391113	-3.581596127050479	-1.986510629406845	-2.496483558073816	-3.207415095814409	-2.9039776251907443	-1.71725999875424	-1.099403140153351	-2.7437734534608214	-3.63056563414425	-2.658535712205689	-1.4927160702211224	-0.3898848881414593	-1.9000754308411985	-3.1706752697047755	-2.18358826085965	-1.3731819356581099	-0.3532539597175555	-1.0218139861057756	-2.0985898918573316	-1.6471959310905586	-0.6250920279933275	-0.2782821350224265	0.12087541788100666	-0.7975549081693203	-0.6201381071646179	0.6208872779429083	0.9316040253960338	0.6865498406242638	0.3501103511553935	0.9037618614267168	0.9703505014716093	0.5253500925151713
72	-2.9050948546495934	-3.49511837076857	-3.5253736883801707	-1.9095748614736479	-2.578175061392345	-3.526980629599258	-3.1845695892039974	-1.9143929433172573	-1.1464369268082837	-2.867612354667934	-4.062147130246994	-2.9495704099572255	-1.4329664671004911	0.02694119133703794	-1.8500901413937296	-3.722612610001331	-2.433727496678305	-1.0863379212608615	0.07811203579254743	-0.9740830039226653	-2.824878208657663	-1.9458379696355712	-0.5238420354015165	0.33780869756287124	0.39090514084350375	-1.6085468490043002	-0.7900361994824011	0.991907236455941	1.4715988598862546	0.372378229154745	0.3141980461294099	1.3899406159594263	1.1848313778527046	0.6978155356908828
76	-3.1196122090731992	-3.6348311809321863	-3.726112356315127	-2.03854321918789	-2.914833299906989	-4.070256222938923	-3.698243847092886	-2.328836196741714	-1.349965330530264	-3.2341155924205807	-4.684170711135032	-3.471938124473945	-1.732150669493012	0.2782294445165781	-1.9835464904296487	-4.428771961474675	-2.9099283144915162	-1.1294984788987787	0.34082329187174265	-0.9756140684291452	-3.610018482630575	-2.3580706060001795	-0.6267455800445116	1.0067366336200385	0.767986116854509	-2.3212981165452913	-0.8270728567222666	1.2282546727641284	2.1981570665174477	0.19831386158464803	0.39727052945925334	2.0192964026013516	1.4565261565627983	0.9689804887149058
80	-4.003252019311706	-4.40639590104533	-4.495257366275077	-2.59967564880144	-3.7080008889994036	-4.9920816295470845	-4.586739051682536	-3.0825340670006747	-1.854823703851261	-4.0031733411808	-5.608067975190354	-4.332653511552556	-2.491508716014843	0.15660624166526857	-2.458541387072809	-5.330523000610326	-3.6863713171393404	-1.6811581807606717	0.2243316167889638	-1.1291223735911957	-4.405112732255845	-2.9206087515525634	-1.0255628798341034	1.54270469752869	1.1901653975001871	-2.7575070788381346	-0.7688692192692715	1.2163945405766652	3.1236720006278906	0.4136097122716996	0.6517307741876679	2.8092997003199196	1.8603061390638596	1.3155002560780953
84	-5.639615521497424	-5.92152117187821	-5.932591423315103	-3.660494795140463	-4.950649248975422	-6.269272311594705	-5.830552086414525	-4.187930573380349	-2.6968979767420125	-5.139941202538033	-6.781946641965366	-5.4829287390561054	-3.647885790197933	-0.3689228584988724	-3.263779870376081	-6.344264014438816	-4.70399903063453	-2.7279694011478175	-0.30205950064690373	-1.4339687788045037	-5.1134447922350565	-3.60780571980352	-1.7097936825499462	1.8462934447404127	1.6177935559435401	-2.7991053987404335	-0.7322913985837286	0.9229658222737698	4.224354256454892	1.1877458065562838	1.0648612949189056	3.730044117093164	2.440802091158124	1.687368269474851
88	-7.759080867251024	-7.936825255382585	-7.815088729200682	-5.048187719951084	-6.378233893503441	-7.647486667398495	-7.193845730738652	-5.483224378093445	-3.740997543426593	-6.382639868834114	-7.955345133723278	-6.686833841607358	-4.95956085860258	-1.119961616549505	-4.189513672741587	-7.249166947182232	-5.7548327300688324	-4.028058518730276	-1.05680095882628	-1.7678747132489478	-5.598140702418788	-4.3152079473265825	-2.5361707146508614	1.9487621735008689	2.0497553296789914	-2.433657163197647	-0.8551316239701506	0.4255751658662151	5.425227151524786	2.5128724511598794	1.5637721975899406	4.6945433498112354	3.175260058969323	2.0365440794071707
92	-9.789303754886435	-9.898312543673715	-9.631562208653834	-6.376491530531766	-7.546281795522665	-8.707609154651143	-8.280591943815194	-6.6496777366596636	-4.700514781528337	-7.324406128510826	-8.751965500669524	-7.590269546418687	-6.075575813212891	-1.780359978949237	-4.898094164879595	-7.756208400217261	-6.545473082229152	-5.194397436378815	-1.7198950008838179	-1.9363841961609045	-5.727056011999314	-4.887914168414818	-3.2692804254006456	1.9872224280729556	2.5120351251121886	-1.7745095446607242	-1.2299591271818222	-0.11405986518672745	6.598665697603886	4.157765854828578	2.02873086417116	5.573332772488746	3.957185019992589	2.326408141938274
96	-11.050138445611825	-11.136799784199178	-10.761428805837816	-7.180491429319733	-8.006565073779507	-9.030968643275656	-8.68688676548227	-7.315975170737922	-5.238584505206463	-7.57883260720806	-8.82471749938721	-7.863831500226301	-6.661771757472636	-2.0374593683300306	-5.066895472131635	-7.631957988543658	-6.814868432958906	-5.858257278910494	-1.9764649818110531	-1.7686591103722116	-5.437048421483954	-5.184040056491635	-3.6789173987011283	2.1226572936825536	3.0232024116481533	-1.043579933392741	-1.8648632717733014	-0.5240891562581315	7.579106311736178	5.703240857030145	2.30951237095432	6.225140079040112	4.609818446918456	2.516622775399678
100	-11.013904543725767	-11.130915613681807	-10.721332522980065	-7.10519312018367	-7.501430492535318	-8.386739709660478	-8.178884485575887	-7.20961902705503	-5.1078791489385615	-6.95316265258045	-8.019350985307284	-7.351675491845298	-6.5304832293617245	-1.7249048904738302	-4.537497985827854	-6.816616041139309	-6.451054079934578	-5.830189690175206	-1.660735364535684	-1.21293282202614	-4.783792960486781	-5.142851816544356	-3.6460509208177996	2.442631476910951	3.554407826032697	-0.5151595460282962	-2.688935511475861	-0.7057740074458446	8.189831713026276	6.659174425478461	2.2484235706782565	6.527588827818739	4.929419505071502	2.5405161316625957
104	-9.517511343768446	-9.719199156064409	-9.366226172641614	-6.0596265639855815	-6.080493434813024	-6.845846158863361	-6.805889589292611	-6.281105502482798	-4.260191429826326	-5.542524323775026	-6.460485442062866	-6.149787887305309	-5.7152509545034835	-0.8978235698920268	-3.3959627065749443	-5.4713539939071065	-5.5475048878798825	-5.1740307677290645	-0.8307207205779553	-0.37967315220342	-3.9426896472569695	-4.819086539499236	-3.2219428934767045	2.901387207335346	4.01046084345122	-0.43045768033066406	-3.5903632550190663	-0.680604694555442	8.279036501009063	6.631378633922662	1.7209062532845238	6.399352057512623	4.749187934329033	2.306993001835315
108	-6.835012895493495	-7.168089848540497	-6.953988057699216	-4.263227928842097	-4.084269990145973	-4.762748706236934	-4.891865717934871	-4.737241256197574	-2.8719620632140805	-3.6987957861021123	-4.513528812456975	-4.573642719165552	-4.454668987471304	0.19431097756441224	-1.9445638607520692	-3.92625712357104	-4.369956005507449	-4.159268368710283	0.26068505578981627	0.4919496762252927	-3.15162824788702	-4.362771500062942	-2.6084620886748864	3.330909005338432	4.248486984970623	-0.9087672806683822	-4.460247982208195	-0.5759909138442246	7.760222892242037	5.47929857777987	0.6917772275625125	5.813519463166513	4.006923188583443	1.7415071681876508
112	-3.584382763395982	-4.0716137783249	-4.04829119613891	-2.1635041182254215	-2.0064165541536454	-2.6347472601173116	-2.9088632987013585	-2.965628854893488	-1.2741800514476165	-1.889839167591896	-2.64016460705798	-3.031344167685337	-3.0947132032461706	1.2204433648767457	-0.5787985906292807	-2.551117413755581	-3.2486641324992056	-3.1263508717759123	1.2804764476872128	1.1312717170763695	-2.6169893675535034	-3.9515328307520985	-2.0696616120536593	3.5204691798018555	4.132959832247164	-1.8878791284580507	-5.215148912614264	-0.5580611214853182	6.651635630026303	3.401984921449266	-0.7305393200549796	4.8121194717983204	2.7932281423618393	0.8535901882555059
116	-0.5132856356059338	-1.1340867252327145	-1.309574719937355	-0.26506683163477146	-0.3033789388626429	-0.9089642740188676	-1.2955188718511996	-1.3869410718233226	0.17676545634940258	-0.5175217376994257	-1.218158718848273	-1.865503544865862	-1.9580953071748148	1.9089343499625087	0.37136831785854296	-1.6114181239451713	-2.4483227667983156	-2.3437478483153935	1.957696909730142	1.351715322896451	-2.4269373355626356	-3.708618631536296	-1.819644923384354	3.3242535507196154	3.6046938805169426	-3.122545949681637	-5.790344700499193	-0.7481606583779521	5.101600157255196	0.9088680721224429	-2.2753567638170438	3.522385349917257	1.35712301388469	-0.21046975201874007
120	1.7449014142804604	1.066226241280816	0.7299949508356204	1.0498717996793456	0.7589264492901022	0.16920387702183692	-0.30727583092357447	-0.30641448420409995	1.2219256131792777	0.2198510015420594	-0.4136233617353187	-1.2395399777588292	-1.2410045830865521	2.146910185161848	0.7607424239978892	-1.1804165810346272	-2.077996248720849	-1.9285694312041335	2.1824765150281067	1.1277160616059156	-2.518005126317819	-3.6505257991176587	-1.9436187695068967	2.7389721801269964	2.7270178726010257	-4.253967274416015	-6.121623023789993	-1.169310924438826	3.3789627466721863	-1.3301697935853087	-3.5607454686863735	2.158467525754617	0.05284509421953955	-1.1790876358780704
124	2.849913351493015	2.2351238671138125	1.812428231431749	1.6317557055283451	1.1593271464641546	0.6009678229417781	0.037959109895951325	0.17049094991554478	1.7634561017336143	0.3647595932811122	-0.15992021520292973	-1.1132975788618622	-0.9769495104919662	1.9984629103748983	0.6596418006455081	-1.143240687344918	-2.075816864494784	-1.8559604836335473	2.022785420079115	0.5993289932378163	-2.7101910045862585	-3.686785211791616	-2.3833177029518176	1.9124634217614598	1.6832721190869384	-4.928009974435413	-6.133999809037065	-1.744977469807002	1.8204550697140955	-2.704285376396823	-4.205852974763322	0.9939394568144272	-0.7620878200363624	-1.7394794181775115
128	2.8102965283966266	2.3928580223704796	1.9749572227206216	1.5669900139346606	1.068777916117208	0.568984268659278	-0.08932405687668181	0.13153801825214984	1.8510835124010483	0.1345165815533455	-0.237544834014057	-1.303042766142201	-1.0689461204243393	1.6431013304234063	0.2924591593511044	-1.2792456117757085	-2.263387197502049	-2.024955744399197	1.6611216026328532	0.005672668558193138	-2.7905654836771556	-3.6670188811225266	-2.981964103799389	1.0778336497750696	0.7201929074224104	-4.916514384254475	-5.7507648322824725	-2.341771119881053	0.7398543339169594	-2.8695712017088866	-3.9659330744748966	0.2936394505239667	-0.8466728904328521	-1.663552756877814
132	1.9216026019217962	1.7961140825700452	1.467300888171642	1.0946674319286132	0.7369323354235129	0.3155046097419101	-0.43935480602917876	-0.2179017806512135	1.6194620091558805	-0.20055893012908965	-0.39939188856377594	-1.5811507661953559	-1.3575829233226158	1.2770051923935477	-0.0750829054009681	-1.3716363872229862	-2.4334967074943172	-2.325299257129672	1.2945603099563419	-0.4170747388800014	-2.6025984221552667	-3.448812714452375	-3.5568363576732938	0.4489662933935229	0.0596660746617699	-4.192801464939096	-4.923104750601361	-2.8284656930083467	0.32483059085850097	-1.8667653751925712	-2.8378713059301566	0.21964256409980612	-0.17288233296137936	-0.9208238101598846
136	0.631724177196096	0.8084072450254657	0.6238598807796415	0.48919749136438234	0.3838057210291984	0.036700144317474405	-0.788174329198253	-0.6516683085201009	1.219881889124379	-0.4283248175297288	-0.4702934312867596	-1.759948964443885	-1.6843383269699888	1.0305652592388932	-0.24140077768413123	-1.2849304643614532	-2.4238686500387674	-2.662874215078647	1.0521981689590556	-0.5225834833302617	-2.095644230319969	-2.949118845169547	-3.957207908176125	0.13068065014270405	-0.1797448243133007	-2.926396124127063	-3.6593940165635304	-3.1162476460934125	0.5641464576782977	-0.0976193395772577	-1.0774627896762135	0.7489683609172642	1.0455833647078732	0.28789147661956416
140	-0.6095882638799439	-0.2195343518674896	-0.24623022911370288	-0.03191431603718762	0.14487442337652157	-0.15784345527374768	-0.9903140639097621	-0.991589603304735	0.7805988172850062	-0.44635140783150606	-0.3767771413350298	-1.725241656715961	-1.9223657797915736	0.9365037059981348	-0.12105542390777387	-0.9787330006684326	-2.147528642954476	-2.939584247796769	0.964062211463682	-0.28755173014520224	-1.314586278457417	-2.1573619788061142	-4.086256970579189	0.08782188572168384	-0.012820001659212425	-1.3986470663997859	-2.0341403432987377	-3.1635773102042632	1.2462571827894773	1.8338252259684862	0.8879560805790188	1.6534743267274783	2.414982074362351	1.6004183251982238
144	-1.465949412459417	-1.0218698952624337	-0.9171212888450748	-0.34257933410935926	0.07710227350795693	-0.22050347868560707	-0.9734953021266638	-1.1271747322234322	0.40525549547875084	-0.24734233257311433	-0.11282690585975844	-1.4237827026659753	-1.9752095887859633	0.95522582289804	0.2660913460689066	-0.46974840641630944	-1.5820524652592416	-3.028269760115584	0.987717089543455	0.21462199037724472	-0.34661400230634126	-1.1146763535013255	-3.8923766514733527	0.1852836604208756	0.442747860029096	0.11915330558734279	-0.17141312317485896	-2.9568836614341225	2.040341848944091	3.349698535091408	2.6135535174187456	2.5698556835141795	3.498342028368463	2.635258906386772
148	-1.7733665659953972	-1.4408491813521347	-1.256085154223099	-0.39316695829308496	0.19820782492186034	-0.11562424123897208	-0.7047145348876369	-1.0010355685709558	0.18768504214584603	0.13257257606890427	0.31637138048404545	-0.8349337556739773	-1.7676553681567282	1.03044497706604	0.8454756119362716	0.21877211277086517	-0.7418501954422244	-2.7834055353462337	1.065008518391129	0.8759622551736618	0.7365437727452031	0.11895402490862	-3.3536975299085823	0.2716709964568884	1.0397024128413124	1.4674011431839011	1.7881467297230345	-2.4907262262402075	2.631608717949943	4.104421128400761	3.79371308322575	3.141453019793813	3.97672532984926	3.1421923558057405
152	-1.5463370045721316	-1.4246871435435136	-1.2143433063365436	-0.18062011851961737	0.5170989619551013	0.20430198260224433	-0.16938288467080667	-0.5932398423475808	0.21182334369584932	0.6579958779888361	0.922650036866547	0.039150778105356436	-1.2546641794952413	1.1343526811570308	1.538523431708253	1.0777597400157346	0.33643391643459786	-2.1017231888159733	1.1677449912152404	1.6107091863020027	1.9017146777776726	1.4819031916397187	-2.4791436132781177	0.2580594115894447	1.6744042592689345	2.6303973131525864	3.7137973214798863	-1.768323893850841	2.8493895458760514	4.083181370916544	4.350826729280111	3.1674795070785664	3.7638797664980936	3.087771646333154
156	-0.9469613408975741	-1.0231683228409427	-0.8243068435838034	0.26340672307267865	1.0282180283335645	0.7716898302622113	0.6154713615137112	0.07287547718960712	0.5238825665598615	1.2993254628755244	1.7122648911160947	1.1536754340608213	-0.4525207567710844	1.2747650114299653	2.2814519347763866	2.0882306046215233	1.5839310844485293	-1.002359387728075	1.3046468463383465	2.3742053448815623	3.1291904370458425	2.9014074729145185	-1.328382846339454	0.15060144624833846	2.3189411104782445	3.687391033399583	5.4897594313301195	-0.8236986973946954	2.7269740035825816	3.5586919694697565	4.42022847013272	2.6850292614857234	3.025139085761306	2.638834469808531
160	-0.22944994212871003	-0.38332873486058766	-0.20514459856214542	0.8617823102173973	1.6794950919663476	1.546216841608568	1.5662474592719235	0.9086725092834287	1.0885530682737015	2.004693979923986	2.633053772954229	2.39066027991387	0.531359432786254	1.4672409258991495	3.011843673731275	3.175239554971572	2.8786971496381164	0.3329994372066663	1.4928677044370482	3.1418912331410955	4.361610878422805	4.27044485921328	-0.03260445214026735	0.02665265270298936	3.0001180096220854	4.716298091425012	7.003407937487772	0.253959535911243	2.4668273863499843	2.93870853635794	4.250685204264389	1.9446924875751699	2.0954246468091706	2.063105577982077
164	0.3299492589249538	0.26792469553060166	0.44074231274907955	1.4771890602963351	2.3469269216411073	2.373806709018311	2.510408871988243	1.7463780597463978	1.7639603570271412	2.670600407533505	3.5371651560170263	3.5500564485565005	1.4976502619124612	1.6963261323062384	3.6463305858103796	4.181118954592615	4.039413441949899	1.594312067774981	1.718535538149213	3.8712456128609323	5.467290864492316	5.4357366424650495	1.2090841501227099	-0.024483241079028197	3.7431590462592705	5.707157120600579	8.13395212027185	1.3187514510238052	2.328123802029157	2.5790023738597387	4.074616898739681	1.2860283819154439	1.332473393890772	1.601673479804735
168	0.5086502419980997	0.67275512048621	0.8654884078108845	1.9243479918532194	2.847769730053725	3.0065736694721195	3.2109687247269454	2.363632434599418	2.327438110197392	3.1447110096690105	4.2002830399324145	4.387983787902119	2.2035109941162347	1.896893615701832	4.077349175649286	4.8909377928273505	4.855447280069055	2.452780478960523	1.9174891661869424	4.4803352242839445	6.252675040671033	6.21892402986147	2.1729462091897416	0.0439378059291163	4.520618427307239	6.536494715400013	8.762376763155446	2.202196830911545	2.494557135959539	2.6462309293693242	4.010558595068405	0.9742848252493653	0.9718247627517617	1.3755631412108749
172	0.20385172911674782	0.6215930565399118	0.8511046149700029	2.023945564882094	3.0017468853503946	3.191828242826418	3.442524186025869	2.55320715259613	2.552111619227924	3.2752301610271033	4.403635967580619	4.698479163705107	2.4526219306058206	1.9751231620512573	4.204944123142082	5.111563192813538	5.153647886615976	2.7005171707636366	1.9960306832463346	4.867166030039468	6.531470759113869	6.475083811624397	2.6865546635509636	0.22018727604587196	5.245658861267703	7.022314530762792	8.813515640894984	2.7749779154334293	2.9968144817983946	3.0908174436734868	4.044087876599963	1.0926299067567555	1.0559508773846396	1.3691251243356497
176	-0.5340023623335669	0.035258378744513486	0.29701375886314946	1.6824369388064542	2.7154097488510365	2.790908329593038	3.088686696837436	2.213221544399946	2.3051197470640434	2.98704575738153	4.04090069704258	4.403647888509544	2.183575147837833	1.8613067818378226	3.991853703910796	4.766791331653974	4.873824584099805	2.343366855426951	1.8839051675916192	4.963754164561231	6.218514426743608	6.16350124710345	2.703025572628031	0.4617004680897658	5.817454800223227	7.029402715101585	8.312717416756547	3.0059299393101706	3.7254483605740054	3.7261459733346953	4.08507775228993	1.5405557116713837	1.4622013531961138	1.4859162531530241
180	-1.5168056449741447	-0.9901174877917891	-0.7225431781646149	0.9552993750295071	2.043227905836829	1.8648098660117174	2.2124724332262997	1.411754127752802	1.6209269721114712	2.340647691539163	3.190833560516918	3.605905285314299	1.5091741046949507	1.5637090166666383	3.507897844994728	3.9549040694520827	4.1137299433797	1.5973775346480397	1.5885626037544627	4.792680251418933	5.396341787065244	5.392035947537541	2.3339698255739676	0.7423390727374378	6.190722449885065	6.564245684263055	7.420810203889988	2.9846661015495255	4.517528999367041	4.357466686691326	4.057324399241104	2.1285343116425692	2.0024847933756083	1.632933850934001
184	-2.4825761255527765	-2.2024812642756952	-1.9651396224951645	0.05245339857209671	1.1876209944304392	0.6758381707294332	1.05792283744741	0.3849231591043038	0.7065161448760693	1.5346370896694201	2.1102902835972	2.5702626640276782	0.6820301396316466	1.1889296740078237	2.9302377626824274	2.9313895628351587	3.115279189827547	0.7958083728725214	1.216000792294273	4.486406791804015	4.311961163124575	4.405308712327372	1.819391126807541	1.0828093262990672	6.422120078085022	5.802750095975685	6.416157229436746	2.891309969277903	5.258711324766243	4.884434687680195	3.9631485838965994	2.703250639766135	2.5320637162176274	1.7780271723679075
188	-3.186612836421739	-3.2776024258831744	-3.0973431985856	-0.7284672241892395	0.43042921911285564	-0.4047615517887443	-0.0264663993644074	-0.5403425679869625	-0.1322356012105174	0.8412458875397546	1.1428908080809699	1.6374058682109183	-0.0030528653801641173	0.9099275446806506	2.489069693956792	2.0178685137347174	2.19032906932957	0.25162362988839304	0.9390865540636657	4.249029148818131	3.296585074684735	3.512624731732061	1.4420349561523025	1.540745731278448	6.658612711307516	5.030861365014361	5.617877469184143	2.9245786593031604	5.937604412346636	5.326393113993556	3.890415420246615	3.224905721151719	3.0081348343241348	1.9567907999225542
192	-3.485818138858457	-3.9378676315068146	-3.8167168997722856	-1.1205487222990602	0.020871285296435702	-1.0458260748207857	-0.7156015616469541	-1.072603222999945	-0.6135968550449026	0.4972959446272457	0.5811085686317189	1.0998126240619241	-0.3272626689754532	0.8909804202472863	2.3759658276652034	1.4754564724863783	1.6114547211969708	0.14203408324621103	0.9225141382768022	4.2702889334629415	2.6394016676067813	2.9798142834770585	1.4197051489271857	2.162750477098784	7.064523679063206	4.5234527473684425	5.274352537190132	3.220389358019201	6.621332151861845	5.765208706605136	3.9592182536300333	3.7534394169455956	3.47125243264218	2.2293524685840724
196	-3.3807721052644197	-4.05379580427931	-3.9659030337340058	-1.0053173278222303	0.07047844660369432	-1.0926858159134136	-0.8336448052339638	-1.0771218511089589	-0.5989499076980019	0.6003662332635789	0.5465804920701817	1.09265780173044	-0.23249317646932371	1.2032542198319482	2.6554896764467784	1.4017440045252065	1.512614007945543	0.4641902435027149	1.2380361525749428	4.6307229878813025	2.473102324917516	2.9308404848488743	1.8221590472946323	2.928450577017994	7.722328643375309	4.421296585364399	5.465923772363199	3.7978925609068486	7.369038563243111	6.246795638525232	4.23849867704296	4.354629028770023	3.9670059580781447	2.6163010531173754
200	-2.9986421986211726	-3.683103075265268	-3.5868632702866923	-0.4681310343844127	0.5073201047486504	-0.6246483906233844	-0.4189423014077112	-0.6299702509233636	-0.14956507048992296	1.0640159818488353	0.9483154988188073	1.5499633511511108	0.16921210246279517	1.7765415862052765	3.2278461374803546	1.7027828650398757	1.846323247062725	1.069603082817395	1.8156795455867483	5.251609312149896	2.72895263936555	3.307380667919198	2.5496902401446824	3.7254416848538074	8.567048051185225	4.6727905155460885	6.074479564588951	4.55739353936649	8.14615915149103	6.711187822563936	4.687509048071183	4.998477446333915	4.4674763566711455	3.062392227070449
204	-2.528789990716249	-3.0323553008767536	-2.892560713140712	0.23891414641618605	1.112453815512552	0.09276340133373087	0.3002009384205323	0.020703684486331052	0.5062357174489895	1.6576036172978024	1.537924524239062	2.2439780178635527	0.6610094888210711	2.4182803569773146	3.8676919839483954	2.1531412547109356	2.4166114269278176	1.7474240020502756	2.462427848320931	5.923345550840889	3.1848001399694064	3.9070672890247633	3.3821606550656016	4.380003918079737	9.40052506934457	5.0735497346575595	6.841287118805291	5.330125795258546	8.805599190414483	7.002340775930408	5.160963045441501	5.529822812424038	4.85127352443384	3.450971117843532
208	-2.143463844609636	-2.3644885957148105	-2.1734199469052204	0.808754084452538	1.6200386244879816	0.7341406326832163	1.006425616584386	0.5657541737577653	1.0791197987967858	2.112511629493081	2.0318233915528783	2.8876435683777357	1.0233515475185195	2.8955850528089795	4.324224461128281	2.5115139420995884	2.970750562796817	2.305786842246685	2.944356434064017	6.403172953651658	3.5812485127630262	4.481310356270008	4.073805321898468	4.733332622021652	9.984906171384774	5.382605539083567	7.487277965715581	5.951707824939202	9.15513608528394	6.955734712205304	5.474898324495082	5.738432869728158	4.96080826460529	3.6577973273433186
212	-1.9379442881293167	-1.8947018337096848	-1.6806632237917063	1.0160096858122025	1.8353915168199393	1.0585612031913425	1.4272931778158038	0.769817648374543	1.3477249111481029	2.2460775318658204	2.240803236072252	3.255609504109478	1.1249098749369753	3.0438234729211637	4.438016880274577	2.6351945333705773	3.30914258121431	2.621359341678823	3.0957205217403314	6.5369453265133775	3.7492670918218525	4.847611415068086	4.451021183220259	4.724009501928003	10.16931245143677	5.454653249320366	7.83915517735159	6.323894007928966	9.07533738706012	6.513484461551859	5.500746713101695	5.490977273429095	4.702177035857637	3.6154007820402034
216	-1.9156291436467776	-1.720555539555551	-1.5377008876124294	0.813377735945381	1.717555399373001	1.005454180086289	1.444236990143325	0.5670292959202258	1.252384897884785	2.045916075309412	2.1471631472736363	3.2724244511953198	0.962045071080286	2.849913351493015	4.220936764550679	2.54087137534456	3.365857592667798	2.6492397718299894	2.9029207156322556	6.345683558655203	3.6890656854949646	4.965461718420445	4.470919597781838	4.4326105005885195	9.984594319884096	5.322256551656588	7.90155408771651	6.4394755200883225	8.622034051107434	5.801615700379184	5.2410616742370735	4.850603568228257	4.131813515721738	3.3537554656231574
220	-2.0157687613138715	-1.812402959062428	-1.7155979828435193	0.3404549649702831	1.3880506718876597	0.6999944430797909	1.1292860479453355	0.07296723108942657	0.9105769372838389	1.6723513560987637	1.8952914428543144	3.0301325244694017	0.6342731698234799	2.4664037165359907	3.8566317460917983	2.383868211449573	3.2232627787272783	2.4078490673307997	2.5190303262053675	6.027469142954711	3.561014404842921	4.938745009350936	4.216229428136782	4.058345784431396	9.647798513849658	5.182510362891982	7.836599807027231	6.3608832198717105	8.03933236953418	5.111489759891359	4.839519965350966	4.092361439863093	3.464935055567676	2.9906382485223624
224	-2.1648554747283573	-2.0599393792596024	-2.076095098975893	-0.15573856195230268	1.0638117763363502	0.37267157341326645	0.6965934020574939	-0.48615136619850435	0.549216686292652	1.378233190871492	1.7066079335040343	2.732382290617267	0.27822697092382614	2.1462697928599983	3.6180422214714008	2.3710057675580973	3.0586526316666824	1.9606186102003655	2.1985359136386835	5.869517311535874	3.5971324352998275	4.948514449023536	3.8369533918781755	3.8352014921633604	9.467786765036566	5.296841608025686	7.866184214758935	6.1722082935902565	7.665060500819702	4.786908137633457	4.522580612208291	3.5926184563530943	2.993015997005739	2.681718342686099
228	-2.3184568823453118	-2.3409280717874785	-2.451355927953988	-0.4432463932767387	0.9509866213630277	0.23990859030710796	0.3959545185105801	-0.8860488511603111	0.39148872991902617	1.3877950871715081	1.7666420891981047	2.5953924590386945	0.0011488918651690948	2.1285169070863383	3.742086401074601	2.6545026235317897	3.0524933261097233	1.404162164957639	2.1822769586779023	6.113749011816465	3.980978002033958	5.153365599019032	3.472103348548845	3.9288687606799253	9.6992578261587	5.856884464735494	8.14970586626479	5.9327974169669275	7.772892932340664	5.069888102128962	4.499133098687167	3.6464095023598633	2.949256174270763	2.5555868084281346
232	-2.4706451830474987	-2.5746462280119724	-2.718595736315527	-0.41003468529174253	1.1498494119223488	0.40499821203022746	0.39858162302474504	-1.002706882806238	0.553102372680394	1.7912846758439571	2.1388862079024435	2.751354687419952	-0.15565544327537326	2.525857203782125	4.318290699546583	3.2579348005055846	3.3021709835604027	0.8569821097671754	2.584055178793881	6.838794690985656	4.754458892262503	5.606865868717559	3.190517179063249	4.362253178073283	10.41606137506916	6.882277471332416	8.699523903817063	5.653939232856524	8.42971036690062	5.979000553294367	4.862400042655261	4.305706490136216	3.3885192785541864	2.661784403756325
236	-2.633152001408571	-2.738686793088532	-2.8374864983444583	-0.10186198328049717	1.614763732647967	0.824190733736074	0.7273740154021741	-0.8506560900192005	0.9965241526239415	2.5053064759897725	2.7445905139293396	3.198113433392825	-0.20957791752353996	3.2712025559805094	5.244433866611372	4.068342675427885	3.782801618562137	0.4428625989699989	3.3363635455773464	7.917429904021642	5.797239765789402	6.234309657569208	2.9794623776551927	5.008460985890008	11.470118493684778	8.202757814678211	9.379057860536463	5.311196313799991	9.450707411747167	7.28842161245788	5.547330365480422	5.338001714580702	4.15428398990817	2.9585847779917174
240	-2.7990038324259925	-2.846859686339592	-2.8378748822088338	0.3224945954286841	2.188550228315384	1.3494566644930348	1.2634023396065415	-0.5481709824073526	1.5628640612244356	3.318895570004994	3.413847914659671	3.81629513730692	-0.19882054576744318	4.1508874788388646	6.273352607147147	4.895502078094147	4.371343601634317	0.26200681858669583	4.223627079790468	9.072334266645338	6.88591573884032	6.877810460845647	2.7813529898039304	5.653631196053102	12.558241812470733	9.531022047774862	9.979919408396876	4.880304324226268	10.479908916717044	8.619947411708404	6.3596343833575295	6.333073123201201	4.951373564616904	3.33905481449145
244	-2.915970079689275	-2.907446138670757	-2.7719705034842352	0.6898661238419042	2.6907730034603574	1.8191139652100352	1.8206421090889284	-0.23423290193547425	2.0620498605164808	4.000180234346317	3.977170457335319	4.440824974292145	-0.1399793770355402	4.905912863742911	7.127993088845589	5.565338120714497	4.918331133822642	0.36006072072675255	4.984214293293754	10.001442883989506	7.79905555663374	7.38293169064944	2.5535571510693673	6.095091327537399	13.361185993793104	10.58644864270538	10.333510372775141	4.374079693241178	11.15332409903783	9.601397490102062	7.060332280453183	6.899285299048264	5.4835538725689315	3.677802553428064
248	-2.8894290851121194	-2.8901543544279154	-2.661930077507788	0.9100148654850261	3.013365976354995	2.1463248675516318	2.248331779525534	0.013654296251930348	2.371629708978031	4.408978927924795	4.349624622807316	4.947678553487316	-0.008058696033575924	5.349812494122417	7.627702693754597	5.999524101368771	5.327082620522577	0.7087894064174185	5.42948196947669	10.509921047378574	8.41266820690947	7.677970390008299	2.312099689368198	6.225863917844437	13.683827365659177	11.206231088955521	10.393438312992489	3.856241216460216	11.261375398813854	10.01309964512951	7.460973720786876	6.848890764110801	5.584713921752003	3.872097005604754
252	-2.615435355258843	-2.722144120019337	-2.4734163221854	1.0200626824374066	3.176327697363844	2.3608012139797356	2.5079908307650998	0.21495002453893788	2.4916627344165536	4.56093882362878	4.567000854405711	5.312062726914259	0.2505305701129393	5.446753964977516	7.766315917434174	6.244007094831101	5.599344716240211	1.2132211892968352	5.52295778787472	10.586404773686937	8.741024948939334	7.80476997312322	2.1326370185413905	6.067748054443593	13.529572452718554	11.393461198651268	10.246461842416304	3.4233367356653774	10.831076594663438	9.855293249043557	7.4862179567155716	6.276103957543032	5.278651700997637	3.8640282056525916
256	-2.031575674649817	-2.320416444642	-2.132337326388216	1.1540154189537617	3.313211194256406	2.582757704889686	2.6850619248309777	0.4601232993906685	2.5300416882533723	4.610982883255848	4.757329928784795	5.609183297300576	0.6816840750649544	5.311012731494547	7.703596572499751	6.434226496664075	5.8248724790375075	1.7483612254823577	5.380116449124031	10.388762447830954	8.906496025486891	7.887134532088853	2.1082088894068987	5.7412104461676785	13.076006856329517	11.285147638438893	10.051597569837	3.1650948444564135	10.087753270429308	9.310027098992	7.182209950433558	5.48460291431433	4.738379943328488	3.6438763049633045
260	-1.1599985331812095	-1.6426098305238293	-1.5735406835882269	1.4580202065849661	3.5938107876641707	2.946987144659182	2.9315359518423576	0.8434069135352751	2.6319851808853936	4.765863406546453	5.066096769893662	5.959691509458841	1.2851868835426297	5.13329933777819	7.676603774716339	6.7179751226566635	6.1230101430797035	2.2076826039842428	5.194030271767926	10.15298173248386	9.060577369702367	8.056656817122276	2.289677375734623	5.3957714898254725	12.573600737297678	11.066379519179218	9.945948575657937	3.1240041177077407	9.328123069100121	8.630941369200178	6.676551801990984	4.817247855421847	4.179946412023554	3.244647256288644
264	-0.1206623387270532	-0.7297111731225612	-0.795210001845132	1.997633332931009	4.122467507444553	3.517379036605922	3.3700344477445325	1.3936910594085143	2.893438808765326	5.168936239543685	5.572630391356486	6.44955061237856	1.9959407994422402	5.075016008915332	7.874373416093239	7.173994523055618	6.5676235986832365	2.540622227930028	5.128393637106982	10.072361920675688	9.298789000875843	8.376349428009465	2.644592516897875	5.138856874843016	12.221794097560904	10.877672167971088	9.97079751358348	3.2754316247259356	8.775629975097083	8.02291581989301	6.116287216003172	4.4824094659168905	3.7530791664734826	2.7354743411618285
268	0.8941543675735625	0.2821142368346508	0.11107056559891872	2.707238905747276	4.865621554487947	4.237510193616501	4.01278876245169	2.0440072961699443	3.305569640396915	5.816428169824208	6.23959444378023	7.068938237462705	2.6969246796228044	5.187151895778212	8.338846185611477	7.766392211379293	7.1367082415640635	2.7647833754353646	5.2353119717979775	10.207618687607146	9.613359427022546	8.803840614979471	3.0618026179258195	4.998258578078852	12.084609001166541	10.761618587026302	10.058703397150602	3.5399210363659033	8.492130258100447	7.572176914170665	5.618174538732953	4.467821109935656	3.486735335129945	2.2160885278064035
272	1.6792931514303584	1.1939307421104315	0.9759767030870432	3.4088375482325017	5.6487860537008325	4.943642603790475	4.739644038631694	2.654475920650998	3.7577698135868842	6.548440916694315	6.919960004501437	7.702672938926644	3.2573974050296464	5.394946561543864	8.941398598030608	8.355603196982743	7.712919215756243	2.944845907405677	5.439624295806063	10.469181034358874	9.903880094318836	9.211343742002382	3.401321164126723	4.931776034301392	12.08257195283184	10.668245288617028	10.08319089251114	3.8184132479583104	8.383459070020324	7.25181625442652	5.246430860624885	4.580857742188108	3.3110129749626394	1.8025697424200793
276	2.084963554840343	1.8083016826750777	1.6087031323825067	3.889646758749532	6.225521548765712	5.432214723223453	5.346768842549291	3.075286380632865	4.095828045994478	7.1175055324145475	7.416551094403671	8.177403429366247	3.5785665421734842	5.551385388663543	9.443658804892404	8.758503891766297	8.134120920625428	3.148458234467289	5.592997536843394	10.67326161550866	10.034939740594389	9.449358916267174	3.562508097237221	4.871057498077739	12.055004089437087	10.5062303277834	9.937712644282247	4.031738271070839	8.284650781695571	6.985021573551039	5.017519461361522	4.585394847736956	3.1337690274273493	1.5989683826130783
280	2.0683436341517134	2.000769133284725	1.8702473593222688	3.99955676976354	6.3870954352291145	5.54847620516869	5.64090965754152	3.2148671069039927	4.200516213302187	7.3017735296910145	7.565991859407228	8.341358163754549	3.6265482810965315	5.526715264671874	9.611320471339218	8.828091599110136	8.26731298266708	3.4012741956667587	5.564607129352817	10.63811204131762	9.907070134899161	9.41838262087419	3.531524649286882	4.770507323618468	11.852599114056998	10.20478341387163	9.595578169438046	4.1441283121384	8.066343287129557	6.716002447338157	4.914831149090268	4.346886147014669	2.914695493968616	1.6559410053406352
284	1.7098077492460777	1.7698649123329733	1.731548424163722	3.720536222601178	6.060822471575336	5.254167543497197	5.53030870948702	3.0783226412300575	4.043272485061494	7.008586865849941	7.308665733958281	8.13582704397317	3.4403827103537856	5.281877981201894	9.32483861476271	8.516133286909476	8.06832120765679	3.6659665015170293	5.315509782722206	10.270950291451156	9.504446005666667	9.111680007817974	3.381403676078865	4.632609832511548	11.410881967345077	9.751695608313906	9.118039108143716	4.161837567312195	7.700281600584293	6.443537218991642	4.898847567587653	3.902166118306547	2.6892387799077127	1.935921068072169
288	1.1852829426403828	1.2440881697715769	1.290429708083836	3.1754879871303685	5.346768365712133	4.6427979352079936	5.065493094052901	2.7592534949256446	3.694040289135359	6.316981299663948	6.713076097705653	7.622074584790536	3.1124024312593708	4.887957083758948	8.632345177790384	7.891318301304364	7.598087768444846	3.854746570391602	4.918225752810945	9.604669546673392	8.897868133968148	8.609285332877901	3.2248921312927443	4.499021995629587	10.77118012569845	9.190720534962166	8.609233834464947	4.11133192931715	7.254394036097257	6.202202304439822	4.908061968809506	3.4234089764946627	2.533105366987092	2.306336397070127
292	0.7043977958061002	0.6413426383038612	0.7397632580199727	2.575827115231281	4.476488102101274	3.8997440239675694	4.4132881053125965	2.3955585896091445	3.2846302903216076	5.4420900207449066	5.9476041643660675	6.953484994498582	2.752851717674351	4.4828853493995755	7.723811606933577	7.109268170527386	6.991840344896128	3.8689832589695494	4.512503612569426	8.773613907597289	8.20787618472144	8.03258512376264	3.1493079582810615	4.416617859179922	10.046564076807716	8.588269212020318	8.149957636283686	4.014957894678879	6.831216318049467	6.013039573746757	4.8615245696350105	3.10418557336996	2.4956700738839754	2.575885766201592
296	0.44009554275025475	0.19736105153799666	0.3014500431556141	2.1365139430463724	3.7155783082612786	3.230098239372862	3.7817983531838104	2.11592029990989	2.951099626719722	4.641970145903443	5.215672956649807	6.310182078642296	2.455577844142059	4.194765080351619	6.844098550682959	6.352140410598129	6.400411112838318	3.6512296107613897	4.227224816140027	7.947826842268872	7.551930408484478	7.487894516159581	3.172573558426789	4.401916969629636	9.358570075248835	7.99448774226703	7.752756099200586	3.8805131814257905	6.493954642112642	5.843676075486615	4.674621570228965	3.040179244948797	2.5494809086327597	2.5673515731841983
300	0.4785512077647053	0.09081286169012263	0.15368679127037965	1.9983807751746052	3.2585937894565573	2.788830034844257	3.3372368728303905	2.001780266476142	2.7846133638649126	4.113688935384197	4.6837282062533365	5.829720959249875	2.277247423144546	4.077423085408621	6.190077766048802	5.765208706605136	5.933620914737065	3.2244386591564385	4.115030278306836	7.261001568581796	7.002455216848088	7.028297406571661	3.243540755665827	4.424931038175047	8.778991677053927	7.421318512299349	7.363906364922328	3.7078704740369646	6.222962363744097	5.606452450902442	4.288444985052844	3.1698481956559603	2.5882205897788477	2.195456260860204
304	0.8071882704382418	0.39162984391517563	0.37874057793361876	2.188778633313587	3.1650190273484506	2.6419365339333893	3.153511754657167	2.077203506947338	2.81236337905364	3.9269583126104077	4.432790268196708	5.567399487744205	2.2356104794325304	4.091460217636365	5.841831192526184	5.417493806512573	5.6326536990052345	2.6981015137262787	4.133504380280457	6.766779882512691	6.5749087167678715	6.6517696212674196	3.285715333272359	4.421616543096746	8.305736520778078	6.849884969583145	6.910058004099191	3.5059249312576433	5.928235039048759	5.201323496084229	3.702661028096748	3.308836690178095	2.4790420469636767	1.5119905433627667
308	1.3404564823639638	1.049333212110515	0.9477523541363911	2.63030456832555	3.3612439547552517	2.767702810929092	3.212232104774415	2.3208448828275636	3.0082762165411854	4.021050919871016	4.448916900846422	5.4996943334961985	2.3213386477036364	4.138559807818964	5.755345330012607	5.297564969992854	5.479028211111852	2.2351515236689186	4.180853356296167	6.438023074108103	6.244282229870689	6.329423411601529	3.2555608667194638	4.326468933626277	7.879352549686625	6.257472022470445	6.3579792815855845	3.3066599285563933	5.505144105363542	4.577376830942014	2.9925911350988526	3.251381150619787	2.136679167121273	0.6937993747360569
312	1.9695466707094405	1.9238460015361885	1.7452859834475805	3.1880943694685357	3.7011566068664155	3.0895888727384784	3.444309464341674	2.688437455065375	3.3199844276530013	4.258981693959019	4.6510724903934015	5.5631761410446625	2.51689266523054	4.126846779894434	5.811554894079676	5.340012536871768	5.4298643928766035	1.996495718683698	4.1631774797233625	6.202093108730868	5.975512012653761	6.04331205749601	3.1775772491337606	4.108561028597828	7.426728706682662	5.6449532366328725	5.749922261026055	3.1620478550231885	4.899321543721711	3.774975528722887	2.2938663901588616	2.8812293933603605	1.5756772716794512	-0.02655602053553638
316	2.6119971209383004	2.8431568073969142	2.6188523703258997	3.728233089570881	4.047926892550963	3.519081822093566	3.7822484874600177	3.1302742879037018	3.6906273271841368	4.504981029580606	4.938279616285705	5.7025360917120995	2.809183828890769	4.026799191798641	5.888930782708783	5.4654884200388585	5.455714211994689	2.0817668385398203	4.0517887966855	5.98824690260574	5.7489647720148005	5.809659943217761	3.1355802933682106	3.7919750117884883	6.906433088031683	5.047675596844467	5.1922306883374105	3.123332969409264	4.144746293093871	2.9223148749003065	1.754148955684725	2.2362551632687935	0.9127798653445307	-0.4574350703134407
320	3.236755839758885	3.662495127014075	3.430587283056129	4.160955895408903	4.333330620315495	3.986613025136796	4.190272320658372	3.5984513668760876	4.065919865833172	4.684587943647406	5.231863962315716	5.89943169058022	3.190448037675484	3.884085883824607	5.919805988624483	5.6141352511760125	5.558791623386054	2.491743558314665	3.8960018059594392	5.762049183602859	5.567978844889959	5.674063668230518	3.2251212515466827	3.4469618710274825	6.332679732546677	4.523348796868216	4.802921283039805	3.21484684132482	3.3542547141265358	2.1855699960841393	1.4734041653626537	1.4910397491956915	0.3162023417118892	-0.5243287073248789
324	3.8583516977170946	4.307142723653098	4.0968227283039775	4.459193218416912	4.569904792691836	4.452910412036291	4.661744582804201	4.052053918144791	4.3949322589539115	4.8013968346488785	5.496997819373368	6.17091415754616	3.652043333369809	3.7844643497285935	5.905070289961736	5.760152325392316	5.764609799135945	3.1333424965904135	3.7863387965927573	5.532436356881551	5.448228345466958	5.6834649896179155	3.4974627406509566	3.1567847649028096	5.767531857234036	4.123870839197602	4.647495258041593	3.4175932321093216	2.668811791357601	1.69565212298482	1.4572213851377032	0.8706140496207585	-0.07202783208781578	-0.2949280433361125
328	4.5064062958428766	4.784569728215533	4.603356826603959	4.649514663401485	4.816229808091654	4.902404295941711	5.192042337660396	4.461175907315715	4.631898391473305	4.908427702908925	5.73698662263098	6.540948851283543	4.17312525649268	3.7937488460125253	5.886739239135215	5.90474556385782	6.0933308447537575	3.8592049978095444	3.7920553588494426	5.331999765285553	5.398280606945603	5.851687416561359	3.9279308219921076	2.9762363358695145	5.28638981438142	3.86730669952554	4.700063693577816	3.6738300230731036	2.191602462957336	1.4894350729530998	1.609866615045585	0.5412670360250947	-0.19971588203551502	0.058928001523250596
332	5.189467893849757	5.163692938165321	4.994246470239861	4.787553298306877	5.121575819436208	5.328430639165414	5.750874027991425	4.81316994405519	4.74572752708069	5.057493197069924	5.968768581579478	7.0056576551944945	4.71516369582851	3.910203208587769	5.902303680776827	6.056276782957662	6.530214770042334	4.5255713348569895	3.9116318127101386	5.186507211941949	5.405219064417099	6.139807208772159	4.425420749935285	2.901772253339623	4.936830031328427	3.7263402844761724	4.852265822557556	3.910085906647147	1.9402103375086663	1.4950090608998423	1.7731586649949453	0.5320544229425804	-0.12427366493558685	0.3397507956986845
336	5.8758826107446565	5.534215436314314	5.342561231475929	4.932380663816467	5.485776410557705	5.721456036427515	6.275614245782794	5.1171402802018005	4.73627423044318	5.25879763229166	6.1966338001203844	7.513696174724809	5.225887762227044	4.05929707455961	5.951380714649501	6.210194572028286	7.012107831417223	5.040601717620384	4.067247380478258	5.092269884604192	5.432903752915316	6.461042864699397	4.874933707326985	2.869145862964843	4.711551177527085	3.6372921374994593	4.961348044267013	4.06491755412916	1.83667218221435	1.56317483984151	1.7885336830759393	0.7202587109500762	0.01458690498066676	0.399670599882042
340	6.502749426636335	5.965417370040087	5.716579899660041	5.127410875726407	5.855935558793065	6.065621360723376	6.691135389600648	5.39847658701713	4.64502476473118	5.472503648292632	6.398863299426699	7.973511198893478	5.651360974348629	4.134069909148659	5.993760570652121	6.340257628645708	7.439150791459649	5.382120118857742	4.146729458829831	5.013530241706067	5.43314312516813	6.708359224548617	5.186960207241098	2.78141664756439	4.548735130269698	3.524322500867566	4.91204355907045	4.106811989905955	1.738672252080001	1.5287839135672547	1.5583811959021967	0.8850160218782508	0.0531899443415975	0.18537668836997392
344	7.007731419990284	6.480601294368035	6.1542692029067885	5.392872796748074	6.159783347790327	6.344223483280471	6.94537161027224	5.68428419585364	4.549922931627783	5.636033997611202	6.535375578592536	8.285756090225496	5.952176079027375	4.059566964390471	5.979273304148171	6.406376822509535	7.708088855355841	5.579990849711926	4.07065247461639	4.902450072308783	5.364469037817102	6.7920746631800295	5.327055917641785	2.5576171810426374	4.3620667347448965	3.327930680455815	4.6601924778581685	4.035097112004742	1.500994440103786	1.2754182783350543	1.0801700326350765	0.8076653460138196	-0.13022395935558806	-0.26034250789715696
348	7.364294987205282	7.053045255019921	6.65189979781128	5.727077469671379	6.351567252335416	6.5476331545503585	7.036693078394946	5.986155971672297	4.541485774971839	5.706505284206961	6.569947226149294	8.382825830275829	6.114930137454352	3.8441347978811624	5.886739239135215	6.373065932395884	7.750030021174022	5.679923520052882	3.845993270700567	4.728601920587063	5.2074260580195055	6.668377382608545	5.3107867106821285	2.1791856233890763	4.0852088825081045	3.0235783977464474	4.23588322523682	3.864617576378643	1.0393663618549172	0.7744354586122127	0.43670552858721334	0.37050849105750644	-0.570800541390288	-0.8355056026345087
352	7.601490478397193	7.623703460518845	7.170268994347983	6.111401065655401	6.4415445165125425	6.678888780897436	7.015881997514872	6.2893218835350515	4.6889266849389415	5.691116795476282	6.493605120476561	8.255988100188349	6.153388961514968	3.586260548120245	5.745874867237445	6.228332980643379	7.555653076169171	5.708143219841253	3.573721399821215	4.5008311158032415	4.969232069820839	6.347892268366423	5.174980627345807	1.7113885836308194	3.70884846704597	2.6237528257883804	3.710704794098168	3.6080646423797704	0.3702315976809014	0.0865055991015292	-0.2468796515192135	-0.3879971196392216	-1.208049532701311	-1.4260724746938858
356	7.795722941743473	8.131025293802189	7.654655437216822	6.515190584899602	6.491331560911989	6.754270536535973	6.960468274662835	6.5540013147820835	5.009748446213906	5.6469092226508835	6.335151179531404	7.956732253012989	6.09690903077988	3.4316663655424184	5.627204403975048	5.992015823494661	7.175919991495581	5.6562404489762015	3.404728404032061	4.2685198676104745	4.676079261417912	5.8822698444626615	4.947453486349213	1.2869777646950293	3.291101924216401	2.1645281260200773	3.150484553965957	3.2683956540558334	-0.3890604366970076	-0.6697449071187185	-0.8579801895414193	-1.282846328357499	-1.9103841733383646	-1.9424977253507916
360	8.037837961884144	8.536922433280328	8.058260897318421	6.900554162723039	6.577762110315355	6.798053247454486	6.93617103732794	6.731436235598752	5.458188043165201	5.649101243061609	6.150802596775404	7.572922687484212	5.974135860618661	3.4998171241136404	5.6038241244930616	5.708030686272202	6.698557359949341	5.494253621534837	3.4637312801648314	4.09912489809797	4.357049931016108	5.337402807111512	4.635787475325791	1.0538191768742744	2.9331064150189348	1.683808322469984	2.580798381011576	2.844989531009841	-1.0643111440490176	-1.3674534524724997	-1.340610739184253	-2.058486218023647	-2.52395438510712	-2.338021987734147
364	8.391087510857998	8.838726021385535	8.359519937390335	7.2289094742414335	6.746915323389261	6.833101255331085	6.966084462697972	6.7876381702713084	5.939346298481155	5.74601076582719	5.996498092770454	7.191798668823655	5.801460251466002	3.8182663821139546	5.7065033768583335	5.423115239756436	6.212325080445758	5.201090322714457	3.780988683691226	4.041591634083072	4.027681817376247	4.767740237596402	4.240706909917024	1.1070669861499318	2.7289910247566884	1.2018532722646844	1.9839339206197104	2.35028099420344	-1.4979044161171418	-1.9198602389501211	-1.709250445818835	-2.500706904773358	-2.9311952516936817	-2.6079697543102847
368	8.859724022431152	9.063336349492763	8.566592194863134	7.466998081428404	6.982481938852861	6.869585019887411	7.023350221067794	6.719665987215382	6.340904219830599	5.923527702634862	5.896188244238312	6.866909009762331	5.581766591284591	4.2985324751091625	5.895172581093903	5.161728369078484	5.775182232580931	4.794175612743282	4.26692198629737	4.092446316877039	3.680630436187648	4.202352990030948	3.7795963191927884	1.4367234670604883	2.712844126527802	0.712031303038567	1.3247281279496335	1.8219473315969246	-1.6213020045354511	-2.3100540579646713	-2.031460280057823	-2.533418410580662	-3.0966989915864938	-2.780527584685165
372	9.38353154674343	9.247578597562754	8.707612969348398	7.593814353843819	7.208067875783311	6.89685152219894	7.049933892570501	6.55836532844294	6.570928557018399	6.101734145971555	5.824711784915598	6.604368670001597	5.315976606298908	4.767376887682769	6.066340907993288	4.912435519213504	5.400912271215081	4.3395919690240525	4.74404953712521	4.1848969353875205	3.289587966242929	3.6477961448124168	3.301847926386536	1.9181606721132867	2.830919735436843	0.18700626445285762	0.5884869679851911	1.3216211762439158	-1.494809385340349	-2.592193596970965	-2.388219827344348	-2.2602658214723323	-3.084054939112924	-2.902696125331309
376	9.859768842599152	9.415686583588517	8.812441803617423	7.607129554615866	7.322765331853591	6.882970315721535	6.989037972924444	6.3570074874596205	6.587824804839509	6.167948707266782	5.716722473969983	6.372446520928942	5.01939963027157	5.040671335845306	6.095648273336774	4.634808051805314	5.068249212820356	3.9343855281678275	5.023072230054778	4.210524548390444	2.826260797994382	3.1034250181045464	2.8829662727047305	2.3568251073460975	2.957053653880593	-0.4014687229987638	-0.19216757964253955	0.9198787189147121	-1.2894253698219065	-2.862249128744585	-2.828671448241592	-1.9220265101543685	-3.0309221668013926	-3.0222008151998767
380	10.182966206590287	9.565484976459823	8.895720459413024	7.525312881543624	7.251107197574062	6.785264951740923	6.813947660408741	6.1712188564894825	6.409716113120001	6.030394062075744	5.5002603392015565	6.127933009888564	4.732327449294697	5.003993021728925	5.894958004373254	4.285454262404145	4.745942103801339	3.6737737562885777	4.986081110763406	4.0659146206244445	2.2832057418398297	2.578834050343318	2.59762262642198	2.5704412395429745	2.94691752643426	-1.05815160007348	-0.9376912689376413	0.6737055165447541	-1.2112612693722793	-3.2077400603369037	-3.3397753154356757	-1.7798800423507173	-3.0841598432874635	-3.168007842648522
384	10.286602947966813	9.672380422967283	8.95194146757186	7.384868126344014	6.983010274422816	6.5709562135735045	6.539659483611017	6.041494354253529	6.1049475515725735	5.6671848154036475	5.139854895012616	5.844599709059723	4.51562069706473	4.663036334662512	5.457360730697807	3.8512632749597224	4.419159401226728	3.613628378327637	4.63861130496954	3.703783025927167	1.6914328294011125	2.1022052711817	2.48709964124265	2.471608394104637	2.706047528110514	-1.7477858022431487	-1.5504836996986862	0.6072029456067	-1.4032591545915716	-3.6598260310277717	-3.8457879923044787	-1.9828805873398991	-3.3248329078653693	-3.3354804431625835
388	10.16905495937199	9.70635316305485	8.962449051163496	7.230312805994482	6.58134125001579	6.237528308378952	6.21143482547364	5.981464847721739	5.766870007260121	5.143609987623985	4.6641073109171325	5.526384339684916	4.426266182214644	4.139385689774886	4.866190421216247	3.3688149367155074	4.099414338252268	3.7425601387900795	4.105315198070134	3.1615917602825188	1.119825121913314	1.7113528208440445	2.5381619866184906	2.110609049236654	2.2359838429264607	-2.398716920518529	-1.9596259544487824	0.7037075740213439	-1.8732591820151652	-4.172724713280801	-4.2403812301387935	-2.4877352651729296	-3.7208270932669474	-3.4869172485053403
392	9.898148511691707	9.654948210181704	8.911917663961972	7.100390893175531	6.155739291861817	5.823977932530977	5.880948051863459	5.975432380848542	5.482026563155063	4.5893382910253395	4.162282456379675	5.2009515631017695	4.4851412659893395	3.6152162460604447	4.2635927092672015	2.917427055622486	3.8137855433496326	3.980910291157664	3.572971811810412	2.5511002476179288	0.6530802233419757	1.431467887125332	2.6843235424933645	1.653628821966346	1.6334495503192956	-2.928761236425779	-2.159263843806806	0.909426448433289	-2.488436931049454	-4.645094382956102	-4.4421205408477125	-3.0765678804923007	-4.137487401052872	-3.5743625073788006
396	9.591305708511332	9.539811110252671	8.805619217575078	7.015864354540064	5.815199837307778	5.404659734431938	5.584540353026856	5.984875663905755	5.3030137881858845	4.144538868930576	3.7482864762084835	4.8995685453690365	4.655854690240947	3.2521381296065233	3.7918405437102143	2.585795157579771	3.5814533143219576	4.206111420502416	3.2069110789394606	2.011157030749953	0.3562482884472545	1.253136512453505	2.8302264142105664	1.3038448062402739	1.0419187519470448	-3.2826321042152022	-2.2192983571287437	1.1474887103673348	-3.043307296698712	-4.975055205182113	-4.444299209818041	-3.469859352888007	-4.407535065013401	-3.5753843694062497
400	9.377380347418141	9.415565466950639	8.675652482063368	6.9744353118285	5.622313962092863	5.06399153384551	5.332832322961674	5.961815818993272	5.234836565152449	3.900031079936083	3.50756382056625	4.635392654159796	4.848238932766698	3.123273364764639	3.5349242597977084	2.4269385276555284	3.3921291742512487	4.295561779621058	3.0812044065883826	1.645061488766541	0.2413522147999231	1.1243913145287385	2.886185877188789	1.2023018568201316	0.5791342243831635	-3.463232031661453	-2.261779779445805	1.3356801237715916	-3.3710555945162466	-5.123188005864022	-4.333727348830119	-3.483213654306927	-4.428912628435991	-3.521129837682878
404	9.351678824655883	9.34921929860008	8.571286179836633	6.955199224077994	5.570892796756381	4.862295615317878	5.1157407631460075	5.866075024099496	5.239903913619879	3.8600401780900286	3.4546010407011885	4.395039070477079	4.950642573255224	3.1895522990760607	3.4866883666699806	2.4264290271532745	3.202862969895116	4.172787178948368	3.154560319565408	1.4735690318096861	0.2552421682589263	0.966236827318177	2.7973809171621458	1.3581908906977898	0.27952989865300426	-3.53745698035711	-2.4109775959178714	1.4037263357961416	-3.43851327027977	-5.1472902168017045	-4.263378132546552	-3.1416802326991236	-4.236398209366379	-3.4964463622508126
408	9.539513563866704	9.38896462931028	8.537264802359052	6.931203824663479	5.595566735445306	4.8084306595517745	4.917312132818134	5.6825346803246095	5.2602968083132655	3.9445183177540613	3.5241629988385497	4.149507512106508	4.878950583537547	3.329367629228432	3.559417000366974	2.5033411916472	2.959258310475979	3.838392009580842	3.3011705792050186	1.428823705880482	0.2989906661114236	0.7089565378409467	2.5584380562084115	1.6464911657725139	0.08413063713528877	-3.6080846695403643	-2.7376906802675607	1.3082354035726336	-3.368756524163775	-5.183681474949572	-4.385763157261973	-2.6824557713493986	-4.000895490081815	-3.605121126609614
412	9.881937002028046	9.537304854155483	8.590445496804863	6.884642583631132	5.6071944095187325	4.854463565014165	4.7302899241228396	5.433409200301736	5.246695505247019	4.030281533556207	3.6033348946194947	3.878571262103911	4.6192059400283	3.406049719794106	3.628905525582157	2.54767727208641	2.632298224478964	3.3744342241921648	3.3803739462383255	1.3939231598946837	0.27356427838875386	0.3339455417307974	2.212598318235748	1.8765188408204119	-0.11626034200640906	-3.761442890207249	-3.221240273925866	1.046129224043348	-3.374351969782582	-5.37702272964942	-4.773478019106574	-2.437888854547437	-3.9461057086497116	-3.909404983186952
416	10.25099751745368	9.740771269047054	8.704838730768977	6.814661008795611	5.534618840549136	4.915515410410562	4.560432422568046	5.176403509422292	5.179102884568065	4.009284009347746	3.5877826123253866	3.5926179795159374	4.241256703159044	3.33716701618689	3.5925798325433775	2.476098292774942	2.2488789501631907	2.9181575701470086	3.308030596964188	1.2673385111282807	0.13031774726390535	-0.10210435811728376	1.8374593211512664	1.894376511559322	-0.4092032303015474	-4.016295422904262	-3.748044004514149	0.6619338972545588	-3.6324925330956837	-5.791940674463669	-5.3671207292471745	-2.65285634324725	-4.220590580774697	-4.377711761866041
420	10.492755863400916	9.90521428468412	8.815782524739358	6.734463197871382	5.3536677225367555	4.906913268098296	4.420176494882607	4.985092627336947	5.070119844987264	3.8365189932281494	3.4334747704603377	3.3372654830598103	3.872052421330575	3.1319127003751515	3.4142665776835166	2.2766005935410765	1.8949550342400514	2.6112375193472004	3.0948090475147274	1.0192146275536835	-0.09977018062912792	-0.4784482109387934	1.5216098985402013	1.6656732517149895	-0.8004937151725512	-4.3028397451483364	-4.152433861739013	0.24078847407106077	-4.170941819150781	-6.357469542664752	-5.985040649562077	-3.33549379460298	-4.797116744327654	-4.878422724804748
424	10.486245128859249	9.933939908696068	8.845422722418432	6.661782247890089	5.094022737993321	4.783766734443146	4.319455135883975	4.9192767019049715	4.952230917825188	3.5477945715022745	3.179453603346553	3.1769666591542234	3.6415765193550973	2.8821833060929376	3.1376521508153723	2.019368643430637	1.685813065087298	2.5465388233740742	2.836613647928571	0.7109274250201137	-0.31383746783175154	-0.6556912644044142	1.3396215405020582	1.2946032253004718	-1.1994911401981996	-4.485957611202122	-4.282791126882304	-0.11395052791674365	-4.831387030801188	-6.879944783960376	-6.394193633148205	-4.228504647069413	-5.460492597144978	-5.228431211622478
428	10.195988629347935	9.772238706711747	8.738344170442685	6.60757492304526	4.8229522583310285	4.563375461501045	4.259773720476795	4.996930586596609	4.857170092717293	3.2396955408317853	2.9291236326650987	3.1638858238448417	3.6266934780108375	2.7109250953894586	2.8620328830938857	1.8254224015878457	1.7134088234557359	2.7314596107184737	2.6609668664506496	0.46475663663826305	-0.3822413673286955	-0.5386692867984075	1.3285268511608679	0.9657879447395068	-1.4626258574751323	-4.42677544429832	-4.067711819869175	-0.3163319818139484	-5.339797006476805	-7.129180413366517	-6.414895995156484	-4.929379450750314	-5.905763134350856	-5.278475271249547
432	9.69350240167372	9.437456107154159	8.490929582139124	6.5701913667736775	4.6157736661722195	4.319363106312674	4.234950531757729	5.181220041545142	4.7997851250582215	3.0236036701157682	2.8000976968641487	3.3077742969923007	3.818344821826281	2.7076241901701317	2.6941268376041116	1.808201666081397	1.9952425906351041	3.0847241800627723	2.66025018020368	0.40058833259533166	-0.209767922229443	-0.12880803612136232	1.4703216515612323	0.8428212979018355	-1.4703328572344216	-4.05301712920193	-3.555409184062395	-0.3362287274454766	-5.448068128182206	-6.956206780990733	-6.011212810598293	-5.096247183330722	-5.897079452884743	-4.993739592341971
436	9.13682553845517	9.020178772087078	8.160566309352605	6.539419634521047	4.527595508588451	4.150414456379121	4.23860834958907	5.39273212978676	4.77646921859243	2.976696006888862	2.868788950352829	3.5647749810815954	4.128761757916943	2.883770696988588	2.6993150642908414	2.0181219526836625	2.4533338484812206	3.4677193077273945	2.8457126545584304	0.572279153809498	0.21706540827783685	0.4621675002827242	1.6897700982346562	0.9780508255107005	-1.1961538761456512	-3.402479401581074	-2.906110517794002	-0.2215664679178476	-5.072700487680944	-6.381209357363116	-5.319501386563447	-4.631943214166063	-5.404193387692393	-4.483104217654638
440	8.710269905987198	8.651473977180565	7.846676329828939	6.5058183505787825	4.575487125288825	4.136522282647105	4.270523060507029	5.542726502729594	4.775391089780455	3.110901347889137	3.1355376164426594	3.8515608213456898	4.4316315539052	3.167688838590489	2.8735611366200775	2.417001241303664	2.9370984956973323	3.7372605706271904	3.142300359421801	0.9356935000637485	0.8192951658544522	1.047903535104542	1.8736994219203646	1.2826045719189003	-0.7312107067720345	-2.616463177750755	-2.3365566671506883	-0.08830513037798024	-4.354682911368764	-5.601576790972124	-4.595404613336684	-3.7463738823717594	-4.637687194559276	-3.9550220866484405
444	8.547954537744662	8.446340539588126	7.646901588206857	6.466369135743079	4.73454378840043	4.300748337377739	4.333389271285807	5.56909416700018	4.788173663448133	3.3711419020416633	3.524847021740265	4.07696246071496	4.613046634471341	3.4416863831410214	3.1471095005687166	2.8940353320487318	3.2811851418622884	3.795335283233862	3.4274222764265465	1.3653961385586266	1.4567339383539608	1.438148852532048	1.9077312898153995	1.5753169019980489	-0.24810609158817667	-1.8841477584952424	-2.0391852804197894	-0.07782717774530443	-3.6000735668841988	-4.908067690855391	-4.104841221936077	-2.853969566769029	-3.952211608445087	-3.6231725124435554
448	8.676381089239262	8.451103189112235	7.610743980265919	6.4251689748668745	4.948247420215616	4.595231044611536	4.423013675966753	5.4613141875664875	4.816459643601327	3.6620569136667926	3.919480552314346	4.177423466625871	4.611293781082212	3.5997352509213076	3.4176609429856155	3.314984551643286	3.3734137926761862	3.616265764643	3.5909168629583426	1.7114386515323043	1.9855498025354916	1.5146260223295014	1.719567771384827	1.6819212394211596	0.07654461990342691	-1.3652476037842214	-2.1088926738900353	-0.29676812812265024	-3.1328692357120915	-4.550992000533776	-4.011418809299632	-2.364033931485612	-3.6692397501812506	-3.6100890545298103
452	9.001619316262353	8.61932847707862	7.713201503353186	6.386517031757674	5.145000921610952	4.9165739888991	4.518327701605014	5.261022077629061	4.866526591411932	3.885984172546621	4.208527077539774	4.138804902117661	4.428965557360417	3.594017973408887	3.593622198568578	3.577652206924938	3.2005309977788112	3.244576684389408	3.583420744431736	1.865027780592466	2.3127851427813844	1.2775392500093867	1.3108346429154363	1.5288730821156136	0.13939897680850521	-1.1294822664354407	-2.5076065000165584	-0.7651773671858497	-3.138459912959329	-4.624620425946026	-4.31082104548219	-2.4760134157609963	-3.9119593998369973	-3.8950388333208794
456	9.349657035110205	8.83008859312365	7.863255480940645	6.345839484405541	5.257468210297946	5.144566522960925	4.58051584994654	5.037589060462462	4.934121596276671	3.9764535326697703	4.327108372253813	3.995749940320637	4.11945198926369	3.44661425674003	3.6279804614975784	3.647290220588841	2.849763863044296	2.767918818161213	3.4285015973314144	1.8006974413231218	2.4229309497695284	0.8409668185936208	0.7604170422428818	1.1790696352753935	-0.0512775553958395	-1.141156670550253	-3.083030454481111	-1.4005061352656367	-3.5803551583493882	-5.030076014216783	-4.843635546853027	-3.0888159197069824	-4.54302214429169	-4.333889950300655
460	9.54096505617261	8.941527344062997	7.945117453542801	6.28694008193584	5.241081224560511	5.18929909349618	4.566221702491174	4.854410636089739	4.995520102286206	3.915645351060601	4.273136604964541	3.811938514621996	3.7590322399600393	3.2253303446400268	3.5299346357868684	3.5589704423694437	2.466730349988535	2.283081287341853	3.1974122443534574	1.5772833784335138	2.3692429005886715	0.38074129723742056	0.19443534265542212	0.7915094474835949	-0.3917508711460865	-1.290929314215082	-3.6320619491429134	-2.047561401919638	-4.2309141052237305	-5.533418641424968	-5.374865995188313	-3.8694896600302826	-5.239215360765173	-4.734904754128278
464	9.465785956325798	8.855973221354196	7.873835066942987	6.189524158109526	5.087532984286562	5.027666556062465	4.450808990685395	4.743135917132399	5.012580382089324	3.7323501015844123	4.098844517849654	3.6531155017173216	3.4195911797971483	3.00181125836659	3.3522345935109086	3.391732684155204	2.191143745612303	1.867452497535807	2.965312711858398	1.3018767800840487	2.239954704351372	0.06039773285041146	-0.26619878344084297	0.5314574228220174	-0.7395379524632905	-1.4531468116311448	-3.9801084894781695	-2.543748372331315	-4.793370234785111	-5.884673580571095	-5.697703823963069	-4.435957420593497	-5.660120949759861	-4.946818339256089
468	9.127125717007493	8.565622308085796	7.637773017673264	6.043596729278739	4.830852019511035	4.714643943327381	4.249686707257633	4.697368609966456	4.952246176614212	3.4869038970649444	3.8863339326012802	3.5663752465804848	3.1532580772896432	2.816716663878464	3.164458028433241	3.2321810640746347	2.1017174667700895	1.5644369085867975	2.774762861875623	1.0786873074953873	2.1202068275327344	-0.03023264176961146	-0.5557168112075761	0.48293113586567704	-0.9782306527235338	-1.5368905028641093	-4.041636456775829	-2.7903544832351836	-5.046775328292052	-5.933845028200855	-5.712534890057216	-4.551162231398824	-5.619138226627249	-4.9154224271649465
472	8.629109360842987	8.152828195968821	7.303451519646495	5.859530434119682	4.539090621932232	4.362522114229831	4.022335519171971	4.685309398265946	4.807997214576062	3.2482731260304663	3.7180972005431268	3.5715351014563734	2.9882054253473522	2.667987101494571	3.0236377639724936	3.144434444117951	2.193420166199817	1.384541865667881	2.623368256621261	0.9673672294034883	2.067207092788006	0.10112512086132179	-0.6874012929727306	0.6097492560250758	-1.0594054433778097	-1.5076245031439925	-3.838796367489978	-2.7958745885831853	-4.936926352434141	-5.684501633597232	-5.448515401435471	-4.223364819354119	-5.162659632046104	-4.68620966681836
476	8.12314508294562	7.74837301205345	6.9813141646553705	5.668461785310091	4.294693459158162	4.097248067048021	3.8519472978614377	4.6710333706225455	4.60970829753519	3.07484697519269	3.6539940741790926	3.6632676032084137	2.9283542559122804	2.5298983986876937	2.9576079770756043	3.1580455223459154	2.3933482109678748	1.311819907691086	2.483680957245544	0.9706277226737597	2.105825895714795	0.368659853004465	-0.7404429297826304	0.7863950113469104	-1.0040441726130425	-1.3760821784562685	-3.4751284034728482	-2.670700543336475	-4.570563781642809	-5.264614568769893	-5.028494822204173	-3.665304889961693	-4.522974956537129	-4.363055695008513
480	7.741294364457796	7.46969221136545	6.771328908990464	5.5119776586604985	4.16816901108283	4.01012562692985	3.809525241770423	4.634229648333875	4.414925087272575	3.002317182590166	3.7196783925557364	3.8189887904068085	2.9568898603171636	2.3845746456976675	2.964666120673507	3.2721888936397625	2.603525155169895	1.3120610680832383	2.336231941046772	1.049626705380648	2.2368817272930905	0.6566372497192561	-0.8161929825203045	0.8743969776011672	-0.8737392403477314	-1.1724159687959157	-3.082644931639677	-2.5750460559681163	-4.13410138040102	-4.843972193885868	-4.605384815032678	-3.156887761728721	-3.983049382643962	-4.053818215625689
484	7.548677425399429	7.371006947027204	6.71754501554105	5.424338803901296	4.193501461885571	4.124533642845831	3.919542779563334	4.576014984021624	4.283197868977225	3.039123289064622	3.905075063382821	4.0055651563603085	3.039835206940022	2.243072504102411	3.025036088935394	3.4660005481949905	2.7453851630514787	1.338793631988218	2.191814178655044	1.1531515092345683	2.445411914373414	0.8687406756401977	-0.9868875717042103	0.7973459342852653	-0.7337139826369912	-0.9274086332748208	-2.7713186670906174	-2.645660632129553	-3.7894875907590015	-4.5484428290924575	-4.304578293422756	-2.892176620810749	-3.730643501399512	-3.834329357003209
488	7.536119442032698	7.431259613348469	6.796332818992032	5.418895230916993	4.3574919590606465	4.392751682634954	4.146769036313862	4.512944210102493	4.24919937968318	3.169885388954206	4.171582688289788	4.1843900574896296	3.134428016378322	2.1429452842014	3.116423837422924	3.7078137304152814	2.7858819891211093	1.3458636965150457	2.0891649670306633	1.2436130015446272	2.7028086117215966	0.9570196842826711	-1.2621128527247263	0.5727734551273723	-0.628347752892029	-0.6711902601462278	-2.6022555762393846	-2.9353811666763994	-3.6064002422832644	-4.41682480650606	-4.194176186462725	-2.896494381267377	-3.7825953864917348	-3.7412390614466133
492	7.649229984044484	7.582922439503643	6.943117601031104	5.486752496218083	4.608095157433061	4.723683345312615	4.413606155696315	4.467859256908216	4.3120083700031175	3.363088360878525	4.465316761187096	4.317710865563671	3.2050304331922557	2.1235568469792327	3.223666898217835	3.960423936381506	2.73809122347944	1.3063261475960086	2.0692393727511367	1.306703325787195	2.9650421067718007	0.9237551665825373	-1.5875242908450968	0.2869241528419466	-0.5780479297348747	-0.4433419395220724	-2.5880949431879783	-3.3920125875663625	-3.5613367467610524	-4.414286125482196	-4.281877030052337	-3.050192109990045	-4.012074937227662	-3.781402578343501
496	7.831580619112658	7.760947684720676	7.09862087364875	5.605942235144452	4.879411208231208	5.027791010560443	4.639242160528251	4.46059988803006	4.4419417269138375	3.5822164921917348	4.733597743480943	4.377711761866041	3.238469830919719	2.1955585424303803	3.340431443363707	4.185397614402369	2.641805880552371	1.2248394458364107	2.1432468837032017	1.3458381857271462	3.1761298099436894	0.8031837323891177	-1.874919290577258	0.034830868156231654	-0.5887591227925483	-0.2971272759088376	-2.7109515598516722	-3.8859600922701927	-3.587158670905453	-4.479529369488615	-4.52736996461319	-3.1871244826911993	-4.245823849448782	-3.939860572404493
500	8.052329996759665	7.938020686135182	7.242815476251002	5.751351818822738	5.119133936355214	5.255670057378902	4.779484736773293	4.500607479176609	4.595999706108619	3.7949874305278306	4.939703452036504	4.35752629133595	3.250316850085365	2.3238782824018145	3.462842694122763	4.349684227451941	2.5399870808369047	1.1373766631974307	2.274869197824012	1.3686630691305175	3.2831377900202	0.639789043241713	-2.0457267709580833	-0.13583975996053488	-0.6613802893152827	-0.2848200194797206	-2.9389612600511494	-4.268996227930317	-3.631485214601523	-4.567517269046741	-4.854257571362342	-3.20023559716005	-4.365164268916764	-4.176067341751366
504	8.303849199310674	8.12628362511299	7.396596889894724	5.9007315486702	5.305508600191304	5.412108407661424	4.845725524112154	4.585070598470196	4.7346401095061434	3.97886895128855	5.072539793559035	4.279966343564241	3.276434890104262	2.4386706290663374	3.582310667530242	4.436217296844061	2.465602153275075	1.0952868433955552	2.3917117058450534	1.3781999314797913	3.260808698050819	0.47708243011185836	-2.0650012440997276	-0.24121545194283125	-0.7896602133841072	-0.4259796429846397	-3.229179612589903	-4.435054767855298	-3.6815032866035353	-4.6596050144807455	-5.159377561894478	-3.087592117143544	-4.350476730806873	-4.415001381217695
508	8.575980164810133	8.347068765546771	7.591476898100209	6.034084781670918	5.446186528760687	5.539647088369692	4.892200457619085	4.699351775702416	4.829394805159245	4.122110833251118	5.146697985052712	4.195398320096114	3.350557318811164	2.4700188574417803	3.6836833860853355	4.452676761829361	2.440948718583901	1.1351076335858499	2.4215600429431556	1.3740858996984913	3.1322748581958924	0.3571085324808034	-1.950833792529452	-0.3308152846090313	-0.9488537287597701	-0.6787122470886013	-3.520976772955481	-4.358005989515892	-3.7438397313008873	-4.741742598959648	-5.329502569094348	-2.9199831412025805	-4.251138199563538	-4.554130065863988
512	8.829810120223962	8.590469338662713	7.827400187757245	6.128656848692889	5.559308991701399	5.680425629579203	4.977912413426853	4.818496215098871	4.858537661683567	4.218796719390066	5.1900205481147195	4.164466847395889	3.4769356162978755	2.386204236681712	3.7478814030436127	4.429372299455338	2.4826376375460293	1.2515112130038732	2.332359069657624	1.3580557073637805	2.9681582375927906	0.32166761078683587	-1.758009071679923	-0.43767395505075646	-1.091252443419474	-0.9405679082965285	-3.7344627286084973	-4.0920987025895865	-3.8090000056419884	-4.781499850598772	-5.274094568288195	-2.772635691318249	-4.123158444485045	-4.499562728965624
516	8.992187477296909	8.794465996472866	8.04872701520138	6.156468375874868	5.6498346186090735	5.83943556264942	5.125036703521708	4.91079615306774	4.802614199910698	4.262612808909568	5.2245745526966685	4.23056458358765	3.616544952798423	2.2130505982791613	3.7587010765545035	4.404974926317473	2.602748625859722	1.3926626408701563	2.152204746534589	1.338426109749461	2.859544746808664	0.4061570753333471	-1.5483996829040212	-0.5445501790603237	-1.1573711604461439	-1.086801049349597	-3.7852656745709305	-3.7395803833959915	-3.8321239851520876	-4.727056968198385	-4.964208113534695	-2.670534365587261	-3.9804544348355724	-4.215251911964934
520	8.980032898164998	8.864519096881937	8.16121862258338	6.093883975855877	5.698111996569461	5.972868904292514	5.300863729444975	4.947371470358209	4.65253304260529	4.245310772667851	5.25223492249988	4.396004665720003	3.699565401273509	2.0247666784664466	3.711220731902041	4.4070300944641385	2.801965944845272	1.4820206127896298	1.959232086957101	1.330167051771656	2.8758544849266654	0.6238526686176419	-1.3656691278310087	-0.5892226085091515	-1.1004626723162034	-1.0303217146609558	-3.61673449556833	-3.4064576539819185	-3.7485351467858585	-4.5347304229686305	-4.460869301023765	-2.580052846116608	-3.7930488490660506	-3.7609290981705823
524	8.746346451611446	8.725687958621611	8.08255288944459	5.938008770255772	5.669044480315945	6.009267314997736	5.4332508903656125	4.913045870774463	4.422871578493967	4.161959160787229	5.252781377881801	4.614549625190202	3.658428421320607	1.909891362136606	3.617285480903243	4.437646854640746	3.05835270109493	1.4584695063961486	1.8454865170614807	1.3488080467502266	3.028816930753241	0.9490001177669689	-1.2260870902576992	-0.506736038835971	-0.9137402749833718	-0.7721368054922534	-3.234008542478834	-3.166780702224984	-3.521131506612927	-4.2104382408650265	-3.9085924526714257	-2.454397910597064	-3.535421839371037	-3.287169686601207
528	8.318243005731853	8.374900796726502	7.795839766846938	5.717205986847181	5.537189469662518	5.892428860092529	5.450557218141742	4.812077986965662	4.160924900993698	4.021016110758555	5.197288500061702	4.807210433267013	3.4654478939300284	1.9290112208300934	3.5060315043622325	4.474503982691001	3.322622290805521	1.3124778237584556	1.8725612116266075	1.4035952055779668	3.265479079585048	1.3131126132237108	-1.126853343979615	-0.278870403062552	-0.6405916197815874	-0.40820851818972476	-2.716873162085867	-3.0485033911985324	-3.179964772778856	-3.8278195761358553	-3.484096995140268	-2.284652704192744	-3.2352819361066008	-2.9758479520051386
