time	FP1	FPZ	FP2	F7	F3	FZ	F4	F8	FT7	FC3	FCZ	FC4	FT8	T7	C3	CZ	C4	T8	TP7	CP3	CPZ	CP4	TP8	P7	P3	PZ	P4	P8	PO3	POZ	PO4	O1	OZ	O2
-200	2.446031802677513	2.1851487104559304	1.8655084324467213	-0.4111464609256085	2.109175438324136	2.6445081167210858	1.9818956801921173	-1.0455520126648004	-2.225112671002614	0.9888591145344682	2.4955613550121796	1.5073660574048988	-3.4987363726973015	0.6034986957571961	0.38623696468112595	2.042370791047123	0.7164481860192061	-1.9551173399200654	-2.7319767406152393	0.3685355475180998	0.8782895781276858	0.5293514715181302	-1.0718698474524802	-0.531109152883474	0.5782576188746651	0.2842369370436775	-0.6110485180686095	-0.5918533787089609	-0.4784860300858079	-0.8222562649947728	-1.6139829118033808	-0.5033833371804648	-1.2322256533983287	-1.5121295413940319
-196	1.20712327652384	0.8353318550954271	0.21007154828916225	-0.8415973761291077	0.44417011625681313	0.7182478886590105	0.2661376588777801	-1.6093915660279245	-3.28947972420829	-0.4154729534626741	0.8400995710143284	0.12632608381802019	-3.5845336823561724	1.2500959603218995	-0.651345251346234	0.8059883097326532	-0.2798683040228621	-2.1325302070182226	-3.3184881126543377	-0.29523461982574073	0.2700819962358331	0.014265628495557953	-1.043894049869914	-1.0864939662204895	0.13018974628957336	0.016442470211000638	-0.7415416221970013	-0.6264041050354555	-0.8217919448131448	-0.9571759676608776	-1.7250328020411951	-0.8450570085170709	-1.438483353797683	-1.731074567238954
-192	0.154784291591858	-0.12974385884429562	-0.8190836289706784	-0.8081378916364058	-0.8823364950791382	-0.7016993147299969	-0.9364859438140366	-1.5607056578332787	-3.6636664774902434	-1.3827601636307534	-0.37436273599520886	-0.806131360879753	-2.3134365023378454	1.4857672415414618	-1.3193117346832792	-0.10690284493397276	-0.9795386766498274	-1.7999269916867002	-3.5023898989942297	-0.7567253093687492	-0.16961495535465373	-0.4171707321601698	-0.8785713292828277	-1.3960057461778779	-0.2132288361172657	-0.18098732783399024	-0.8239012339771309	-0.5943533763184633	-0.8364878275732824	-0.8955497123042314	-1.6067612130606275	-0.8551143386232094	-1.2883502212421625	-1.5613387783684844
-188	-0.6282812341086276	-0.561432956231749	-0.9990289782096584	-0.6667060239171625	-1.664656634896267	-1.3185760941593188	-1.3225439753519985	-1.1233056755315405	-3.3470001136199494	-1.8200275852028458	-0.9343442297233745	-1.0113937829231607	-0.22926557006172404	1.24753117246369	-1.571362253036476	-0.5404035435384137	-1.1371110649009821	-1.100908753476576	-3.1204340379132876	-0.9851633881491456	-0.39654916424768044	-0.6144166573270735	-0.5858564362039601	-1.3157591786543457	-0.4147834767359755	-0.28374281453973704	-0.8107590058837859	-0.40187120336159343	-0.514441786897723	-0.6494447572523689	-1.2536239592372476	-0.5278640972161605	-0.820343969181272	-1.0362660858693975
-184	-1.150736686662235	-0.530986486524836	-0.467363713991834	-0.6984290462980071	-1.8972107124112363	-1.192902561990652	-0.9463322734782028	-0.5761685952898515	-2.5366797383159585	-1.823087568448599	-0.9175578928669522	-0.5274625407253225	1.7973648264328541	0.6260743721413906	-1.5114898643479173	-0.5611093626160804	-0.7479749899099456	-0.3023847631926218	-2.170540804151259	-1.054856893737194	-0.4878967094024108	-0.5400739894582827	-0.280514030940406	-0.8817569591194503	-0.5318105207367753	-0.34601488622089405	-0.7095046621529173	-0.07305793445738452	-0.022066544685679465	-0.3292421988280909	-0.769578335726374	-0.03095315388970816	-0.2191771561334137	-0.3527078619635022
-180	-1.458579894197994	-0.25478109653043035	0.36053025631478525	-0.9530245637673977	-1.7344523624498471	-0.6697577817219575	-0.17064411895106962	-0.12992797759154195	-1.5334765872385734	-1.5929629762485409	-0.6117401703648369	0.3193732193989671	2.9500136300946562	-0.19987088391386207	-1.3160686459692383	-0.38954070112107275	-0.042015340073126406	0.3606498530342251	-0.8776556231274553	-1.0856873961694253	-0.5778568968488519	-0.2786320142863747	-0.10578258308882828	-0.29895418806891316	-0.6699697358382437	-0.46526282908274	-0.5807701334595387	0.25098025735431184	0.37087687756361065	-0.09615239476723304	-0.3295211485649354	0.366227417259645	0.2602537863836328	0.21073828584393642
-176	-1.5842190940913567	0.034859247417653685	0.9990480516959384	-1.2645491329691245	-1.3957078421640428	-0.17805339351045749	0.5228785263211551	0.10925643863511517	-0.6249363406615673	-1.3269411291952669	-0.34702676447036873	1.0694742175757161	2.788952343575027	-1.0633088323450053	-1.1400946349923262	-0.27002033523096863	0.6186680182095894	0.7606828193532642	0.34632274421038167	-1.1675257653323101	-0.7706466893766308	0.001512903832736064	-0.14663124047451825	0.15989252884550145	-0.9083427763893637	-0.7195502501440646	-0.5180056082044907	0.37522143030799754	0.42709419023448075	-0.08348350950859619	-0.1041247469538118	0.4275512386494645	0.4095264960916706	0.4191673685458148
-172	-1.525611158333871	0.20456878789274655	1.1250979871954114	-1.4025118315572647	-1.0629167529926626	-0.009635604893675518	0.7708616237251482	0.11183443637268975	0.007476100213576815	-1.1364054651179125	-0.3297999194878461	1.3423163856948392	1.4032398426867132	-1.8652362776393638	-1.0519047948982119	-0.3468535831754111	0.898635563965752	0.8641439058420806	1.0517274114758082	-1.3082433905950133	-1.0782082053618924	0.12258027463005161	-0.3793700625855024	0.2923870675334306	-1.2383031813828624	-1.111994621330362	-0.607563315288102	0.15241248867178267	0.06995351594906336	-0.32652199185902187	-0.18137377454741582	0.07690835724725038	0.1662049438333407	0.19071529757509265
-168	-1.2604867188100697	0.26507073573899437	0.7207446080130585	-1.243488785465229	-0.8157395699886428	-0.19165641021023638	0.49340247983338004	-0.11085160793688914	0.3292878857881959	-1.0217676136922573	-0.5587475881774633	1.0070120070782056	-0.6437585337597977	-2.5550165111883634	-1.0204099390969914	-0.605991123576831	0.6371769292956714	0.6919263583833639	0.9513810849011552	-1.429613586631051	-1.4137904608317673	-0.018936952528230012	-0.6834898573785105	0.07175920140507193	-1.552260752573533	-1.5541462859015973	-0.8805335737885241	-0.4258491982198781	-0.5649132714313971	-0.7374446373440638	-0.5216869102658139	-0.5511698112877208	-0.35312428981317406	-0.36445242074503775
-164	-0.7808619121863806	0.3323999038887067	0.059798423049869216	-0.8511756041017511	-0.6265273078358952	-0.5101449476713584	-0.09194540209205986	-0.5109590875122899	0.43063196431154727	-0.9049465633432813	-0.8551570155487608	0.2331698232962668	-2.5441644127507965	-3.060997478386226	-0.9536348557237121	-0.9023231841194055	-0.07868234793347965	0.3073245577205553	0.06737925095235842	-1.4124748671156064	-1.639957900675178	-0.3954479684382354	-0.9005202032241467	-0.34368842753421713	-1.6931278662849554	-1.8988256406527035	-1.2787727085252545	-1.1974805563257123	-1.1892403334156088	-1.1411570281781207	-0.9697587465597732	-1.1708778113367253	-0.9065680480956572	-0.9959543322213273
-160	-0.119906082446633	0.5420864806793979	-0.44372671730544844	-0.41740840568061166	-0.40345048802557487	-0.6555131061216304	-0.6025124773072325	-0.9750067567050621	0.46508118392824566	-0.6897572261561744	-0.9777811740984175	-0.5954140409695634	-3.546033850300055	-3.2411148466295936	-0.7586757521548099	-1.0466459963122459	-0.9487700438387168	-0.1652944828866953	-1.2668229309522754	-1.1647366255917324	-1.6394904810520297	-0.8479777553129805	-0.906025407410992	-0.7067323309221238	-1.5391502341511285	-2.0044107386527283	-1.6569045740256414	-1.8785171461361063	-1.50937282658013	-1.3550975288510465	-1.3187721934401346	-1.4910477362180714	-1.24336945696669	-1.4301891290795492
-156	0.6453795416750167	0.9642332767937555	-0.4455359864907151	-0.11165246339264992	-0.05180473240051475	-0.4005322744270619	-0.695239661368773	-1.3054455485763203	0.5783687219322459	-0.313272564812319	-0.7527928333349765	-1.060358640854651	-3.219656459308893	-2.9160039351274216	-0.38788029453575684	-0.899245438689554	-1.5851353366885308	-0.5247887955767385	-2.540504925989406	-0.6709525568234637	-1.3658761943664355	-1.142586466765515	-0.6567282064069536	-0.8192024806320605	-1.0719345780965428	-1.7916254952019222	-1.8229994727838434	-2.1725189630970703	-1.3767489160110427	-1.267017957349488	-1.392143365206184	-1.3640208209885516	-1.2188887565356388	-1.4890311918811217
-152	1.4073015415900325	1.560517783993421	0.16520778793108837	0.04567750904352509	0.470126836305033	0.28149852085567556	-0.23872013329793199	-1.2672713962984332	0.8466457107149031	0.226724013113757	-0.15683112998943832	-0.8980950094436487	-1.6143039424193304	-1.9796979377355077	0.14195629918497554	-0.42859586965116053	-1.677358384665834	-0.5397106395446493	-3.267675629948765	-0.002959582015850356	-0.8534005858809541	-1.0676753494009366	-0.19548310290096096	-0.6296793206529494	-0.39125507971209655	-1.2676007715646302	-1.611764069302574	-1.8958131027040717	-0.8579977729115836	-0.8737683274143083	-1.1080986233390997	-0.8548664429062144	-0.8500071742531692	-1.1535558671437038
-148	2.048050160005562	2.1985602323336906	1.2229386537193225	0.19309428285484526	1.123522517228686	1.2136599986905638	0.6329900606386396	-0.7007760983894018	1.249355074589212	0.8726212956331467	0.6802699548712285	-0.11122330995135062	0.7508875708695415	-0.5243519531362826	0.7597342114340588	0.2848091714343989	-1.1242351503598214	-0.06961470824785426	-3.177528611743747	0.7109197956256018	-0.18990534496044598	-0.5310614691677741	0.3745538284858763	-0.2414509945972277	0.3316397658558053	-0.5107721077421017	-0.9609687900122941	-1.062237379253228	-0.18742559802895498	-0.2661119990782691	-0.5015487658235549	-0.19445033322354527	-0.2863914959352562	-0.5476094470503414
-144	2.460865252957445	2.708058111983001	2.373021358220733	0.5151581155168251	1.7960983469438643	2.1147773212445626	1.600843663942267	0.3583974233161723	1.6844418006330575	1.526743646581744	1.5416684111772414	1.0431544754394082	3.0666282099546516	1.1226224870948498	1.3673138583947881	1.089168426624809	-0.07317438703182043	0.8063813427593098	-2.305243247887706	1.3390802111195748	0.5236100541246365	0.38773015043594666	0.9269980764826444	0.1698977793933989	0.9352140999070304	0.3662390699676692	0.04424328718339951	0.11180254788781542	0.37076422478526955	0.42425653231317834	0.2990762881834273	0.3566562226350673	0.28013232279622813	0.13970801198972418
-140	2.561579697817301	2.9427187368483034	3.233180991592862	1.0789089175641027	2.3306832254693504	2.731233589906056	2.3195829332915654	1.6275378424561084	2.0121433684092063	2.071148390309183	2.2100868169298327	2.1697401945646573	4.51895617297794	2.4877104696407657	1.861940736838053	1.8117245389973073	1.1406325073054215	1.7551479295286383	-0.9488562321548444	1.7865074827865604	1.1939967840566759	1.4497505389804177	1.3406854834086126	0.4659322190442	1.3306459154865724	1.2427222697353526	1.177766081697447	1.2810753551564038	0.66345363687856	1.0750195952930386	1.1168251009400534	0.6473849399434215	0.7089339476806339	0.7390596847948203
-136	2.302681201843149	2.8245696950170847	3.5451888948578523	1.7368162826556708	2.569283717344359	2.9304535314959694	2.568094485474803	2.652863018967448	2.1136617607157633	2.3864996373004734	2.533089154523754	2.895381681761519	4.579549301029302	3.1466591278739307	2.150799745851491	2.296513074798786	2.1238579696438777	2.299027675546221	0.4638390231342627	2.006360525787698	1.7314007238543414	2.3326909483188953	1.5152021608244457	0.6124431475435429	1.5144512615114611	1.9935921380254407	2.1356420463047994	2.095317358448846	0.7108812314205295	1.594330783633393	1.7730522110996454	0.6975680572064002	0.9567326283141576	1.1509177655726055
-132	1.6971631007260615	2.3628044068762892	3.2551078714203143	2.180978292680815	2.4041442810394944	2.719763033675861	2.3218913019685985	3.0048842354248713	1.9423249910906686	2.3759856164072186	2.4488394198579244	3.0030066891191867	3.203021041412661	2.9255952761218826	2.164132112761189	2.4263563094868323	2.5682938034064287	2.051295990533256	1.5472979506527744	1.9882757613527668	2.03668879948432	2.7444429328292483	1.3851948941543915	0.6689057333270445	1.531888838715055	2.4830071863427037	2.6364989214135486	2.324238294455349	0.6597050411734552	1.9114606332202904	2.123796696069203	0.6516194327115086	1.0579611036292589	1.3445293869404726
-128	0.8385931232260786	1.6413290459201295	2.4922680791873644	2.1179361289911043	1.8143032743423593	2.1945133153822383	1.721814866487186	2.4941010412188693	1.5365248879739801	1.9889264056534923	1.9730622718587065	2.4856889185136675	0.8512553551162593	1.9810013721041653	1.8650637817978195	2.13275312838912	2.3478558004229417	0.9614737605615563	2.079631084913621	1.7354953245214937	2.0021748492235587	2.5276844437677464	0.940921542653088	0.7114010435263033	1.418217297788059	2.5694460803963173	2.5208527978194186	1.9340017985152471	0.6608701331619382	1.9582520673901784	2.0845563359082657	0.6580388529376107	1.0630880567413146	1.3245310749945036
-124	-0.0976426226415643	0.7903496603084835	1.4787443838931773	1.461981888894605	0.8799841977790164	1.4640412293663954	0.973419306204767	1.288812395656584	0.9941510533028456	1.2440855471672134	1.1736149758271903	1.5122625789608346	-1.6701307254586182	0.7184012514096304	1.2625172106338616	1.4093219006242383	1.540060039446683	-0.5980319365661337	2.0433509298233345	1.2548407284526202	1.5448435505964102	1.7180484489933383	0.25349509652032576	0.7538112978976822	1.16373431388772	2.1444747393824746	1.8140171720481597	1.0916744443034183	0.7547866086976796	1.6728560882294472	1.6506283241559283	0.7560999970419893	0.9854819153700212	1.1043262453807896
-120	-0.8849728085108977	-0.04322485987359668	0.43029266487202	0.4261243630617889	-0.2263092541941346	0.6105958803973279	0.24733719167251544	-0.13589698041937479	0.43040674816183205	0.2481406324797368	0.1591871525798492	0.3429396739884391	-3.5057547003925946	-0.4064685990084792	0.42881679426646274	0.33563616787093814	0.38148650430684344	-1.976348991172613	1.5980030257887334	0.5747286066803584	0.6673815233546965	0.5370079265387776	-0.5152519928321094	0.7345553618005163	0.7343568783339154	1.201894995515922	0.7276196461426733	0.09918033306591988	0.8463994839279576	1.0396417353130842	0.9136164165318412	0.851369021173559	0.7992732504692116	0.7109405380419312
-116	-1.3161832060962073	-0.7268434148557232	-0.5081614243075309	-0.5592636451906257	-1.2816522089070836	-0.3066550783521284	-0.3734605898964886	-1.208603617477744	-0.06878595781840903	-0.8141309002348613	-0.9243913865592636	-0.7648347000839011	-4.0641951458363055	-1.0859589549303363	-0.49997153751981294	-0.9118174291477724	-0.8214176276449003	-2.5550498897893537	0.9919766162622845	-0.2301187211425626	-0.49562477940357497	-0.6838558895011521	-1.1423319549329667	0.572168408379785	0.12697352436909703	-0.10757607939501104	-0.4087671627214716	-0.7196094375561771	0.7787266353973381	0.1375733014448056	0.055949717618826604	0.7883920053604232	0.48214545724255387	0.20902046508468555
-112	-1.289374586664686	-1.17273628415613	-1.2718204227762058	-1.0659584972171607	-2.0762991852790886	-1.2185732095469946	-0.8821767546315434	-1.5270338019917782	-0.4701023685984145	-1.723269935071769	-1.9019756269118404	-1.6201536614521077	-3.222225657910805	-1.2499213187131486	-1.3492565120963844	-2.0807313866533965	-1.7840794279831202	-2.070941681401624	0.4526042628782039	-1.0308541033467455	-1.6829428630300305	-1.6147419173480342	-1.4162492716318338	0.24500514505040494	-0.5823687896330232	-1.4805557690433282	-1.2602932421336173	-1.1349086732820919	0.4523826528094885	-0.8432428815532673	-0.6893168670416857	0.468653945931707	0.06626497192341815	-0.2852503352115901
-108	-0.86943393726183	-1.3612698282205338	-1.8462114287494087	-0.9035266614990268	-2.47657369942047	-2.0216424414137877	-1.2999592986664656	-1.0462172004988142	-0.7817407230667301	-2.290880197463154	-2.5977642470576088	-2.1233920997414892	-1.353028651636116	-1.0223711703237293	-1.9534400652203205	-2.9061257765830257	-2.3147051275940416	-0.7672665695845972	0.09832245831699479	-1.6701338249001387	-2.579754584474905	-2.0370502420493253	-1.231252786388761	-0.16581270056822536	-1.2385385005198415	-2.5451373989696537	-1.6037563045065075	-1.0909450026624987	-0.09052943415435065	-1.645965333597633	-1.1139522762784222	-0.06670349819508473	-0.34818810136624034	-0.6304689033802955
-104	-0.28259608078179854	-1.3472468818982113	-2.2310411873755855	-0.23215122462311064	-2.460424417005799	-2.588897460123208	-1.6313145119488317	-0.08983292407958633	-1.0143705580850177	-2.418909543605975	-2.8822238372512827	-2.2592956962764177	0.8262445309759143	-0.5907568320617966	-2.2053203527084686	-3.195721379794738	-2.3462111890684514	0.7237527948226327	-0.08889533556905603	-2.01304697482172	-2.9308741018684428	-1.9053453158910647	-0.6526393873903299	-0.504681228317172	-1.661568518258251	-2.9957239552203374	-1.3979259694091137	-0.7158994060561447	-0.6701617820032251	-2.039962524985698	-1.1153089971993742	-0.6406008585015043	-0.6305225475604579	-0.7207455616873725
-100	0.16668216842053	-1.2393068043890565	-2.4248459277920373	0.516961871272464	-2.1131932682090113	-2.8152041364164626	-1.850847120380466	0.8221451023325473	-1.1458611459412071	-2.128751034130425	-2.718255989841165	-2.074100727566744	2.5346500809571912	-0.09327807998948633	-2.0878264851309667	-2.900561563798002	-1.9282646130515217	1.703030701152226	-0.22365534249104965	-2.0007941672354677	-2.641838543897626	-1.337995168168823	0.0902472806678575	-0.6327705963371307	-1.7302826599304675	-2.717513554387717	-0.7781742195509544	-0.256384342261551	-1.0633197995996162	-1.9200988959471992	-0.7417361121524123	-1.0330803368234855	-0.6895581466431273	-0.5465413318186632
-96	0.22650016787086819	-1.157586571631818	-2.4350562034162833	0.8717964269561826	-1.5867822130195168	-2.6709246568002647	-1.9258724402441458	1.2328225343096024	-1.119420406376311	-1.5470612010043243	-2.182020420287437	-1.6550879436667636	3.216710559352952	0.4102302481307568	-1.6738200145423212	-2.135140890452793	-1.19475412067128	1.76647281200737	-0.4252444196931915	-1.676132436335189	-1.8161971523206708	-0.5482475743756956	0.6975109559568496	-0.5195270167585413	-1.4442057573095415	-1.834413166183066	0.018744276789189725	0.03881758441661294	-1.126988527313624	-1.354749914563594	-0.17111255185317673	-1.1029732199478042	-0.528154014207616	-0.21113054401021292
-92	-0.1843385840768643	-1.185482498990587	-2.2961106242382785	0.5725945219842085	-1.0398956510991864	-2.2289133015624762	-1.8515671444875348	0.9602315997675733	-0.8755938388652352	-0.8525158145361421	-1.4404237233988022	-1.114484784173501	2.7363021304663793	0.8791399575925493	-1.0921457978331122	-1.1319780321151747	-0.3186365059914033	1.0078265641516495	-0.7259471994191432	-1.1624102563120224	-0.7070395332605206	0.2500364178066765	0.9411370134434071	-0.26919671825154173	-0.9235131717253602	-0.6496408565331848	0.7635587434564158	0.03732744222395833	-0.8722794033915783	-0.5501096234737776	0.3751373877590764	-0.8606229402747984	-0.24238167641956213	0.11835278540770802
-88	-0.9339466071390818	-1.3363401856061679	-2.0758409447712123	-0.28869628833361194	-0.5903928264970723	-1.6458029705456747	-1.6705509382032238	0.16242673952101847	-0.4107055355669958	-0.21351046806311838	-0.6933190805096694	-0.574453292826836	1.406127330090922	1.2142703502515229	-0.4817282843348242	-0.15160378775467315	0.5309547768538956	-0.056572694188575225	-1.0237109635256079	-0.6096992477282355	0.39084848662878774	0.9176924205498707	0.7802721838324618	-0.061978068046254414	-0.3477679184239571	0.49117979283299507	1.3246371712619358	-0.21197117811568023	-0.44601619131013565	0.25128555234408056	0.740504799403751	-0.44954389220226054	0.03709665303997071	0.3028569511873403
-84	-1.7325800613528897	-1.5529296358955138	-1.8569318009223545	-1.321131702902256	-0.29500183388615814	-1.1029431792069133	-1.4601685963958262	-0.7682970146808725	0.18353268457805214	0.2591132813110576	-0.1040519622321442	-0.14614671431836243	-0.16290767449733565	1.2571886746136844	0.048834629233565525	0.6110861882040124	1.2230203120824585	-0.7885347584842998	-1.1243059606776358	-0.1328501698000836	1.2552700011032087	1.4156222307703799	0.3873734166378666	-0.04045500968613568	0.13433122600972322	1.3461793627129792	1.698662753584824	-0.49950173371087947	-0.03158372260106588	0.8843834973894913	0.9072958208065273	-0.04872652130937711	0.22808042111032478	0.31471362630541533
-80	-2.2706899585614924	-1.7454024509231774	-1.7060114102206283	-2.0515429921805812	-0.16364511806179613	-0.7414470296259815	-1.296938773695454	-1.4189906084474224	0.7264247518318778	0.5227235542451303	0.24599845645307894	0.09424429363059775	-1.3270069327229328	0.8678257443452055	0.436179845423944	1.0771692964060804	1.6824653106172958	-0.7860922793568605	-0.8629268982081293	0.22132852617650497	1.79875432990835	1.7734847024010436	0.05811542257895015	-0.21702121143384748	0.46698540331239974	1.8546630097293524	1.9697663734295279	-0.5579110965947973	0.26091304355550654	1.3206449713742492	0.9902265046868081	0.23522277116992116	0.34631788643184475	0.2565264993389814
-76	-2.362383836503816	-1.8390517188370654	-1.6428098637111905	-2.1701655333087007	-0.18215599610115074	-0.6161401852310472	-1.2171373336579807	-1.5501011570894836	1.0127710078418637	0.5880382046158101	0.3653908660723345	0.12621606854520379	-1.6679208236545053	0.042348440629612676	0.6577374322497425	1.2764857975202861	1.8916346979065766	-0.08597563185442746	-0.22103902641756182	0.4677446770779541	2.0586385674953083	2.0314807840555744	0.05232227207921221	-0.4598030138327766	0.6912175995541292	2.11437892379989	2.2296531144115606	-0.19860033640787647	0.4491958308799734	1.6442463356466508	1.1538250417188298	0.42124184859734	0.4899952995326867	0.2997213594498803
-72	-2.023372883456538	-1.8105912162844096	-1.6327056843543768	-1.6798444943931388	-0.3273343435606147	-0.6894265395877955	-1.2003620832654587	-1.183812734476065	0.9039871669833989	0.49231505269684334	0.3228366664841864	-0.011046306202238568	-1.1495366067473574	-1.008647558526713	0.7149760705062603	1.2930527892844887	1.8762923431708372	0.8879106022351699	0.6290763004632792	0.6433851702658674	2.129281992304744	2.1895875875504363	0.44908630734547517	-0.5691065773900483	0.8901467300829178	2.2782294692693856	2.5031490262729297	0.5829380735938356	0.6431270821546415	1.9616184185093037	1.498050566705762	0.6179474576607189	0.7644694428216396	0.574785886743843
-68	-1.4458560907099158	-1.6931087927986754	-1.6082044799255748	-0.8742376543860848	-0.5640103206699745	-0.85953497669646	-1.182169196005178	-0.55446404078685	0.40413081543932355	0.2818768017327875	0.20415553399040093	-0.2321190083126909	-0.10396661583162192	-1.899910087557009	0.6223299487614096	1.203522798360628	1.6884341197300337	1.5859110315336793	1.3860467637353706	0.7656378130655771	2.0866575188405827	2.1998488847504807	1.0991224022771677	-0.40068325299189683	1.1157553167783256	2.4395408568778607	2.7258677413783436	1.5903716047188285	0.9492061710234372	2.306529277700133	1.9831004092692759	0.9291225648310099	1.1973127096464486	1.0812976333020905
-64	-0.8807672836000984	-1.5410938224030575	-1.4996924362465995	-0.15509897431315517	-0.8241324403936309	-1.000316974975358	-1.0838999720864138	0.044543411470247055	-0.3147707871596106	0.017600718841222628	0.08396289476415314	-0.43049362193137286	0.9535264348751394	-2.2358536663826	0.41557299985867696	1.0485712263336302	1.3933080399621547	1.6570378500110228	1.7730832055148502	0.8215721824884128	1.953922624423204	2.005573506060071	1.7047016577596408	0.04729913535693195	1.3497464622752011	2.577529900718925	2.785234444261904	2.508681290968435	1.382855888690021	2.6043119364789438	2.4401762423895623	1.3674958909794726	1.7009144978494635	1.6735295015044194
-60	-0.5043584691665282	-1.3888574803573026	-1.2672451702547982	0.18896265280221966	-1.0038574908660771	-1.004859564151511	-0.8530077316682314	0.410766213095224	-0.9732713078721634	-0.22108875159234015	0.011991521313313148	-0.5172188865000865	1.5758258064538564	-1.8188555194709417	0.1576563264919478	0.8380624034703386	1.053472516261136	1.1340142459848508	1.672297115872155	0.7835646847968969	1.7131682591100297	1.5906387527360373	1.9801884839607709	0.6267649515540147	1.5133122167526791	2.5817716056490116	2.589052670617811	3.0398640555880205	1.8370228959433228	2.709604256464571	2.655783646554068	1.8244780255984088	2.1015512890208754	2.126773352021771
-56	-0.3464948228194138	-1.230679151288891	-0.9168245173194874	0.12109132080499921	-0.9941069458658232	-0.8210548737777132	-0.49408081049153374	0.505103586828984	-1.3044635024514804	-0.34774181158961137	0.010226432208229583	-0.45762082818841426	1.5823783834560505	-0.7709826807583814	-0.06965457630452775	0.5760673866032784	0.7124698144090724	0.3823680868031681	1.1757318943856883	0.6375547631379486	1.3449052538294772	1.0040249799174732	1.7994648172722787	1.1090913982999722	1.5147762260339561	2.3315763414644097	2.118297333137531	3.0231485290494127	2.1243112033616054	2.4906485017836166	2.479426854549375	2.112657303244544	2.2174882832807747	2.244470590646733
-52	-0.307777404008093	-1.030997512121713	-0.4942869829572913	-0.1541984375398398	-0.732392249642434	-0.46805089593971455	-0.07490205745859556	0.4249818910359411	-1.1675274342623596	-0.2962709955841562	0.07516575585699671	-0.28837740348486873	1.106428024359553	0.5116527663664346	-0.187457650426602	0.2836058728687113	0.3817125847239057	-0.14140415155949274	0.5266237841661608	0.40643954174422453	0.8645864107237758	0.34010884079894627	1.245270725920935	1.2987893787017681	1.306664701977478	1.7791471436404094	1.4321638309559723	2.4815382894805675	2.0705444760498435	1.9089095544303445	1.8940033864839703	2.0589375443927467	1.9441010902912015	1.9461445759275218
-48	-0.24624673960026397	-0.7600395660284722	-0.06797584129098964	-0.3388193241148088	-0.2521998875926266	-0.031398404310346475	0.2957750253362324	0.307655125079645	-0.6099494084217262	-0.058475281895582716	0.17867229833792017	-0.10537143770078627	0.47674322007929804	1.5518945416369576	-0.15431651434084173	-0.0009519326825806592	0.03965661292196568	-0.17771163537933943	-0.022341180536369288	0.14682441912774757	0.3295362881446702	-0.310124664715744	0.5419923649455352	1.1215205164250246	0.9137648917016019	0.9857977007772438	0.6301667078320472	1.5821636875261116	1.6050184924610846	1.0463484499262783	1.013968822780246	1.5940073688316585	1.2999696698746304	1.2915931907469143
-44	-0.0796978397145347	-0.4311809826931872	0.2907343797495936	-0.2261263275397808	0.30775079053426796	0.36204114464905957	0.5067113625130962	0.23324520827055611	0.15627795418383575	0.2949466399852355	0.26977789333895685	-0.02671639055718997	0.004054733541801451	2.0140852877310857	0.008297224508139066	-0.24301832852996186	-0.3538352242119376	0.16992650883210808	-0.33781254206244954	-0.07866128514218533	-0.18622958613107282	-0.9042481161175667	-0.08601941891648503	0.6428883059482742	0.4165526916000542	0.09344439929973154	-0.20034174570523766	0.5403454886145491	0.7925983051316026	0.06559651328453045	0.0189667939660905	0.783803818631132	0.40907454387380227	0.43384119758744133
-40	0.168367385439171	-0.10771527859195193	0.5238654600268542	0.18112656428383403	0.7577427606524962	0.5917211756071828	0.4889326679283139	0.18416675878757185	0.8573759772588567	0.6354663355995812	0.2909457676217558	-0.13948947156020697	-0.1990394885283116	1.852061624619343	0.22376951518782864	-0.43066546212182644	-0.8280139544562491	0.506374834689544	-0.431370674474706	-0.2272466862424728	-0.6228246077071516	-1.4557241164647257	-0.53533744676852	0.027005944332842317	-0.08605872817961514	-0.7378861885514452	-1.0111961339215845	-0.46940275908212964	-0.189016669511411	-0.8598524906383768	-0.9249916053306363	-0.19343674134053762	-0.5520538673767973	-0.4548210788210933
-36	0.4020870317797802	0.1266890612026247	0.600417850885824	0.6815446598011767	0.9510229205916042	0.5984384998471203	0.2529620223811229	0.07772146890806217	1.2788073984284263	0.8343265035545389	0.20796962029878735	-0.4493051756005378	-0.26041570240075634	1.2990792956932236	0.39857974547843933	-0.5734454378908735	-1.3629851306835492	0.3981263031444554	-0.3867976953754347	-0.2857082478939209	-0.9476039385712751	-1.9904051968866363	-0.847051081902997	-0.5359283076106868	-0.5103866445053123	-1.3853863442729266	-1.773701067261032	-1.3449301685709305	-1.112506267599822	-1.6014696319201178	-1.7080028013975463	-1.1104545565225437	-1.4095280134853512	-1.2359895674971022
-32	0.5369262085709968	0.2219101781010771	0.5287629948617486	1.0094958518290145	0.8716227986263904	0.42326944959586765	-0.09959407125600306	-0.1508712466722331	1.3517910207951247	0.8322404602019564	0.040665674851981824	-0.8597877003896696	-0.42668208372154415	0.7137516122917309	0.47559314846126055	-0.6799945218084169	-1.8674946976242015	-0.3407687536219109	-0.2461807572586642	-0.2585483186869804	-1.1447702617352822	-2.484577172682124	-1.127865073217478	-0.8920061565766363	-0.8005873540692569	-1.7846832230331704	-2.434548848681236	-2.029227728488753	-1.7730178788243414	-2.0918931908244343	-2.268859142297194	-1.7630557969403136	-2.025823826443514	-1.8153839065494086
-28	0.5715137705678697	0.2011147285390557	0.3630172899140816	1.0030167077489984	0.6575952751723121	0.20395418950085803	-0.3986742486424921	-0.47317412376148116	1.1616277665373866	0.6769622547224142	-0.12813928690983206	-1.1953880756715105	-0.8498372414113435	0.376298337224758	0.467878489505137	-0.7330289464563172	-2.190067047311799	-1.489965315871683	0.05585749805772101	-0.14870485625869634	-1.195641753039034	-2.8314351964035596	-1.4272249901023528	-0.9522023772994418	-0.922464904840342	-1.9175378035769564	-2.8879578040641984	-2.4600205359338205	-2.0372679182114957	-2.3043258131976394	-2.5592029030082384	-2.0191829153579857	-2.3056204260788924	-2.1200587695954862
-24	0.5943462833657529	0.15573027690669983	0.19748508880346108	0.7070963364868481	0.5352653847531685	0.11785552620934418	-0.4629128563637586	-0.7500542979376853	0.8804197885219353	0.502097426577327	-0.1824127729101948	-1.2671194044546397	-1.4303418361790783	0.34560269030099056	0.4502572107868091	-0.6858931762544312	-2.1708404963044328	-2.505860083929049	0.635644672696299	0.04955632227068386	-1.073446986349255	-2.8705279754644057	-1.6624368387211466	-0.6999428254575457	-0.857771275262009	-1.7915259554453986	-2.9981074257495983	-2.548281424764328	-1.8691428852573693	-2.227954382039751	-2.523900025671222	-1.8444536877794204	-2.197169775183881	-2.082849497304787
-20	0.71737241563876	0.19509065101958944	0.1421949114785702	0.3552007964226164	0.6951280814740353	0.2935916774012999	-0.174638568914091	-0.7870201448597364	0.6712316257695975	0.45608350519424873	-0.03218948087909848	-0.9583245491627995	-1.830606932786609	0.4608640361117445	0.5141509758365982	-0.4887678908882484	-1.7175426439790513	-2.804581635069991	1.525044198954199	0.3400528720376435	-0.7618808131055801	-2.4729461607485987	-1.6526833730933057	-0.18961335670758975	-0.609701393495442	-1.432961102682475	-2.6680331162802213	-2.2117385808416783	-1.3313693966630296	-1.8655080748188535	-2.1225228256042796	-1.3034672704212198	-1.7043169693832316	-1.661454077340571
-16	0.978299913320588	0.372665612948804	0.27881696749864576	0.2349638783959929	1.169878837492812	0.7300632577583605	0.45766267064894095	-0.43785822280961434	0.6103328451005983	0.6128928049825932	0.3241262427729685	-0.29094159529663205	-1.6709921317827374	0.4678659427274435	0.7055761200256899	-0.13485699857995948	-0.8681809284225253	-2.09430288739733	2.5601854259702352	0.6992747766005898	-0.2892168156951212	-1.6360938507734348	-1.245690104200516	0.45447912697488024	-0.22230155709884536	-0.9001242495699036	-1.9162779998081645	-1.4474196397477164	-0.5743759856027575	-1.2587133614231896	-1.382402058925847	-0.5480060563556756	-0.9109218693622833	-0.8877476431367655
-12	1.2802658048731084	0.6320769174829861	0.6106916054565955	0.5123431073604802	1.7863706305225016	1.2693502870936606	1.2782812086256776	0.2960913173829344	0.6642210466781056	0.9162538624518486	0.7718598227086815	0.5608597383643913	-0.7993327359045473	0.1885032202014509	0.9838532780602902	0.304462968534436	0.19427299450462504	-0.577581642599974	3.3829207334938585	1.058761951634439	0.24928323861603505	-0.5295950160960676	-0.45577934269272785	1.0470143530160276	0.20628447778595208	-0.29782444163469274	-0.9098919607078095	-0.3915598382600637	0.1905055190283353	-0.5159941302623341	-0.4407011855442884	0.21041297859473485	0.006026033296868019	0.0907750574442693
-8	1.4186063969081704	0.8162651041403006	1.0377459499861446	1.1187205286391253	2.2318963948166632	1.6527787405247056	2.025441641462179	1.228969809290338	0.7287377100665473	1.1981911628989304	1.1156517239059676	1.3251011338156962	0.5402283654878611	-0.3518668404278448	1.233706590398679	0.6895505172486153	1.1930671900191059	1.1138408155929735	3.5961909203333327	1.3215560879719854	0.7105427962483493	0.5491093383276825	0.4902706431885314	1.3834793532727976	0.5451574907844068	0.2374839031660892	0.08321272560806527	0.6923572403593573	0.7466125469431095	0.19741964290366293	0.4740614283036898	0.7564046959853118	0.8093881586620577	1.027369854240552
-4	1.194206830824334	0.7456388454685171	1.3831309045203204	1.767316098519523	2.2115230504467145	1.6435316759575982	2.4308807788510194	2.0441391416438544	0.7058125716509169	1.2685013977449127	1.1705855101594849	1.740733738318998	1.767868633575196	-0.9174925065717987	1.328953620416382	0.8726239182375102	1.8613249016497886	2.227679962255898	2.9976885243071743	1.4112294876708138	0.9647359227618773	1.2971509662303187	1.2461203305254185	1.3156529631776241	0.6881530863553844	0.5883792623923538	0.807013450015557	1.50965249157271	0.9479727125075694	0.7178598624225024	1.1280029983651398	0.9462927555988165	1.2840491500860294	1.6623948770513306
0	0.5426693544991849	0.31884142675962374	1.4629018269797458	2.0916821903824623	1.607873316520039	1.1503695220513457	2.330862039403225	2.414893621069728	0.5589311108782633	1.0206428740481854	0.8578476288117736	1.6669815736645062	2.2508547249232174	-1.1896578043465615	1.2047008245569946	0.7730318288359409	2.0456910081713082	2.2849397601612575	1.7401183799678905	1.3198558058794154	0.9604801511356592	1.5374684294983922	1.5323021373208843	0.8294169285814301	0.6132664068951021	0.712066410174251	1.1281903953678407	1.8651581955549053	0.780770180638303	0.9574676727916719	1.3879853451971509	0.7686187009479131	1.3293347325141138	1.8379492713300831
4	-0.39911633629167503	-0.41623929037861646	1.1746928662205869	1.8383632851916478	0.5574504122964915	0.2872960262197614	1.7404897169039037	2.1447811072558465	0.32143562950995574	0.49619674557339555	0.2529839866926672	1.1424072952037725	1.6654013353262107	-0.9508596634699766	0.8975400305975462	0.42449396741504164	1.7593960717603445	1.3373125757785786	0.303276508280855	1.1237944336174648	0.7538781743089513	1.2868885961466705	1.3034293618672383	0.07965386638796268	0.40653723375676476	0.6641121489923759	1.0808473798165938	1.7543070272022703	0.3781344881047504	0.9480654573346058	1.2836863962188423	0.35798543601252497	1.0118803952418784	1.576182123019424
8	-1.3343167271304417	-1.2629703251423001	0.562297402392744	1.0121370528416334	-0.5969477280804067	-0.6645233018309985	0.8583671428943243	1.265811082505123	0.0640072895460578	-0.12698656288510873	-0.44011458643421236	0.3694926789014865	0.22925740422541044	-0.23193514288518421	0.5314202295237714	-0.03354872754686651	1.1647586793102436	-0.06405770762482989	-0.7368089538091392	0.9519940590664778	0.48155540106308964	0.7298338990858438	0.7849891165941428	-0.6504252536564485	0.22857777716623612	0.5698956236755928	0.823726413554446	1.3586065734894037	-0.027235709062000454	0.82309174329848	0.9861408447163494	-0.05279341326735947	0.5435698018655332	1.072811720046843
12	-1.9455144356245473	-1.9626814077415442	-0.1919325138253001	-0.10897502275609926	-1.464900489923308	-1.3863543237016351	-0.014950103088720893	0.04126539070916558	-0.1637283261456925	-0.6262121184751187	-0.9871272419802469	-0.37783101105664274	-1.355992552194734	0.6591205580282634	0.24789784786101843	-0.4262700070109299	0.48859354730272053	-1.1682522267409985	-1.013448235814092	0.9121914482927937	0.2827243797793536	0.10896369042303995	0.34135651502255704	-1.0658596727163727	0.22726164700827364	0.5472649322044095	0.531120298952019	0.9367600059700218	-0.2099583143655361	0.7346031647255055	0.7042117697102259	-0.23921950101059944	0.17803025200718187	0.5953056201209908
16	-2.0562837071954676	-2.318237537253092	-0.8428584912000814	-1.0979143353399101	-1.789954657803797	-1.6716010528322254	-0.6045927390092861	-1.1305026979514192	-0.36768996622712863	-0.8478433468393513	-1.2367560832269784	-0.8747251011698273	-2.2453069630201097	1.2704397407881145	0.12850099769573828	-0.6323258860835843	-0.08100887367538177	-1.4395154678240079	-0.5653477892907126	1.0233118508251995	0.21990568880350275	-0.39909028906197397	0.24839323696365714	-0.9952207778599287	0.4486836481687116	0.6294163449608643	0.28921329902108833	0.6726813299361644	-0.0647383554135434	0.7568408827746768	0.5617568478706407	-0.09696835254982566	0.08045703897428326	0.3406113675577788
20	-1.7234069065451172	-2.291768306668065	-1.1952524155003441	-1.5796054561788107	-1.559648271437633	-1.515817042338396	-0.774130640459601	-1.8706335974194381	-0.5947976097348526	-0.7787561396964274	-1.1845945089949652	-1.0324175331752568	-1.8941590738157306	1.226995584251072	0.15708899458324682	-0.6366960986274822	-0.4595496642907984	-0.8520362355654901	0.18947170626963866	1.1988533705007132	0.2503183775780746	-0.7465200405346517	0.5073871599738534	-0.4797203230667004	0.8007749298858915	0.7420307975154379	0.06797029060845895	0.5724326953740518	0.33448776518295015	0.8406674840683145	0.5355467782804427	0.29981034918430527	0.2440498614110016	0.33708086524735653
24	-1.1999940841895445	-2.015422100700733	-1.1920767992440184	-1.4023776018975693	-0.9854157542144875	-1.09710395059159	-0.5694990143702586	-1.9659738491013345	-0.8774021245738656	-0.5337367640371182	-0.9515424942787996	-0.9124633646815725	-0.37213036324007237	0.4491941321476016	0.24688938197744853	-0.5154101239542992	-0.6650316698450043	0.11722071439234723	0.7053981405568399	1.2995649543376273	0.26975655487618116	-0.9846660469943954	0.8292301872298203	0.2439757281342494	1.1005032034745483	0.7575257401414169	-0.2139824027380972	0.4777071761944943	0.7691208104742333	0.8550032355656285	0.4957028316857113	0.7332305293644386	0.504249809899377	0.4491947281940479
28	-0.7914732078596629	-1.707795019606384	-0.9287772155200532	-0.7024694663431953	-0.3694194545955648	-0.6572731120681145	-0.16909262495264454	-1.44798636070881	-1.1753405302890811	-0.27037450602932983	-0.6897032839527889	-0.6601166708492348	1.6372593599944303	-0.7632698993485635	0.31342190424942673	-0.3616488268781385	-0.7563658337570164	0.791128693013731	0.6355598552869977	1.2275466887952737	0.203851937733004	-1.1689627141049272	0.8130230287052183	0.8636032917153327	1.1820664375978445	0.5981655105747382	-0.5772013053626226	0.1915765846899225	0.9956607197419051	0.6946117860422943	0.32549190439061426	0.9608302688181858	0.6483712776026744	0.48399311181895893
32	-0.6865101439309436	-1.5483742913254108	-0.5897834882150719	0.17318074361469393	0.0565572491350368	-0.3598965993377779	0.22423998954901417	-0.5668044672007007	-1.362271663087389	-0.09060966945659635	-0.4797619569109709	-0.4058911492113531	3.1695520797814636	-1.8442162228752348	0.3414018741571166	-0.20830032176832747	-0.763507543066683	0.7124296408785952	0.024368280483353058	1.0002999280469953	0.08093151429723923	-1.2751462427369862	0.21200787967560802	1.1466941804544848	0.998426792485013	0.3157606712952187	-0.9095360017701096	-0.3666964164058761	0.8792497493479483	0.37849575185582196	0.0349434948575407	0.8481931068940102	0.5501236901699091	0.3270611456719764
36	-0.8512259700264592	-1.5746327598870442	-0.33785831842952146	0.8494918324957422	0.23761531650632595	-0.202042728152382	0.4932053970759278	0.33182340776589464	-1.2696514097583056	0.016830719964926102	-0.2793748669723349	-0.19037835251902807	3.4737059982335197	-2.2230606022974677	0.40514367716543453	0.0034052207980013074	-0.654555438296442	-0.059997714904462866	-0.7350965123690658	0.7595291714565492	0.03688078736888104	-1.1864446371641222	-0.8706361629439143	1.05652606220527	0.6588448865468732	0.09260546392663603	-0.9907193158885668	-1.0718719932196867	0.47392970203906876	0.07301132362528785	-0.20746165461613278	0.4485979068874187	0.2549199753524064	0.028814276607601247
40	-1.0574603054051206	-1.6646560388498208	-0.2236435407714139	1.1051461668722498	0.29074215815571713	-0.03265703461269738	0.6572312696075878	0.9572460627229565	-0.778798458994111	0.15432627460139908	0.041222929850450916	0.04609794158025771	2.391218894643295	-1.6360979038892693	0.6204297526907676	0.38075905942151883	-0.3606335809662425	-0.9792393421245211	-1.1517109841832738	0.6971858722250655	0.23581777453488925	-0.7687538842819224	-1.9903786132151335	0.7631066422269359	0.3714193692366642	0.14544492923254881	-0.6161433442772123	-1.6349314409939602	0.000585133906839172	0.007779929301616827	-0.16179440874735404	-0.0187459531698198	-0.04196936254037887	-0.22122259382184536
44	-1.0312049362850075	-1.6212811429098324	-0.17355437532952514	0.9540161466353776	0.39438336988059	0.32715269840612027	0.8306242802629522	1.1776847809621787	0.08272621759747564	0.4236448694500376	0.5897905215631376	0.3967050601956969	0.4209571172099668	-0.2929896108859437	1.049796101780672	0.9798593496379093	0.14996811709687655	-1.3590789999027009	-0.9493898129335265	0.9333407855311143	0.7447770815165302	0.00582011228820499	-2.5916168624295746	0.539047716687131	0.3176163426963258	0.5782417044345503	0.24559149084074125	-1.7653717950118588	-0.2732431881681595	0.3229437164259327	0.31870087900759825	-0.2878934137705145	-0.11812102764824524	-0.22204546574321446
48	-0.6278904660584668	-1.3045370545829476	-0.05769691974258726	0.5977631196188755	0.6524388177611671	0.9406311488244755	1.1187058658965474	1.0395218107680988	1.1069674463934083	0.8313549736014089	1.341393944214624	0.8908773638167299	-1.5564364155573753	1.1986829012170859	1.6273670155446136	1.717599268391445	0.8032430390105194	-0.8296543338809711	-0.2305776322026909	1.4239559137632554	1.4453723394141402	0.9762847994951093	-2.330123418647033	0.601684330374814	0.5369887338432083	1.2788883415358268	1.3697272504556506	-1.3547323907980744	-0.1856138552509364	0.9459558701473966	1.1524308890810533	-0.19739970515003588	0.12728738752653063	0.09309460199216972
52	0.06480990333883502	-0.732846377429831	0.20854338950910783	0.28715175317744684	1.0170284483981313	1.6790144401120923	1.5205405912156305	0.7034684401871087	1.9613176534725263	1.2534178463761345	2.100472206534586	1.4341921770125579	-2.7391717364772004	2.132824415544091	2.155807489674297	2.3603019654763573	1.411179896606486	0.37466183210193665	0.5996677860378643	1.9586530874392147	2.047717566088555	1.817944760501073	-1.297346350255399	0.9910202597392779	0.8944114424058296	1.9342020701211868	2.334547513789672	-0.5695283994600587	0.22336612585416846	1.5846483667419453	2.0163578936213438	0.21349316781501598	0.589672563971425	0.5842751249820615
56	0.766418037863717	-0.08431791492870022	0.6007667168708136	0.18102833582949218	1.3231656517954362	2.2718958797315434	1.9087871264902851	0.34823137433823803	2.3278944433566404	1.495806332626345	2.5780944759128124	1.8357708407783322	-2.7856104303601983	2.0984976238674524	2.397668594028866	2.6203501158360343	1.7471315816637458	1.5018480978241038	1.1125341625735066	2.268832439416402	2.2245480958087267	2.185796255315135	0.0017043742075372004	1.5585020741214959	1.1628229588714052	2.1822664682604485	2.717553131871748	0.21887493078284315	0.7341278176846219	1.8684537363562161	2.49003934231555	0.726547239376582	1.0040882800500648	0.9669306253816108
60	1.1621839970810262	0.4012595404984527	0.9986838077126355	0.2788665287606514	1.4067354166753854	2.456770890708871	2.100438827933596	0.09023042745458983	2.057318443826156	1.414350029235506	2.5447280342703698	1.9095137071082626	-1.922211403761995	1.232678171860321	2.211352819581666	2.312423700216379	1.6632125335662948	1.7136282877572446	1.139552351935529	2.186614031039389	1.796877022021244	1.9005290221867939	0.9151844955226333	2.061408991377474	1.1730562418884765	1.8253170205761489	2.3273122251879443	0.6351291521249381	1.0786977979128414	1.5697461327021163	2.2876479567944346	1.0740476819577849	1.0998500557787485	0.9792659854006684
64	1.090196845163167	0.562901555070662	1.2685189215104324	0.45584747080153415	1.229393598313621	2.1442196315034803	1.981742377046142	-0.042542271208642575	1.255735751796308	1.0214556429822907	1.9759229371728342	1.5958082635643551	-0.7490050177737085	0.16371789533288314	1.6535613495086305	1.4843752346708918	1.1884117096460332	0.6118084772875769	0.8682699181569503	1.7630413726163143	0.8684054591188273	1.075129148629859	1.0096706126470547	2.305456155678306	0.9410026645744225	0.9842313503211461	1.3425345386941663	0.5209192024430452	1.1087729902883858	0.7826736549643992	1.4519079886972608	1.1057212324835908	0.780946073944591	0.5609186873579254
68	0.6497617943571288	0.415245263720207	1.3622314895569119	0.5712706432224447	0.9297478175531251	1.499383445768864	1.6103948314062508	-0.07581030558280927	0.265194981620715	0.5141007291211793	1.1055065365536518	1.0299891207439489	0.12858571079691142	-0.33407747661167464	0.9879553889126653	0.442970960213927	0.5474085793979555	-1.4474918805770016	0.7145913821298512	1.2755119768364045	-0.1733885403070175	0.10260257098996159	0.32327118434350194	2.2599952163857355	0.6948078853231102	0.09910535787356232	0.2710348062824845	0.047686904548410125	0.9075827575657516	-0.0505181698715765	0.39507961173445344	0.9008478499556498	0.2281900191506288	-0.06349500252666791
72	0.15480871459499304	0.13294580545238427	1.3531094755342274	0.5640043602055119	0.7529640774789839	0.8730248190772574	1.2116364210055484	-0.04408768180802562	-0.47523644446550284	0.18587583256522403	0.3325270405956916	0.49452975267484856	0.4117336858844531	0.1949981446111316	0.5711996540906964	-0.36653759983027306	0.06423055364366154	-3.479274740971535	1.038826582193194	1.0983153553889466	-0.8173753598557286	-0.5145363198640982	-0.6534007771207684	2.0707120843105287	0.7672568540275233	-0.253136008338783	-0.27444124152512006	-0.3598181596254515	0.7707877735704579	-0.30957841795007907	-0.2594534748202542	0.7511224727740082	-0.15191461107523085	-0.4624903190380127
76	-0.050285056106448504	-0.06940236670137805	1.3789839709751872	0.470848022702672	0.8949052072819024	0.6126968845157111	1.059603688425832	0.024869773474130406	-0.6308723672197615	0.2637738280789234	0.021515693461217265	0.27190658381476834	0.1944147492507042	1.570955272522977	0.6672742945990163	-0.575704513526802	-0.004402704525799065	-4.386836040865222	1.8814057064239185	1.4979859552709887	-0.6782946569483593	-0.41076767340901726	-1.2579394547173797	1.9650766799904404	1.405489798812014	0.3574137976682498	0.1255028691699445	-0.2526000433743159	1.0567539903663155	0.508476673272952	0.03406428909642048	1.013642546955569	0.08113225528975532	-0.20830492622712474
80	0.19383346985516098	-0.09018403268932991	1.5252379140492298	0.36830603983397164	1.3520321811872769	0.8559461214389499	1.3043079343290094	0.09644348895041992	-0.13714870775882007	0.7600582222822398	0.30047705693675714	0.47519335030743903	-0.18953008901904875	3.034738532987436	1.2892831531398314	-0.09258995926845298	0.3826585104341029	-3.572770824948737	2.9090051577555656	2.464415782428461	0.29298362061915895	0.4466915715383804	-1.0373944017921468	2.110489124691669	2.604333632569587	1.972971792008166	1.475845213978622	0.5850738272200352	1.9817657420668349	2.5151836808598547	1.4676619731087797	1.9081247996792132	1.163494226379171	0.8870803095355451
84	0.7382177095848489	-0.025927547299966252	1.7260556177429585	0.2872577004332676	1.876813287764859	1.429413076606533	1.8495731307062533	0.10376548740891577	0.7547383885401779	1.4313641750436845	0.9722461675892597	0.9574858522082825	-0.4428597379470569	3.663829317379359	2.162284845614974	0.82771110325691	1.0077974770850726	-1.3083126511920673	3.6079535393221893	3.678229561102157	1.755626793243555	1.7227035717385433	-0.011458426685013736	2.5140936311189543	4.064665307273107	4.183546055721742	3.344305983682904	1.9980430552581605	3.475461235808434	5.325554834271552	3.762174358406086	3.3722138319705977	2.971908323414011	2.642677538875366
88	1.1772724360306634	-0.12947066095565737	1.7596374705710753	0.16432942408557347	2.0772471375472032	1.9198913525746153	2.36504005788688	-0.05915354922380152	1.5800614317101913	1.8771828365615333	1.59585678174508	1.3621436323107348	-0.5142687546143769	2.9162676260752423	2.835855715267521	1.6877218442267659	1.4863625727319754	1.3659979070507595	3.5897438435521245	4.640007484165234	3.115375987770418	2.859345667295617	1.3370430435755847	3.0165581627025264	5.306455121947947	6.277472003346463	5.047501074445005	3.519517412836485	5.171876894290899	8.180031755775628	6.265199645436774	5.049789892798602	5.032328592946447	4.554516780798314
92	1.06653225152632	-0.6493079645929548	1.3661627734977921	-0.11675965011443187	1.625383015343629	1.8967857312950607	2.4500243601930674	-0.4903408872622219	1.876283640892722	1.7427602962362447	1.7124005512872609	1.3055922952113868	-0.6045914277071044	1.0021309827298723	2.904973499593137	1.9893296906790245	1.4590554200528114	3.18207596929147	2.8426835465185927	4.909226881984056	3.7955417537228424	3.3370382701545003	2.3429078996633397	3.390942326567478	5.892218098069136	7.544861774469122	5.958752140259552	4.603934276401086	6.559980375893696	10.248199437016408	8.223365762929404	6.4372763471202425	6.706762773746983	6.007791503996824
96	0.189795180676018	-1.6421967703365787	0.4260202337476292	-0.6186797007199358	0.4648185658640283	1.1681647271226892	1.8683578920876593	-1.2016282051265808	1.408523913642	0.9214675999264782	1.0997321577916805	0.6001368149864176	-0.981543002034629	-1.1728235453558609	2.2271246853865723	1.4906055889642438	0.7875905613087967	3.3192911064267245	1.773537392906892	4.331215847524204	3.5061988742043395	2.9191563055723435	2.5393996174594817	3.4908759505827476	5.6461591578029235	7.5837402152278965	5.781729683583688	4.902942645091963	7.2231402214789	10.968598338090644	9.093797660756188	7.119467240478443	7.47091720602178	6.550400240572425
100	-1.280080553637614	-2.8846871780043406	-0.9152840948838015	-1.2618085114092714	-1.108760115685147	-0.0819544566588724	0.7118387800364285	-2.066167349367169	0.2947238974282722	-0.36073475985049325	-0.0888350901745014	-0.6148077830051021	-1.7473539069881967	-2.4791126188629127	1.0151240800023658	0.336016445503645	-0.3576853564291609	1.8231755449040654	0.985808489217921	3.126843206140514	2.3688321053779164	1.7520526603332671	1.9071953248509323	3.3505084430025716	4.745539176403675	6.452357275884657	4.651660907445138	4.425653923305058	7.037876111381461	10.256978009076764	8.739500023711251	6.967115384631405	7.140517216774173	6.083940490620972
104	-2.8253498006059354	-3.9462981124425607	-2.261713975918139	-1.8175022556193778	-2.5492541725646065	-1.3583435977973188	-0.6062648877095932	-2.833220236300786	-1.033656952155587	-1.6294323164808664	-1.3807091678092105	-1.909545416779203	-2.7172441413940125	-2.1941809598838096	-0.24628272590445627	-1.0088299487392651	-1.5648167093823475	-0.45264896636167257	0.9435751414317887	1.7978662207034388	0.8394126274850264	0.27881136466205103	0.8584229328416931	3.179908029157173	3.637543430681198	4.6034135702256425	3.0303499622129935	3.504036417697348	6.232724650859342	8.496592500215646	7.432049255680459	6.197943194953504	5.941183552047073	4.88496779162172
108	-3.8292093180299296	-4.400683391904479	-3.135627023409597	-2.012092585251986	-3.3071579849668793	-2.1003735012430873	-1.5433291157857805	-3.226024381122039	-2.024472946777735	-2.3818981587354306	-2.2155210915895744	-2.7632801462979244	-3.4834952266481354	-0.4206940819132371	-1.0262093518097053	-1.9887965867374993	-2.372003072471961	-2.3410196245216226	1.7255835489575293	0.8920173026451812	-0.5263005481783599	-0.9820528005601058	-0.029339183047845316	3.258527270673156	2.8230698037397435	2.6451210908864087	1.4641820155369993	2.5883355075336847	5.277775274303072	6.331487162817022	5.681593403776693	5.2707567081892	4.393334854477964	3.4546940239468036
112	-3.8982221981810063	-4.063582410089562	-3.223174563853233	-1.6886798100751774	-3.101560346402101	-1.9856347987587266	-1.7158118443084334	-3.0806713026468575	-2.254417890578894	-2.335339778726026	-2.2381474915263446	-2.831867687704958	-3.638047924393303	1.9592304180270514	-1.004090187398693	-2.2409570160553844	-2.49379586543839	-3.002201787998172	2.991747610168121	0.7435649614634382	-1.3427158560231154	-1.6800138907931628	-0.3661617031389461	3.7718539142745917	2.6130118304083947	1.0568947765369194	0.33417296325236373	1.989997024280245	4.650492179573333	4.372905720160646	3.9920625585855616	4.656107890771313	3.067368022803736	2.276264423345392
116	-3.0859377306273355	-3.1211383263941754	-2.559928172324034	-0.9256708002561371	-2.0775973744390193	-1.1258938284104432	-1.1239500017399358	-2.445653909230591	-1.6252529580090576	-1.5774069984664658	-1.498393651040223	-2.13929676469462	-3.0234181804616957	3.776155462267882	-0.230190678849786	-1.7787977412136182	-1.962703342250766	-2.3501229226858946	4.181547154359601	1.317449089538751	-1.5588782986383682	-1.7739800169978766	-0.17205665962171288	4.683602798081045	2.9804308339210586	0.006874074676413846	-0.275129228135703	1.7221602157981426	4.595991123039792	2.9662773534270075	2.6693057946522525	4.599319446395647	2.332520002198111	1.6061577756384449
120	-1.8967478227410792	-2.0689859338021916	-1.5427874287754295	-0.03644998362398368	-0.762523768407149	-0.039812944728945934	-0.17813979044284128	-1.5827631910417488	-0.4097953130389289	-0.5386283980121949	-0.44485473520497476	-1.0818507644042095	-1.8502956582083965	4.219577301816074	0.893080887923868	-0.9798654293116611	-1.1082073422108956	-1.0297017071475676	4.812328326473086	2.23429798515789	-1.436107274244356	-1.5032967291070676	0.16012272198304284	5.718706116543101	3.5832352547776636	-0.6443303211156844	-0.532631455507194	1.5270420274327365	5.0098056666727455	2.1238701289913813	1.7684142544920924	5.002517210728012	2.225052112683675	1.4047703707513914
124	-1.0442897055009341	-1.4821063242686003	-0.752245483883386	0.564396201139276	0.16693781274132619	0.5911618456220228	0.4931567894882362	-0.8585798122663458	0.8765864946168184	0.20197856375244327	0.28660765217898837	-0.24462987420784654	-0.6124928578171601	3.264288655622599	1.797580356827818	-0.38854405185829977	-0.3956128944899125	0.015469758732302535	4.697624194682608	2.955038063217957	-1.367928382280871	-1.2270933358682568	0.1281823363644124	6.463119490518129	3.9354462524235725	-1.1829820841485723	-0.6995664221267395	1.0586407157872721	5.4940614561605665	1.6224522549674225	1.1705219716083148	5.477093205928749	2.4824294981269994	1.4188203775823738
128	-1.0829074355441197	-1.728164668488366	-0.6666736585951312	0.5672144279464307	0.19839951345897403	0.26588067345247984	0.36286511925635423	-0.5738980159575104	1.7091042952302145	0.18614806187838712	0.18743693781259485	-0.1188374307731531	0.15310439428774972	1.6285273987661713	2.0104527422690657	-0.43589872011757064	-0.2071296120420886	0.10805162760157025	3.9837577242406845	3.030371658303637	-1.6470376211544349	-1.2272844283589242	-0.555412529496766	6.538300020876412	3.638246765487772	-1.8292050315450312	-0.9562289690670772	0.10698229792525775	5.558927045138643	1.1891807287709837	0.7195199709845952	5.540497765857779	2.7127067974265864	1.355191227352397
132	-2.111395830545703	-2.777698748251267	-1.4174102508998376	-0.0732977239427105	-0.7768574933465457	-1.0723112794505723	-0.715103088003956	-0.8249378183518026	1.780348058020312	-0.7120104414129482	-0.8664732553540219	-0.8633948542730794	0.12347246675311947	0.2980365447625905	1.3613761629065446	-1.2225599258073758	-0.673198936670087	-0.7947975377043277	2.9938776417484365	2.292107099468113	-2.3082029761212004	-1.5785465200624047	-1.7781296923566623	5.7618598792515305	2.5551884109834617	-2.597135775684684	-1.3142257895667255	-1.268611785546758	4.863849627612538	0.6635465605195302	0.32854270852109535	4.854153620862116	2.6005632811691943	1.0431436273940866
136	-3.6969630624891856	-4.203923214788946	-2.712730877703015	-1.1081318827308004	-2.4062342582986216	-2.983956091022754	-2.41273688660862	-1.4647027217124426	1.1190087767005312	-2.2267842236564745	-2.542164557714342	-2.2300682011567283	-0.6659993512504896	-0.0774417070579346	0.04461083549918869	-2.471040481050651	-1.6335709053757521	-2.1247024482489234	2.014172787349395	0.905611631968006	-3.1237039487174094	-2.145042890855039	-3.0851085108113137	4.223849762742787	0.8573660232832043	-3.298184148090732	-1.6522378879793793	-2.7717363764401486	3.380879155206166	0.0562941430577916	0.0019818646783263316	3.386388293299557	2.0467796274007375	0.5016901480406051
140	-5.0689411035351615	-5.3756317956624535	-3.9736370940019548	-2.110410446560764	-4.030292023973661	-4.725073325625268	-4.072433938234939	-2.1820006315454212	0.044246658571111104	-3.8210441969720534	-4.1993379486872415	-3.685565939181169	-1.8533426476416215	0.4601189184492886	-1.4875142536754178	-3.6678888705154717	-2.737006895784424	-3.0822184008027413	1.1620820731387176	-0.7293586712542495	-3.743521919335747	-2.690819971920322	-3.9420981307637115	2.2474915924549017	-1.0710740062374484	-3.67321561839631	-1.8376150084830267	-4.0422539608941435	1.4013063872243705	-0.5068491088468243	-0.22119185272638006	1.4216066563000094	1.1794646948599674	-0.11141484947685273
144	-5.48964642092391	-5.7452530715847185	-4.6091971281028865	-2.6752409867454214	-4.971111285056573	-5.582814202518518	-5.009138094652947	-2.6484384469876523	-1.0038861010954971	-4.920122134184331	-5.181200014384547	-4.656264770195966	-2.9279625341878055	1.2662883964992793	-2.7332224776878995	-4.312271107276625	-3.6108550934225296	-3.130609742843651	0.3859581937582153	-2.164028400679542	-3.889592160895056	-3.023919336313702	-4.048297871859108	0.2559232705330551	-2.8055875230526808	-3.5615780263624943	-1.8413521004917188	-4.862917410970605	-0.6093603357188982	-0.8994791485011282	-0.3454661360601549	-0.5809090718861593	0.2484692030832316	-0.6231056436065581
148	-4.606011855894131	-5.078958975366558	-4.281634796776581	-2.584755175740356	-4.808249938269271	-5.179653154647243	-4.805232035902623	-2.643537037850857	-1.660149450879021	-5.138173567197036	-5.091415869256006	-4.76099823703359	-3.434768906504434	1.5555838307206606	-3.3368203555737517	-4.131820191441936	-4.000672807129496	-2.293910497595884	-0.41011083022525086	-3.0665283125702603	-3.484132996345622	-3.0789940279471124	-3.5012798220927355	-1.3786833251476993	-4.031249512984915	-2.9924838467385277	-1.760078664150589	-5.266320692117636	-2.2136013451954955	-1.0756704780123425	-0.4436121571784794	-2.1861987058756425	-0.5140411244765545	-0.9484024023906703
152	-2.612611764033672	-3.531285992289804	-3.036322824441566	-1.8653778982749927	-3.5278956801035397	-3.6083390621636235	-3.461137524449334	-2.106905455038241	-1.764240379647589	-4.403291691153265	-3.93181251486866	-3.9279079338085716	-3.1215548436508143	0.9383483505399863	-3.1877689281088837	-3.166675321213287	-3.822255124932253	-1.1019692393137424	-1.2172160117888855	-3.2993643200543055	-2.6507749490569483	-2.903017275156548	-2.7236390045065293	-2.4350187716994585	-4.60655068188154	-2.1493956988427065	-1.7346186594083506	-5.482890592083546	-3.1574449459466747	-1.0700780126257663	-0.6069803818636705	-3.138517133418169	-0.9864281987080861	-1.1129074068581477
156	-0.14847817979518785	-1.5432625970023792	-1.2435198990897232	-0.7239264231524251	-1.4886163435545323	-1.345378037870642	-1.343715425913475	-1.110546347675266	-1.366756316548967	-2.936486713624902	-2.0472369142342997	-2.3582167565887997	-1.9830465266705348	-0.3240315011903372	-2.3928999840402954	-1.693798656955564	-3.121174566018107	-0.22913901450002422	-1.8692451668275456	-2.892644398061765	-1.6018521745293204	-2.566734069065884	-2.2036046926175854	-2.8640665935684875	-4.532963741301948	-1.2364850013032243	-1.8208594276232308	-5.768736347892617	-3.410376540156717	-0.9285617447297342	-0.8560932257018842	-3.4029648218068993	-1.1646059722107145	-1.1935182779696272
160	2.0167691656692557	0.3733226349465043	0.6046638473503236	0.5880139455254478	0.7664983849246714	0.9964625810260439	1.01944720487701	0.21524538045421543	-0.6263305529039884	-1.1101863356217316	0.07609184067111441	-0.38201066755167484	-0.21007493085274473	-1.48235427959024	-1.1571757764210633	-0.048567782964870125	-1.9873585650812788	-0.06568434817896582	-2.109419817367098	-1.9507114837986819	-0.4883566486426589	-2.068659777186804	-2.2032983247442135	-2.7364578177981396	-3.8695378205831394	-0.33382713710425	-1.9006695699388194	-6.220486625224956	-3.0903506200967845	-0.6251705273102985	-1.075392481949812	-3.0934834402182694	-1.096435424897477	-1.224611994512522
164	3.3342492496232117	1.8487676335387924	2.122681850796139	1.8895145606972688	2.744987242443963	2.9373979494319276	3.174173823925679	1.7372399524696647	0.3197079590831806	0.7266158443225453	2.03805541477628	1.6968535142018797	1.8877811384222873	-1.7688298180744173	0.3413987747155961	1.5448409279920465	-0.4957826721071863	-0.49197423333887813	-1.7276189283621806	-0.5668139443391961	0.6874207836915228	-1.3078725304961571	-2.6116866999490935	-2.161590809132962	-2.6628343991760373	0.6592143161342583	-1.7063412623239824	-6.697957021968679	-2.3425335824950952	-0.037568125778953694	-1.0341125700590996	-2.3539962709121993	-0.8070310333857214	-1.1459014386809736
168	3.6899680998145854	2.7661654879349267	3.1682124057888745	3.1094441335373477	4.176404942458521	4.289305676121228	4.88435600954929	3.327898255529139	1.4260280096289955	2.369107717254662	3.66166638403521	3.6853115465579096	3.9547362227728193	-0.8742437340598366	2.010818953205641	3.0428743285601567	1.289498564325506	-0.9667798256307099	-0.6897265893688372	1.2003319233152785	2.0433604665664746	-0.15112608633032684	-3.023404590602721	-1.2356244294441299	-0.9410904622159549	1.9505977581367375	-0.9594526266669704	-6.906339151111754	-1.2588096825289035	0.9876614784100199	-0.5001183139572017	-1.2783179250867664	-0.2769674651782573	-0.8372336008868292
172	3.3942415628567555	3.2387061037310123	3.8356897734121276	4.246226776846447	5.059444891553522	5.14842556607252	6.135672553783818	4.840027320086014	2.718435757449354	3.7812304401298245	4.988377081674358	5.488784776181213	5.638273224900471	0.8824580885541731	3.8210999869194224	4.529714572914156	3.261435262075116	-0.87339782494332	0.8230923393449263	3.2877333081207802	3.697745313845243	1.447156068009185	-2.9927587433595377	-0.0382692663895473	1.233445045218065	3.6962194349428454	0.4526008058088156	-6.588609201962773	0.11657341540230136	2.515151971188914	0.6125188454422166	0.08576457925839125	0.5123590814052397	-0.22015973870005526
176	2.9746587201355825	3.492697468522485	4.335563171884566	5.294773088438624	5.587546334464579	5.757765755421535	7.034945470214544	6.090609058261606	4.204996098392194	5.033523546861887	6.161151393593758	7.04330299506527	6.635465128358145	2.780569069517824	5.72936867221076	6.090548976779824	5.220097528629602	0.09276785678091658	2.4857208666031863	5.565910325302896	5.637902245592326	3.3496775542565	-2.3077449740319023	1.332575556251659	3.6986942197876713	5.851705536373324	2.3669004380549126	-5.710497841722516	1.713520641769052	4.421327579779604	2.150283092791882	1.6655440288454426	1.5018542967071449	0.6421784742354362
180	2.901054136581182	3.730399599193707	4.840610015091867	6.201766475278324	6.011431202016198	6.336797221397365	7.690496902122669	6.892226201776047	5.787143692664257	6.205561145373724	7.283639412610334	8.260737398272061	6.76218126497059	4.139763344803229	7.616232852780138	7.6999316021110555	6.8822498147773095	1.7263141826913413	3.955437650230765	7.809719065975714	7.665297012049574	5.23506830801075	-1.1248244018765832	2.729309075140407	6.173064216287069	8.131661394569626	4.375211704651894	-4.522217739131814	3.3658854876414823	6.388858302198541	3.748986949992115	3.295157662655258	2.5140697892611046	1.5242240390441604
184	3.3847584638969335	4.043480386061946	5.386766896952699	6.872295839124951	6.513392431980558	6.973892194306678	8.146004656252163	7.123868924274702	7.237327080573941	7.311031323094155	8.340475061339786	9.030527092068274	6.02636955647067	4.709918963938676	9.280548072271994	9.194678283365258	7.962814310950514	3.414185515366827	4.994550692346026	9.73328111098491	9.454961752861914	6.706262571569291	0.10577035668609959	3.960767974390281	8.309699991227056	10.108503316153287	5.99094341672857	-3.4533312233521	4.808214652319654	8.01380250814844	4.982583510216816	4.712594497226599	3.291282168661747	2.123699659707754
188	4.334166992688872	4.403841961232442	5.872897610141841	7.21884821022875	7.144881707272187	7.621828059980367	8.392260530264215	6.800677759166609	8.268540361509196	8.281157472683395	9.214672065358236	9.277558303297608	4.665449607514085	4.7673644899166865	10.500974628638955	10.344488117803577	8.29424569896871	4.4678797609059675	5.537579045619787	11.080086680094318	10.699052783656434	7.460313778161589	0.8798089601238192	4.849058139002422	9.810238813427329	11.403340310869979	6.870910627183868	-2.8947479651798673	5.767136559230884	8.98058412191849	5.562465653680734	5.649580941241551	3.6106755642329196	2.2181844655299936
192	5.460563645881371	4.717331874381386	6.1437201344824945	7.215550404450943	7.838624934433008	8.17351816021102	8.426362970058486	6.094491943231051	8.658056237295783	9.004190422212893	9.776798223606972	9.032596565329651	3.108855001229875	4.867011057963444	11.128641100442922	10.973941775271976	7.917266348876791	4.485524643063567	5.671918854698336	11.722274750677538	11.252769441804332	7.430641155555841	0.904579219918458	5.308783040948418	10.541509601681145	11.865082710827238	6.974666101012487	-2.9909536763017175	6.101121887061968	9.212285018550299	5.480302319995354	5.968954071233551	3.413670292818689	1.8024396850855078
196	6.452731593052901	4.900890814805395	6.100182041025523	6.922607881234254	8.472765901154709	8.556142785404653	8.301893213292665	5.280398832340882	8.360835054269339	9.393867468958545	9.982742284366312	8.459702470401558	1.8581355763251992	5.454348073539886	11.160922022297456	11.063137026511624	7.0842771351290565	3.551610460851161	5.589279160693114	11.718123406388704	11.202698679296471	6.824314577039061	0.24840427872407392	5.405103669825105	10.59589860148279	11.642120331934597	6.577533705317152	-3.557306042272938	5.907281860695899	8.915562607190076	5.017136084287295	5.769574150777464	2.8725824283553365	1.1235842676405174
200	7.112024766131999	4.932836520138558	5.767679199915549	6.465729220278386	8.937803245866833	8.77551744152803	8.126559236989735	4.626354682686032	7.5415649223656285	9.439819312104248	9.91032788635578	7.809051017118758	1.3113836016924316	6.579744799214157	10.74809453157949	10.761566134939033	6.160724147501087	2.1557211821488798	5.520365224252115	11.287728281132573	10.813584300396078	6.025811180159824	-0.7104997020902855	5.346302495809745	10.25290295873305	11.100427599537591	6.121991618912354	-4.176785935346963	5.5113081792920715	8.48257634882281	4.601658809487885	5.375777707832495	2.3360316694408323	0.5764247760524494
204	7.389748077808744	4.856869685308384	5.289553152080953	5.984215721280468	9.175202346524783	8.893184639412102	8.010189989847015	4.282930363332148	6.509857161298566	9.21513555107484	9.71599862506663	7.3156299406362555	1.6120371777842455	7.880786875854879	10.129145596679784	10.30887696524456	5.470370278852217	0.900967476477412	5.653772816688731	10.71606728709248	10.384413692959122	5.414849744477012	-1.4974982700686676	5.394925580708956	9.853569959558163	10.631422969679234	5.986169323112693	-4.424249637877695	5.322398649129374	8.293933847468033	4.587053287368999	5.193268762828199	2.163955921431678	0.5035693036716944
208	7.3371019178159305	4.749080169131552	4.858840930115418	5.585288987363344	9.183562255561293	8.968770004516678	8.008692721174038	4.237006653578709	5.593447194282445	8.846048332768413	9.54904839965806	7.10578106039825	2.5968468123675423	8.811264015839635	9.535266852146469	9.915648435353578	5.168130861585513	0.19338962386896164	6.055116638154683	10.23620507516925	10.100099538098332	5.196886526338352	-1.7881940558108667	5.736605629742537	9.652637457318887	10.458494159996208	6.295937999088415	-4.087693680933228	5.627279744245854	8.52891633741431	5.069035517292248	5.504920945574067	2.5400078232532346	1.0118392680370873
212	7.025083524133486	4.669425952566302	4.624490249402165	5.3213748797532965	8.999054886032011	9.011199928420782	8.098723391112747	4.3461065182629754	5.012294279795125	8.459232308964758	9.474672293583636	7.156482201627664	3.8579640291084543	8.956609703338883	9.10612676228756	9.668688749697795	5.197244631043258	0.08187038430762897	6.608165724282782	9.9451694237434	9.954738591810061	5.326802717111419	-1.5579347571139561	6.370822890409359	9.715725874212826	10.539836856934391	6.8738355463049015	-3.268141261432574	6.428796751957325	9.0774888763125	5.838484272521207	6.310989840786253	3.360975257017283	1.9060320806064328
216	6.500545485296684	4.630990493526379	4.62580536628117	5.193190084697293	8.672422387161856	8.977125145181617	8.202930429729046	4.429728496811616	4.8203024742495835	8.138239839987587	9.455443358390484	7.32979391154776	4.89194534974009	8.229305246556986	8.861144997159009	9.514034247219607	5.350800977548876	0.32233849086441146	7.016278249192339	9.794086431571136	9.786450361338952	5.564333901661857	-1.054618236740116	7.090135556439948	9.913848851923063	10.617344829455988	7.351842384850247	-2.3031854571366757	7.425333957998439	9.603167509628845	6.495773775866594	7.309183102273626	4.272054184618153	2.7830436159440715
220	5.80327366317407	4.602456081214388	4.7855200646694325	5.165567861866642	8.258197763573882	8.815109230673675	8.245453813715923	4.3606109509045785	4.93106602377462	7.909248808919005	9.39821431648175	7.458352546934851	5.277497278240542	6.850233060707754	8.73242089927844	9.32135865719093	5.3971938950648015	0.6016697868415255	6.901263696412654	9.65258119053436	9.398132300490747	5.623489842522024	-0.6222614034200908	7.572921256972741	10.015981648906413	10.379708263893853	7.382433872657533	-1.560458179348796	8.155471781167225	9.72500226426509	6.66626165614294	8.038939455716813	4.83980702131948	3.2411363043016586
224	5.0175585620083964	4.537272918689751	4.958557116387096	5.184337126040446	7.814300517380163	8.520853021089453	8.19938276128097	4.1116361514233155	5.194439874885789	7.754681567640549	9.231989837226134	7.43354127914471	4.813031184442503	5.185530649444415	8.630852677488976	8.986260391435408	5.203162180161618	0.7641209344645179	5.995648368956681	9.40656182775218	8.692561127650562	5.334166990164115	-0.4843433487107749	7.552448253636979	9.828985189417596	9.648050283868553	6.8335666483963164	-1.2223370044364787	8.236591318315934	9.223039603789259	6.201474174101084	8.119106272225837	4.77434777008094	3.0908110063718675
228	4.299326885812723	4.408741939857766	5.005426394222865	5.191187845475054	7.398613434231674	8.157153108982804	8.09390828950137	3.7427358532824337	5.471020207897207	7.638378124025496	8.960794426228707	7.246394615951439	3.572282782118548	3.5701644330485793	8.503020265091996	8.504689195141493	4.790505873983016	0.898380038854245	4.34034394122064	9.033504463276579	7.744039992807798	4.729925143697735	-0.612231789473703	6.976387483149254	9.310491538382918	8.483554818668974	5.863998398280764	-1.185870882854963	7.569091300927723	8.159477213286019	5.258879171445507	7.451270561479098	4.081096162028986	2.45195936537617
232	3.8371460340896033	4.226193417369438	4.847276675383873	5.137403475188483	7.050375443777883	7.816210727031102	7.973588923350069	3.346623889103077	5.660078511252888	7.520269374934044	8.653222062198125	6.959419709754593	1.8766859722439402	2.223808521378221	8.345086076647968	7.972977141277639	4.298537720317889	1.2165816991607874	2.3690330922395915	8.613922097392562	6.767358762821289	4.017540921558345	-0.75686502265575	6.067177280366664	8.596354462854396	7.163350087199924	4.841986167126967	-1.1341118783927462	6.398067935048823	6.854606134274594	4.220756520105333	6.281072123881808	3.060873739143985	1.6857498841639957
236	3.761219015162038	4.024186601015443	4.48656176388004	5.001812922247125	6.76891086776732	7.5533509063751785	7.8484115402432595	2.998294345915142	5.689301476419586	7.360619049561976	8.383482911878174	6.643034918225507	0.1959158624232601	1.2838445869456767	8.179203012796764	7.522958259662362	3.8901879689227266	1.8276025010696462	0.7980897406455396	8.280731180265038	6.010782226645523	3.457680693479668	-0.6155955179884648	5.237882124074203	7.93395469569745	6.048264965045761	4.159690369594227	-0.7319283466933183	5.198262201536294	5.735770211043475	3.501905670861297	5.083245741407982	2.1579027121421515	1.2001022070148941
240	4.051136960291882	3.8339736364840875	3.991628398354114	4.805272090223811	6.506043417716886	7.340559464041331	7.674746493989827	2.736411326175332	5.493013844926639	7.120108586454606	8.168957689641477	6.3244633514944235	-0.9888027881452977	0.8803075529761065	8.017014483237988	7.2391266640044565	3.663316002179849	2.5753493243999674	0.3235219410834389	8.140695551346134	5.638651833603128	3.2304477610089424	-0.027858422998783695	4.898015963585847	7.560866336806644	5.420905576370902	4.048206319124965	0.17226545469183394	4.445909965734385	5.143260942825061	3.3539540682990476	4.333751667525125	1.7408364967263315	1.2403409449732985
244	4.510590065058388	3.6571588423900967	3.457215777251594	4.6089739683134106	6.184754356028063	7.076454144731327	7.383555870487952	2.579493516131448	5.017330157010194	6.765732271278764	7.950128058388549	5.981465324558896	-1.323028084275642	1.138863322243665	7.840200404399733	7.111179810689796	3.616538753915382	3.0598251742357436	1.2532016007254354	8.21326635194416	5.667041287419391	3.360441914657179	0.9087417698804828	5.244863973726986	7.591848831082668	5.377742276919332	4.488913047901203	1.4511800967771014	4.396171558724952	5.190873609788591	3.7658109569839406	4.287372578286753	1.9309338282471142	1.7760468676548897
248	4.841519820387422	3.458379259914672	2.965448848866721	4.491350162610626	5.744653687278371	6.653148157488304	6.937162381777341	2.549515479326642	4.267459381773309	6.290688021989854	7.630911330984045	5.578912720899951	-0.6945544463741652	2.072741264832139	7.6174940870604	7.051758748370337	3.678090324652313	2.8604378628037233	3.284332267098483	8.42421720285199	5.981500133671357	3.7328417206932785	1.867150898034005	6.151375755038117	7.972638586896169	5.8217091413379745	5.256196962437386	2.7599828173572747	4.980295168700377	5.744550213615302	4.502513397293135	4.874863612264907	2.5639214450953243	2.537614100725098
252	4.784980761844866	3.184645883149117	2.568020098878311	4.503549087598137	5.1910772192546295	6.042606338503651	6.377563937297857	2.6742205552294434	3.3591771040982388	5.737958416756944	7.157650452662312	5.123752581057909	0.7079873067147011	3.480766526017207	7.3444609456598995	6.967821103623763	3.7764639759084604	1.8198950244732	5.575260148277337	8.655812241634944	6.419848425869078	4.184910763665073	2.4576830801902103	7.220400315174783	8.522353150785372	6.5466852022822435	6.060359939533046	3.7224326039745637	5.874726280638933	6.522089941724224	5.253723608104031	5.771996960372177	3.303647986654208	3.1796157279799324
256	4.257475365380058	2.805000059675258	2.2917418422058513	4.633787143452179	4.61719750192302	5.34309815011471	5.826827034544047	2.963942281869182	2.529262297920257	5.2079543935894606	6.580309374408045	4.6918682933604705	2.4275586543782057	4.942651736178231	7.073564988397068	6.832001192009888	3.8961064717154006	0.2102670664246931	7.121555310388942	8.81625459352479	6.859302026596722	4.604628551301676	2.4348831115282925	7.982305029742857	9.03033254250822	7.348165493532626	6.696746809264215	4.125639905050069	6.682891828830445	7.2428693588497435	5.794628128680517	6.581402762009044	3.828083267083676	3.4661569507824863
260	3.4059946451024725	2.345703119077669	2.153731817529879	4.8030853150218125	4.1783862008458525	4.7498140215161735	5.433927522291394	3.379501811078174	2.072029346956739	4.835258948516022	6.049970611556347	4.403597343770901	3.878472318393834	5.959799751493479	6.906741124835104	6.704167349101437	4.080436219403699	-1.3336782421772198	7.262695771000614	8.886642433618071	7.256114941396867	4.975192057446172	1.8277434064495395	8.13297651144863	9.352925276984278	8.095359781807275	7.117642861515764	4.013872613309549	7.12613199342182	7.744573096749323	6.071472152639757	7.023772698788895	3.983445634321429	3.376276484548231
264	2.5390558178692855	1.894234294877247	2.1689414923266837	4.8993372793478915	4.018992890701407	4.457528579901828	5.296717630364866	3.820485582242629	2.210359090946479	4.73151825663927	5.744836315909501	4.359721172769618	4.559442031792959	6.201337321837025	6.943256837480948	6.686470491693724	4.3845310100482875	-2.11327456894428	6.0446247901892285	8.916383720774428	7.621539096663225	5.346021638724273	0.9257895923128745	7.685946921970582	9.460493063883106	8.735568024514635	7.4011807254849575	3.6389894393597984	7.148728829454857	8.015134791165098	6.178824885980777	7.043328744271748	3.8307049177728576	3.0823721807858737
268	1.9727560231946237	1.5680420359122902	2.3433711469613643	4.835928904721605	4.188550461684448	4.550407875016451	5.406619058310048	4.151525486954929	2.970367424141168	4.921977030725058	5.765956864104468	4.576284397015328	4.261365879744015	5.691321835453792	7.2123040970860925	6.840752584352295	4.811101901305284	-1.7351119474472663	4.231206406400971	8.974048591844658	7.961460570261793	5.757902607685594	0.13698498870119663	6.959586602759543	9.418837523521967	9.24813840438507	7.651771526091291	3.305951110122514	6.896265489332988	8.140786150405964	6.259326919011172	6.786434633287042	3.574336042916587	2.8282632756352006
272	1.8701677275170498	1.4603047334041495	2.6573567323350087	4.60351561337724	4.594653594814409	4.945040690334797	5.650333867112452	4.256586064082255	4.128540505476096	5.3103623256124	6.065466865484508	4.958572852013278	3.1645569721433184	4.803766715319164	7.630690555380355	7.12290142168315	5.272852407494212	-0.3359749606709861	2.91562127330893	9.084818817089893	8.22686384031315	6.175382121707243	-0.20367547818259196	6.3960490065260895	9.322155928917432	9.592662787060151	7.902082423286465	3.2097780623459187	6.592535479113504	8.214102724317536	6.395879252498197	6.478354914521412	3.4238960656505375	2.7852349210990615
276	2.1598372404880974	1.590723510540694	3.0513107699603657	4.283034313832374	5.0252361170732405	5.423192964213027	5.867316231219165	4.093336095012	5.276926027326456	5.698764786637392	6.4542231396799945	5.332773195154206	1.77282106428779	4.049633492735864	8.01815030934596	7.380866985759633	5.6113834239429705	1.4731348715782384	2.9277059957973397	9.196433044103015	8.313528039923446	6.47679470334371	0.02023574332254209	6.315305217057096	9.222412086090648	9.694556211790688	8.080989817243946	3.3524398719069968	6.399362547930076	8.263001421093493	6.561328394536533	6.282613261573229	3.4734511287731036	2.9664826318230957
280	2.5825674468640436	1.8978573035961273	3.435420027642316	4.007207383529014	5.245046125520959	5.747718319686404	5.939944729113189	3.7185430432849214	5.994659885530222	5.871014580208851	6.699809057486464	5.5306401113111345	0.7007080298852402	3.7881450557434704	8.178232172345112	7.433402519532024	5.677084908457266	2.9308996126563422	4.369920719557831	9.204787231093642	8.123698214047739	6.520404322374231	0.6849992853989916	6.746392233028032	9.103885627649664	9.488437628631889	8.07103250373149	3.5827679543638045	6.343488200384378	8.247019746939507	6.65611885297641	6.227188571466581	3.669633617672932	3.246718875317227
284	2.8417992520109374	2.2774476947504856	3.7221131230793745	3.8937842747608147	5.121246324960721	5.795466885239679	5.861624702913223	3.268747083040542	6.043145641328217	5.702573285010345	6.660563928953956	5.479442105764127	0.4003227641012054	4.02908133443204	8.004130343255868	7.184988957384549	5.423248754160396	3.5333375841577936	6.547521574655621	9.023704506025929	7.649258594273904	6.244616492717745	1.5235069951693228	7.424085598321415	8.911787010580955	8.986338592729156	7.811397055931194	3.7201011086954163	6.338344557971828	8.11134813168146	6.597940428288091	6.225759967344211	3.87243293738186	3.461109391057071
288	2.768071167632874	2.6372868948154897	3.8641941449832276	3.986798753209447	4.705034244102376	5.623674378501782	5.736978516399311	2.9055142329291743	5.484342084389452	5.23532103170396	6.372306330804784	5.24164866077734	0.9662805771273316	4.449949730128482	7.548155288712516	6.702612859969619	4.95456646622017	3.2864808953279216	8.330913522667638	8.653438546267402	7.015634042193232	5.734689698045714	2.2674224319431553	7.9469823636638255	8.608666398248117	8.315729120240153	7.371545773014613	3.6729757693063396	6.270438655280725	7.851473788465508	6.395181639737507	6.163986667329276	3.9578869242876915	3.5111708552403704
292	2.407567256571013	2.9394793436222293	3.8802559277795896	4.241148461124405	4.222686756916866	5.43427942811326	5.719772324426151	2.75663542051514	4.658688533464993	4.676248061771489	6.038027748122144	4.986378657149373	2.111451382074493	4.631654250848921	7.015617352892738	6.205974086351685	4.499381530845964	2.664616101213165	8.778016068230706	8.207020738861784	6.453721506990831	5.209948526580031	2.7560787131343436	8.010959605018412	8.222665765982928	7.695471744181641	6.943872911087791	3.482500782757213	6.085171684160344	7.542901973753855	6.156084521963484	5.985610946801848	3.8946580788510157	3.4141645345319187
296	1.9886534163811103	3.2030846991731203	3.8490795991992446	4.556037891329141	3.969985236635076	5.4540023666010615	5.924973949732041	2.880633108495533	4.024933804840461	4.308752525895128	5.919999107673068	4.907236563690741	3.3238043701177222	4.357213486160958	6.67575929863605	5.966682895854763	4.312456596930697	2.302571290878461	7.662483672823278	7.870170096554292	6.204607471059726	4.929391371679239	2.964846126700274	7.578120212495504	7.853359202584284	7.352335434470585	6.753059846994352	3.273328296026412	5.820299610701885	7.314788799891309	6.0292386856443345	5.726453766670024	3.7526760006572397	3.2759399331352967
300	1.7875237419774148	3.4633283527671668	3.87044667220438	4.8329396125843775	4.159028996457469	5.797481045390843	6.362629397540641	3.2639653600301535	3.9400894542398524	4.354642380210419	6.191804870231453	5.128883825704378	4.124976147727526	3.7785832786527433	6.731612665346841	6.168067439718874	4.5573506240223605	2.5974881583437064	5.595999703583861	7.8128695290720085	6.405650599519426	5.0658531061064345	2.958166114967872	6.886837941901956	7.630584697531501	7.4214711001895886	6.935092431678807	3.1559462467622263	5.57569025539295	7.2850189025055325	6.115762695130472	5.4847006659315145	3.6476027873452535	3.213135949605507
304	1.9703686187588179	3.7177731896949457	4.010140885718873	5.0237583987237	4.798399913117138	6.39238451297455	6.926443082487999	3.8373117350016606	4.487196434136006	4.856805312292189	6.8327374285802955	5.646483407069684	4.287330616616937	3.3296265518046826	7.215461235902585	6.802625162115794	5.224522577446556	3.4601704986949398	3.688140621410386	8.099657991940466	7.019527894417288	5.615366444715385	2.815969698472025	6.309419139191098	7.650004367587451	7.884689787984918	7.456221084843064	3.1497702519047723	5.4478263717436075	7.497264843131773	6.409634097128997	5.3558401926240435	3.663435211469099	3.2787697232435087
308	2.5017759736793503	3.905177344952997	4.263389099801163	5.142660128007242	5.6787261819516575	7.015562039782526	7.446710090909558	4.497630107968306	5.440806375118265	5.649796948473671	7.629065494349301	6.331416590917786	3.9016427895267403	3.4467611225843857	7.968663672355423	7.668387393664085	6.131320937889043	4.370532978467418	2.934099189979807	8.650791146371743	7.849334220142053	6.397093756737075	2.5957612925796334	6.142235740412755	7.923232058548008	8.583727814937058	8.126212099539439	3.1836204448429903	5.47430275488599	7.900342921337732	6.8072228259835805	5.377373681796971	3.8066201113914055	3.44150065506837
312	3.1687130848037235	3.9379238982913405	4.557839858945441	5.242737280006769	6.475595457893857	7.41703269993224	7.771865825104488	5.1266827453876695	6.383687003230884	6.436076147996075	8.28024957473647	6.992053491105307	3.2783143437585744	4.2796807181071985	8.716285683559901	8.466021516406112	7.0021624388336905	4.705206382316052	3.6748976614676248	9.275884604876541	8.63088414874134	7.142384034243825	2.3466806352495175	6.454688055908069	8.368426301808766	9.2989768747157	8.696979500747316	3.165158025379716	5.621870026699697	8.377735116787706	7.174167138106451	5.51697348155438	4.014394273159306	3.621478310024737
316	3.692422619080239	3.7640600109434392	4.7887492058966314	5.36743448809648	6.910247785287677	7.453232269542993	7.828309039378486	5.59867905156904	6.9029140298130285	6.923166257545099	8.545068719270501	7.4504203608281685	2.7478697230580234	5.568433747537736	9.18941686217493	8.936944938984235	7.583518009112735	4.138345231098313	5.426216588625559	9.75421998422306	9.145706153667124	7.619329433277691	2.1415989344886124	7.068015080726755	8.83626840267836	9.842543577139713	8.985236145222174	3.0609524172748896	5.809014782544341	8.799888588622261	7.419147472723531	5.695083126948202	4.197541703116825	3.7459165955381972
320	3.87029885268571	3.4257042321498785	4.872962462519951	5.513117299465726	6.889266473542554	7.158884507224626	7.637897949008398	5.797773346568084	6.774199945512756	6.956687432844988	8.352695443999362	7.60409543978588	2.4912440713927086	6.7680120297263775	9.23739812426082	8.971538521050215	7.742171267989518	2.8645710872805927	7.1657194910330535	9.922866796236232	9.29835221804003	7.7290930552845	2.08535813758776	7.671235065165685	9.158714271310062	10.11753651925548	8.951975799847164	2.9295573160593893	5.941539749403351	9.068354583733024	7.529029350345276	5.820224270431079	4.285702217725785	3.786155452705891
324	3.6767499354039885	3.074593297825167	4.798159110352854	5.632982239806407	6.5522589518104075	6.7233834096913485	7.294603806198374	5.657200799010398	6.054803832979691	6.585085852209706	7.824935893329873	7.450396042133161	2.497816556346207	7.3507566266437605	8.880391098489813	8.635960557114753	7.501460533276209	1.5232896766350204	7.908395270407977	9.732741331323187	9.124579406589117	7.525875549388883	2.277242654772976	8.000029543705676	9.200429893152984	10.119622204980194	8.696045853593912	2.882653467529739	5.940345749162225	9.131086326433527	7.546871643085873	5.816139683344224	4.247784127001206	3.7550771141613093
328	3.2698240197596244	2.919502012511168	4.635273921707703	5.672301278098249	6.198060973731283	6.387468321885888	6.921090108563525	5.204321371290283	5.043926703116139	6.022709831290701	7.203148346834551	7.073492985986362	2.6444604330053862	7.0979289829339445	8.27971074874906	8.111097315336878	7.009010774082514	0.8623222090884096	7.238256436192932	9.248353934780035	8.735560395120123	7.1596402941184705	2.741600983373533	7.966508845242944	8.893165565925822	9.890995000662404	8.37256524833152	3.0008416100078317	5.752050862094899	8.969892479184253	7.513723831279915	5.631489262667842	4.082966317358737	3.6751594450668175
332	2.911987297335439	3.130488626205773	4.511842239432668	5.615190014967295	6.131844505087429	6.32446382833158	6.635854227478256	4.586924064499453	4.141243924175712	5.537948117579305	6.72891615122401	6.6134567093768455	2.832573645115895	6.206326469010707	7.652191619626606	7.589814166933753	6.461466296094813	1.3272464241850357	5.508447633187234	8.603285767768538	8.2422027379795	6.78304241375215	3.3801293287767846	7.674261550601159	8.24983022514286	9.467180228172863	8.090639093952984	3.2655167497204505	5.3524174555111035	8.581967332153416	7.420409183840952	5.242406831856968	3.8009767436383197	3.548233261686714
336	2.853929989284998	3.7545072937586954	4.565457332528504	5.521496281988517	6.520837767349944	6.576571447934327	6.544789774583172	4.06067322659471	3.6844668295342853	5.335196958423233	6.550289137514844	6.235884650698776	3.0920245569364306	5.163454519586821	7.185433369614873	7.200095635355441	6.030872806581371	2.832114212515126	3.624309053807263	7.949383715586474	7.714009742334301	6.483036978565987	3.9949827093350248	7.331528168287766	7.368350010388403	8.862916924034419	7.859202841943309	3.561480274745309	4.761957156556315	7.983839968551238	7.211698037059547	4.667650687830793	3.420223465867329	3.3578150187592706
340	3.2395009912717296	4.689294326386988	4.894296633761253	5.523444638612016	7.331266861525731	7.070164662630507	6.739748937756719	3.917124499921613	3.838711013638875	5.490462766136694	6.694251997258795	6.101763709875289	3.569375505972324	4.479691017284838	6.993756753430108	6.990535241597422	5.82393120248959	4.821359622226651	2.5490934784426975	7.427291374527921	7.192789059598742	6.272859080689653	4.385756004704619	7.130854588624741	6.427418215736441	8.107421854530728	7.612761001440027	3.75254725462485	4.074223984922313	7.24027965625008	6.8428602045862315	3.997143496911967	2.990520708163162	3.103948346884353
344	4.063485612146691	5.7268514488589615	5.519476876628626	5.77049492332763	8.365488031247336	7.6819696232440515	7.28205106804037	4.366902817191183	4.57117699422671	5.957198127964892	7.098789674002328	6.331407054174646	4.410404194187065	4.437912452937194	7.117678624302538	6.96546505123103	5.877841934622766	6.578468782982028	2.8047106195209595	7.1561488924549215	6.73595569817279	6.133044227374438	4.465746391465553	7.159113865897143	5.658839688319004	7.2938728148366945	7.289956551266259	3.776834716798027	3.4634914310748606	6.48651169092904	6.344434722141022	3.4007234487504245	2.6118569308141426	2.8363451886091804
348	5.18678520800448	6.643960459147243	6.371661646968521	6.35255335157609	9.370570159141877	8.30573938180102	8.1632842811475	5.43045137941687	5.7021546219865	6.623634798492994	7.667165736867854	6.958613854959265	5.6201109744275275	5.002524840122525	7.54754589082587	7.128136139992688	6.174086555151676	7.601888637423287	4.246660698659316	7.227619629731751	6.444840414941721	6.061795219375614	4.324517239142678	7.384120445681839	5.289465414044066	6.596551401649752	6.908609849653384	3.6950678732086923	3.1427862564847833	5.912629589411645	5.844802364851446	3.087722293687405	2.4192063747362074	2.652363532045491
352	6.3866720038336995	7.2868356520737	7.302997570673032	7.236153584330566	10.148591969616525	8.873964287287777	9.26168820903836	6.891060334927184	6.990387898915909	7.372614841920605	8.30108831217165	7.888970831980457	6.9929795088642	5.901374801994992	8.238817194164806	7.487881641556342	6.6492395233123816	7.821390609067584	6.203282817437581	7.6844539448320175	6.441407664248484	6.091632827637683	4.185431469840516	7.707234840007655	5.458986745403174	6.224367602845773	6.580468161181325	3.653441658332709	3.269245854706763	5.696900353353525	5.521992669468953	3.213683835498899	2.5210490163095236	2.646753066056238
356	7.4092669299933505	7.59966657627167	8.112947443506034	8.238929727733858	10.603224727562926	9.325714087782961	10.327315304431407	8.341061571042895	8.195807436277791	8.097146013797394	8.89251897474093	8.887847877950966	8.162557581320234	6.802998525609724	9.095374084397228	8.017604807638353	7.195338707877217	7.547603588121867	7.852352122508701	8.47529218441249	6.791202528019878	6.25731228202285	4.265790451723811	8.021372774852962	6.135428413159435	6.317646487497962	6.449077589918816	3.7777063751210216	3.8298737906082083	5.908222660406658	5.502589688713497	3.7667176628379746	2.913914911542608	2.837044947137077
360	8.022131899606904	7.5998711394120235	8.593592622041058	9.073378540019167	10.72047993814335	9.567812895460294	11.037100764065151	9.324147200885061	9.111189819220579	8.682614304555557	9.305716491092726	9.633264517304323	8.752034165220133	7.468273620823377	9.94892117849467	8.604777314395632	7.670037250227303	7.215990048309696	8.623347260637809	9.423811888743783	7.427108269059634	6.547309382120756	4.629673946135904	8.243708589721304	7.085464936487141	6.851880533085186	6.595630152262429	4.074862946712693	4.587897289136888	6.441678030916502	5.776571259219271	4.513349521685942	3.4375743779176386	3.1235182206447583
364	8.063696840908213	7.327020149805496	8.587130524889403	9.449872946722419	10.5137719842585	9.471818900036151	11.112155886251143	9.515638327415752	9.572158789309185	8.9858169328794	9.3826846839526	9.827784513456272	8.547610261317308	7.786117057215724	10.566287967707453	9.042438484250116	7.925414542215593	7.093987923831346	8.40376756453692	10.246559117196332	8.128440836411253	6.876145345493406	5.127829538750253	8.317172029477234	7.93240211391426	7.60916612611341	6.9713148894730965	4.411118973085407	5.144237982159753	7.034349423768295	6.183541759137814	5.058609949691617	3.815169563197823	3.3198866760358166
368	7.484453659234674	6.805263502105471	8.038899401395625	9.197602248811979	9.982428525517006	8.923564888358836	10.444063160276784	8.858499504611977	9.461549735023016	8.84640023859028	8.988934494211861	9.323706603351994	7.597243289839801	7.723155002168388	10.703644725478336	9.086309410042672	7.852993468484865	7.128182870034074	7.481299858278281	10.633061382150682	8.583708741450778	7.102863293834572	5.467148290182373	8.197795847222476	8.293640115779322	8.24552247826653	7.400320988090888	4.584503639090524	5.107328402022228	7.3676991276691	6.484464629014043	5.014317023015115	3.7752566242269383	3.2463264383370167
372	6.381328566652366	6.05386970898913	7.0319104017102445	8.355984666708343	9.128390289147854	7.909477213917208	9.170771575661945	7.597067813766025	8.741888024193504	8.156132677466827	8.091805437639003	8.208240488309388	6.1922378383700085	7.2666253860114445	10.208765004132573	8.569102265657577	7.436105232537895	7.02357338085727	6.311609729090352	10.375256512196108	8.524981477194752	7.097986680229941	5.383649335620238	7.866738299535368	7.952226618716503	8.43819616094658	7.663059215271776	4.456022251322867	4.304495323757438	7.219881039510811	6.489440901584487	4.209324826103433	3.2064366259682466	2.8422410416368975
376	5.001707541235428	5.13328980103505	5.78154037923236	7.185189228990489	8.012932757174074	6.578691465934346	7.648728828192478	6.183476432447304	7.502436618936587	6.9496545616164065	6.820066434807354	6.793482763304648	4.748163211278642	6.431454642270439	9.118349052295764	7.507758121608698	6.774861795486671	6.494038088615116	5.263182626787425	9.481448149584594	7.863534907514647	6.817345601989517	4.821915614351712	7.367084961410884	6.974806767973802	8.037542322846805	7.611203651285267	4.055300702346799	2.916804783132602	6.5855855775502405	6.165863975216381	2.824070684932285	2.253427261385228	2.227452510932009
380	3.696653595174293	4.186290253560272	4.582473266476021	6.080483898069884	6.806416494351095	5.2289194928712455	6.3213457901619625	5.095619665632111	5.993298038609832	5.45756195597806	5.456159101062169	5.501395211635215	3.6470444110344076	5.323439107805946	7.6909551426305445	6.134539588698788	6.057280525173145	5.5084147314234	4.490005481827889	8.206992128632365	6.749163133747355	6.333308680756759	3.998985042012298	6.8298401660143675	5.704387650392728	7.14064643964372	7.2444596107683354	3.5830943493977703	1.4429362975883204	5.690614685949962	5.65742443563703	1.3550962175488648	1.2819777694760248	1.6605679946935772
384	2.824353926203542	3.427638283658667	3.715808620608109	5.415264592803601	5.7751002165899274	4.203709114905454	5.538665757500588	4.645640361500866	4.595815170128859	4.065035809744096	4.343542088032634	4.688519942844022	3.1144525926158892	4.206644047606784	6.334309561949301	4.818225371593695	5.479598508351623	4.368485439715263	3.9680566687535928	6.966263753469003	5.5117544988710225	5.798229202890175	3.304824343920525	6.452333434026807	4.614845264227542	6.042912944795602	6.7023696730195494	3.3002877152088343	0.48436224338312095	4.883310782501148	5.198700414883576	0.4013562192320343	0.7119851094389826	1.406858798289759
388	2.629835598981641	3.0750763338652067	3.355679265133071	5.383182512043536	5.194722162482732	3.7496654892665253	5.419333444264276	4.865852820509092	3.7196471597219527	3.1773595729715907	3.7483251000182003	4.496468532653856	3.1722052017230076	3.473883143237345	5.44879530484663	3.908497323658604	5.1549019683388835	3.5673870950276374	3.6277074722251963	6.156915172290977	4.5115537529526835	5.361095414931332	3.0885596197350957	6.41695926953482	4.090259064837883	5.092329489248817	6.178998454705925	3.367004862867538	0.44773551708666326	4.456365574075907	4.974640356855524	0.3676305105941153	0.7980871776458207	1.5863448341372592
392	3.147221318882033	3.2460834898055255	3.511579743102497	5.908785328251917	5.22151850335746	3.905627956066361	5.824505791263775	5.5199174741616925	3.6517858413050295	3.043264381354582	3.7432763481998927	4.806587683939972	3.6658215430213015	3.4796280773048713	5.2535333500783885	3.5807528405383255	5.062746988865742	3.5061054141215675	3.4675443084907758	5.976606353929074	3.973438014488907	5.088111864595159	3.448188534613863	6.782516939205137	4.235962857042038	4.522152889278463	5.812477097141312	3.7281389142323738	1.3183568682763882	4.4927892571504495	5.007520663016406	1.2385270564280735	1.4759551249433103	2.089269155949468
396	4.179084767280856	3.878783454638776	4.03314446384683	6.6778192351542875	5.791750416438027	4.485656250118899	6.453860743440676	6.232667907237659	4.416826713854688	3.6247386840857194	4.177673806133296	5.322049127493293	4.344012249469435	4.326612461610534	5.681254372558067	3.7643315697043502	5.071697699139774	4.2372999084302645	3.561503401347424	6.327661498306417	3.89363407105636	4.936658369951907	4.1575069322523275	7.418764095649304	4.824894416071486	4.352035988310261	5.616900429849451	4.125052441672646	2.642427676205098	4.8247766372937075	5.142918096909179	2.560673468800424	2.372998470037197	2.6178479128546805
400	5.360918508346085	4.729994761922657	4.678354728331112	7.282804947585586	6.61773679969807	5.1661972869138815	7.0037984671193545	6.6695732901983	5.728742108186463	4.5918817404207735	4.750391471313299	5.728174671969634	4.94313811007837	5.719886765343831	6.404201968236462	4.191092957405568	5.023284422589643	5.391052232482652	3.967726220603792	6.8658084696039765	4.064845074881296	4.797545420931796	4.776283252101201	8.039598444667785	5.412353501960121	4.405524719559493	5.494322762922602	4.23229979400197	3.7377250100181074	5.128372656272075	5.143115507492176	3.6529154685299607	2.9867114945344735	2.836192600718941
404	6.287298663477904	5.459722981973581	5.209293829163471	7.409466247924976	7.294100266160583	5.63064430722564	7.299118500400843	6.673639757473189	7.073036175989957	5.455532537037872	5.148503290529111	5.842704758197807	5.254755960548935	7.0285320104529045	6.983511430274823	4.535608757011824	4.828907954421949	6.3380722839551815	4.6245899083679785	7.173884373672351	4.2011608971384495	4.575545776259137	4.889339911514246	8.336651781014966	5.565505967393761	4.428230274464324	5.313430772717689	3.8449718855102746	4.035415639225618	5.1038837304000655	4.8348297950747225	3.9476044078341603	2.9448032304801255	2.5518522198145166
408	6.6517090629484805	5.767865166406779	5.474930749421757	6.973982793366507	7.469528179383442	5.69751308910027	7.334433060248206	6.300431235618819	7.899028281295885	5.779627308558479	5.180584894452019	5.6785406922975845	5.176299558922067	7.571282367664135	7.071142178802355	4.57061909475302	4.522510040309054	6.5027503803106494	5.326798902414163	6.973222714938251	4.090677727861729	4.256152619106542	4.3411741147109755	8.151661852282801	5.08975790646112	4.2354392898436535	5.00327395129617	3.010911218670763	3.3770809088320886	4.642400253019057	4.2239208114791795	3.2872776902172673	2.2092196885598296	1.8289712621288126
412	6.341522200786071	5.517293916123883	5.443741307819595	6.145278915148725	6.99728725574053	5.367475972929139	7.2106289681535545	5.745245919027363	7.845050315123572	5.368011461056449	4.83449648590198	5.385942445508248	4.7350811838763684	6.972262364904054	6.56220434439394	4.2517542731703815	4.229737747957413	5.648468480154271	5.804840073234812	6.258448108130822	3.687237730253608	3.9115171333738803	3.324842683027088	7.583825569078999	4.12597035319987	3.8003601931943196	4.598549354387093	2.023089880603859	2.0960187859067916	3.879291763048137	3.501773110131651	2.005820269288818	1.1023224564377896	0.9624025797387462
416	5.459300981089637	4.7860498307508585	5.179492460525333	5.243071066016668	5.990315899029959	4.7786598084916845	7.021732789431253	5.213709818074441	6.891820890192598	4.333722103621392	4.240038384222911	5.11992119450142	4.084998120484711	5.397188649856075	5.622037873378961	3.6948671247655955	4.071557511540374	4.000571240815056	5.879421696123905	5.28504227257574	3.097857705878002	3.639992466319546	2.2772796096526435	6.963020307127095	3.06850194156308	3.23925470488014	4.207756031856906	1.2733727661408167	0.842826602715207	3.108479730387317	2.9387135431480886	0.7541283350024421	0.14138269388742777	0.32807770288605415
420	4.263454903328829	3.8189277552507126	4.778244006490781	4.559975612571641	4.746774184640303	4.101009358542431	6.765322668160901	4.80377863624809	5.36030767994797	3.0126781387560237	3.5620343595217423	4.91402672480641	3.454717150548918	3.5152032286585344	4.571431625268548	3.0655851286737157	4.056826581249196	2.1354670470681807	5.570731148960158	4.410972107241052	2.4781804022209792	3.475521555708794	1.6359981257141674	6.68046138984122	2.3408701360729034	2.705109827841275	3.9224376579434765	1.0445758077951337	0.2378765338613946	2.6025252276516677	2.720808499142582	0.15267898103790062	-0.23731528162644533	0.18543338728817335
424	3.064502946745906	2.9101850913005602	4.309431542006694	4.2095107925946635	3.596121063689832	3.440564623729181	6.335124476650612	4.464689720325643	3.7616670036710387	1.7798720553283376	2.8960266040163605	4.640372264590338	3.0533087176481923	2.177000755535706	3.7030868436779483	2.459114545335522	4.035012234990796	0.6977813226248681	5.09251164104279	3.8864881894215695	1.9109464835557561	3.331104508572802	1.5945422609125224	6.966974717670089	2.156194204608623	2.2655360641500666	3.731321086999608	1.3560310567951617	0.5417184816034837	2.4463863311037417	2.827987186921298	0.4619684505719993	0.08740507789240247	0.5401335941029075
428	2.1169569438892064	2.275528663612142	3.7916316890354484	4.084992398438827	2.748293154453439	2.8058986592976227	5.599028096367963	4.049674500731365	2.569178813169819	0.868460176182593	2.2281665745746153	4.083864201725367	2.964963428640896	1.9573171089345922	3.1313307206250336	1.845417971720162	3.7522148991264217	0.10489450368623952	4.72753762005264	3.7110466863397362	1.347185727532826	3.022866241452469	1.998132581434387	7.747773627747102	2.396679395346671	1.846097941506043	3.5022506625443857	1.9490529249573492	1.5248334369308052	2.4844746526933688	3.029695980052169	1.4522561990311595	0.8600237347823841	1.1433010072452783
432	1.5421612223790002	1.970416779311675	3.2070245661828265	3.9459667106184466	2.218313449980962	2.1410875266377305	4.507246006076352	3.4254298123660254	2.019078011183446	0.28252148556905043	1.473055955028755	3.0848736685114915	3.0820321958929333	2.816963188688633	2.7527918746111477	1.1078615160627818	2.9872558041491883	0.3735526790724341	4.645401466085209	3.6364145187120025	0.6451914294165805	2.3679258763610394	2.4330496726596302	8.657135941582775	2.67700194636622	1.275231119750932	3.0492713374398797	2.4180393157944517	2.600920670618365	2.410917276017511	3.003623001144608	2.536865227970031	1.589509483138974	1.6233084160828146
436	1.310272332698045	1.8941456031660453	2.5418593819338624	3.5861360936222684	1.8668651533676732	1.399239894195225	3.1608784118956477	2.5750791961505275	2.0451242872102147	-0.14913898668782183	0.5648234472319473	1.6650228458328424	3.128807298390194	4.095433224828482	2.34462236766133	0.15286545416860964	1.6953376488797791	1.1520796985149233	4.79086445552508	3.32552408332444	-0.3105826966073641	1.3061184850141354	2.4596712527163187	9.226474738668282	2.567352288439934	0.41291859641727385	2.255402797726676	2.4211988387967285	3.155466071745128	1.9598630617251003	2.5212001736882925	3.1007797639760932	1.8219053699271086	1.6843382077606994
440	1.27921676312771	1.8661371422382247	1.8240981055935697	2.978597871889553	1.5179465970815547	0.6030650123629052	1.7958308412987878	1.6330747563138943	2.3667075574249066	-0.6250839217616586	-0.4619786727685525	0.059161528795600674	2.7838315893460126	4.87110184393334	1.7340860323039826	-0.9848471855094105	0.07582929711270286	1.935234303356801	4.922936427084941	2.5733547145722397	-1.4893975220269862	-0.027742398832731035	1.860307807993909	9.141652084158316	1.8498055888202904	-0.719711003870618	1.1769567698327301	1.8568774414864566	2.880625002263864	1.0822936269137726	1.5933067758387374	2.8355028557713413	1.3880834544422036	1.2608182398434733
444	1.2666417328326156	1.72629534762364	1.1320102186232721	2.3121170939244284	1.077237364910242	-0.148748412352756	0.685461459813413	0.831515131281516	2.6705660752582014	-1.2240074842067363	-1.4569250308446282	-1.3718205655748772	1.8557805968160692	4.480982292305992	0.9351263618701425	-2.1130835956629017	-1.4850715361294	2.3329222143400403	4.78365801557135	1.4601582251876615	-2.6745531491464503	-1.3328763212884362	0.7625581602870976	8.426277139370226	0.6632287485543902	-1.8966669988429679	0.058191496731942974	0.9125739312973516	1.9321169804429186	0.0033795193218051777	0.48970147843700823	1.8958860587890924	0.4900453674341716	0.5457574711372011
448	1.1334067554468337	1.413898583657117	0.5721747264721152	1.8979924869301366	0.5843880757836256	-0.7267699223289007	0.020054647648365332	0.39024487039267136	2.782077067026834	-1.8435393525308743	-2.2118241731113595	-2.300107950125403	0.4229118217281182	2.9168972895410596	0.1708047981718172	-2.950122348966452	-2.5752208167861563	2.251748794592591	4.298098076459136	0.34736665995634225	-3.535548201217642	-2.264554256443805	-0.4211365867949324	7.448609333305885	-0.5436538444144543	-2.7643017699067953	-0.7615982274854135	-0.03135023258161869	0.8306305983552824	-0.8755881168193513	-0.382303892600907	0.801506755712596	-0.4157469560140148	-0.11667942971334733
452	0.846636173971763	0.9886702274156518	0.2378410243943593	1.9903398701961272	0.17324639813074827	-1.0375730965167322	-0.17023931400709957	0.40677714245137997	2.727527611521858	-2.2620849552262845	-2.5610244209479753	-2.577411168266832	-1.1444691390706372	0.8753351547075632	-0.24064551233092793	-3.2581226743454423	-2.9420678541289997	1.9016661595969477	3.668003073014573	-0.29460993334774943	-3.7838001155688934	-2.5918137961754155	-1.2068338363695414	6.737722856676629	-1.2339749305087804	-3.010120145827301	-1.0103304360630525	-0.5936314448627664	0.16711719291932484	-1.1843033999106172	-0.6823322159706056	0.1420212235441332	-0.8723321535020713	-0.415953575514607
456	0.4942196893135098	0.5900276288394555	0.1682744916005231	2.624236338665578	-0.024691816357022178	-1.0703108283676712	-0.012210837534533052	0.803012547849755	2.662943118047833	-2.280750745737019	-2.4657850203247844	-2.2933702410970036	-2.3157658518497866	-0.5978894814654803	-0.07226680200927818	-2.9672567769474836	-2.606787674998084	1.6365375477480226	3.286499730395623	-0.1368186023357262	-3.328082076253162	-2.3074974955474197	-1.2875653472817417	6.707129938357872	-1.0617029640095212	-2.532671683592801	-0.6286814196926392	-0.5787792191197776	0.28326061296472155	-0.7852943519792669	-0.3156546644347533	0.2579754882498128	-0.6692205650599532	-0.23586317837293228
460	0.2433621281201583	0.3628177931685221	0.33342823302009783	3.568833818961973	0.03246543920784092	-0.8957148171698424	0.2871108047865895	1.355535384570461	2.728382342125779	-1.855271811569551	-2.0336058088457416	-1.717105384306083	-2.6396017007941426	-0.6852010471210468	0.6627216322379216	-2.2191884461640554	-1.8462762786027607	1.7272366241715564	3.502042523125356	0.8173476436959781	-2.3411207139989063	-1.631452079468626	-0.6822428686083128	7.435541134181165	-0.058529198021936235	-1.516253586755629	0.18206337048340362	-0.06502924098047408	1.0993970604795993	0.1401563581265927	0.5079467283775919	1.0692129108136805	0.05002088459618064	0.2886388294561935
464	0.25714677507327044	0.3877266337619138	0.6487076862169374	4.427520263937553	0.27385559608935806	-0.6226874574198696	0.5428902493121647	1.7953606798619866	2.929238312001357	-1.1367861003784872	-1.4628132544778332	-1.1585677832916335	-1.967020983498105	0.7283644061772615	1.6905528264278704	-1.30377232699241	-1.0540004942032235	2.189921135141757	4.360314358192925	2.2100460473529093	-1.1951748102530426	-0.905646917917624	0.28181585598365855	8.618571259673304	1.3723757232349134	-0.36235743669576165	1.0402711603603232	0.6432579143495932	2.1796393339439613	1.1723029583897069	1.368664738060567	2.1404721682866232	0.8752371646717999	0.8456543662655017
468	0.6071625932622888	0.6475462301117765	1.0092281077653595	4.83243225784933	0.5695227966234641	-0.3408747902846986	0.6640059335156543	1.9262382935528535	3.1275587002945913	-0.3949241032166271	-0.943203566077197	-0.8258176425111108	-0.5501168952404218	2.9563271924719046	2.606162303066679	-0.520240543959346	-0.5496777878234702	2.7572014262204982	5.503544793538967	3.4964983375009258	-0.2920735769050259	-0.4308701444714684	1.1360871763156155	9.720087026850742	2.6553261213019272	0.49628800028431624	1.560587044590475	1.1704198092474276	2.9866778775149054	1.8614951325148372	1.8397500468534906	2.9362957403435237	1.3583570684470039	1.109637734472604
472	1.2257412641095855	1.0466206047336357	1.3314752545118833	4.630725848904245	0.8238939622104866	-0.08189991095846003	0.6654555184729319	1.704862709509417	3.149997226391504	0.13227352466565998	-0.568338809962635	-0.7489801626368999	1.0482149097680626	4.865303980941386	3.085450403052882	-0.03702998897024804	-0.43853363284018143	3.022830478665694	6.302766307176644	4.217107762179975	0.1261182573233743	-0.3317184439867102	1.5032314024165585	10.245989773630875	3.3303546821434207	0.8055401424097186	1.5369079074203398	1.2532575098820935	3.1793723026112843	1.9557868192884924	1.696205611714807	3.1180734555675627	1.2562968699208066	0.9077974534956904
476	1.923309917362432	1.460878130085441	1.5790218074986437	3.96002601577399	1.037612554791474	0.1746340985657441	0.6233235581873067	1.2487999169291757	2.9318175241835656	0.3649180820311698	-0.3115863792182028	-0.806102929464267	2.202565187615327	5.493170247514135	3.05603741827912	0.1705952431424772	-0.5930188879299563	2.6758274964485307	6.172120555553368	4.223669995134598	0.08269179591520476	-0.5197939263571716	1.2689161268622127	9.983317349977652	3.2728488362650494	0.6085311755075212	1.0344656679738575	0.859023926473446	2.7800540853882647	1.5213236770367125	1.0179090474178196	2.7103717258687614	0.6492388828098345	0.30010634584951257
480	2.473084681942707	1.7955506994690507	1.766129131626463	3.176378480521065	1.2995310988994804	0.4627614009617667	0.6116086825187943	0.7753640989754688	2.6014313632135115	0.4128739227361275	-0.07201641034778954	-0.8228372314659317	2.506706708301301	4.585120666371681	2.7317731311492004	0.2773888104111108	-0.7554025630952332	1.6894147353434024	4.913195120804604	3.739563455676918	-0.16434580046168418	-0.7656860332230786	0.6166896804498442	9.088319755496581	2.7327301433232978	0.21203809923043285	0.3469593218149757	0.1856366987309889	2.1265087073996365	0.8947386123001757	0.13891608978007655	2.051857704704201	-0.12290936677418686	-0.46107977512296433
484	2.721711867136517	2.022155041357562	1.9396822403572898	2.6766781739366174	1.7134228901518673	0.7888916114916691	0.6609828455449238	0.5032592403103557	2.437406533763132	0.4954909371740697	0.24309696195738328	-0.6821510774555906	1.9491913269421683	2.7278356483252795	2.4885959562413134	0.4888957428509688	-0.6964825970231362	0.3733918359389138	2.885418407784599	3.2222340025610525	-0.27014359763605295	-0.8340506532592148	-0.07921743372943857	7.985036829815306	2.1787292902298283	0.01878879028285366	-0.15665784438635258	-0.44785007721363235	1.6518372255582106	0.4964547144753321	-0.5266404138620112	1.5746848543464464	-0.6609044058325975	-1.06430601804958
488	2.6671407155408975	2.1782236044248307	2.1503071730683105	2.703066103786376	2.3082847536936257	1.1168682547027617	0.7590360026269227	0.5563060031196934	2.7020080021349946	0.7981617430562464	0.651998339437389	-0.38167917632059345	0.8990358091544082	1.0276482079309504	2.647021048538472	0.9173483229364511	-0.3393591931834989	-0.7386165242620341	0.8876225925923424	3.104987136630876	0.014201763981487514	-0.6047266706457584	-0.4362494338465436	7.141221028417904	2.038188690761661	0.3170931033234861	-0.2116985315700048	-0.7572936396552475	1.6301611620753398	0.6093134864682231	-0.6874565464782978	1.5506666859576848	-0.724807081776758	-1.2911813226525561
492	2.4702308115580665	2.341787093925813	2.431473249018591	3.238820544648692	3.002248994876715	1.3973622286802514	0.8887852407903958	0.9214261150938192	3.461626520953837	1.361703750033403	1.0950950356491522	-0.007928868735679735	-0.08042461404760731	0.5038177954351357	3.291973820957974	1.5284851750883945	0.2212900215760773	-1.1194155187954515	-0.20167343267544724	3.5661189466085976	0.7254683357042266	-0.11331545532942645	-0.23062922002261374	6.8453244990136035	2.4768447813442243	1.1428551645034841	0.2327387923086618	-0.6162964686092537	2.0328571745092527	1.2433783976633836	-0.29955553932853385	1.9487386892708867	-0.34912902028628906	-1.1072502108275089
496	2.3834166466618947	2.590838187352195	2.7889547277608124	4.047194947514969	3.6432673839138165	1.6162635047160188	1.0647510263263495	1.4706211052958278	4.503844726635477	2.065372223407873	1.4890836439683914	0.34043672594902785	-0.5000610338937173	1.5184425077248338	4.227676380927706	2.1805374567291693	0.799766121275615	-0.48549583431691967	0.16079403419429197	4.446350086430295	1.6911576943615239	0.4967134582376488	0.523496507276626	7.097608071527284	3.3303782855826918	2.2782740535435653	1.0199341748235955	-0.09250999218710809	2.570878260797364	2.1515719836272513	0.4428271044041248	2.4788553652167113	0.20139735886270585	-0.6525656564449289
500	2.6204256945254185	2.9597287103313583	3.1977090754836897	4.812122809658419	4.09834479250912	1.8222571565396848	1.33336674830441	2.0232973047671536	5.406724916158902	2.7056651047106004	1.7972123577519037	0.6234564169401756	-0.16269274014881827	3.5848376660437595	5.087422358066138	2.7233278682615873	1.2418656317828036	1.0734227868635373	1.9149563264182519	5.351632581550683	2.6385197572849113	1.0716668340328879	1.604054804566789	7.6584725186586	4.213988770336043	3.377667418535198	1.8922955942061774	0.6110489353011218	2.8871443198743574	2.9777164384048405	1.233960029347624	2.785358898759881	0.6008007511228944	-0.14688920937645486
504	3.2371070303250153	3.412396660772344	3.60335158391999	5.295746789913216	4.331982601672658	2.1072044319356795	1.7331182912938525	2.4192523895218576	5.740126118472663	3.1172645013307134	2.064229483161124	0.8762786366273307	0.7722864727549065	5.643722996767815	5.533007130958478	3.0907056253601706	1.5084084234300992	3.1202750127214283	4.418998707104819	5.874493584106318	3.338073245203767	1.5287257394341007	2.686005585564679	8.205055216100634	4.736129271947452	4.140720356977327	2.62673401169394	1.2649295298111207	2.7725458075141547	3.4445538433846363	1.8193719341119718	2.662747853232042	0.6476658566335387	0.2273298496228857
508	4.083763112248083	3.843837728332352	3.9255108734203366	5.424301133765893	4.416378010089952	2.5410873825766807	2.2373626175659242	2.5658643180915175	5.287032590869055	3.2553930200402	2.3842697083357662	1.1600744694984617	1.8845379304989571	6.645086271674918	5.425912843356551	3.3253655349697375	1.668741460401701	5.028959261595091	6.73746059624028	5.803947910914067	3.6966810133108208	1.8694549751766254	3.4644043358119356	8.497904756071708	4.693351256918738	4.434133518467975	3.1182322423408433	1.709425683474032	2.2806644382116024	3.4758961112956173	2.1028757042244406	2.1689071600513796	0.3638024320954032	0.4007998396767831
512	4.856758582250802	4.109965790862348	4.06980370447693	5.267827020696597	4.46469162767427	3.099731675905009	2.7247595718254773	2.449503415599046	4.16474150559832	3.1932575622045234	2.8206612992597404	1.486886378348939	2.6925225189893878	6.116056426819184	4.878328311047663	3.5249330908471035	1.8208177043719935	6.213605388212301	8.054396608998099	5.211372362330831	3.757535448124219	2.130410189018204	3.747499694899435	8.470337846351269	4.144606102969713	4.305170525171749	3.376888743457818	1.8954044532605232	1.6793066220800437	3.193401567025937	2.14810966903028	1.5745497902217265	-0.04354529816839045	0.4182886768747545
516	5.22898863425901	4.076903809744649	3.951708783663031	4.94739197435596	4.529941547400887	3.6337327865410387	3.0062100811399075	2.1176004356325766	2.775782339717287	3.0427005214164304	3.3289911662929814	1.7729319289267924	2.8651568817279665	4.3790473827427965	4.162845601062091	3.7466626072703226	1.9929523417700368	6.317852957986943	8.000234583683186	4.374462593478249	3.620065918365705	2.3101134241907175	3.4878299148238368	8.20344446018429	3.335650912446211	3.8948311707390064	3.453665009361999	1.8553146077043918	1.2725808588323302	2.800722353539818	2.0841882176230624	1.1836787432349483	-0.3284035614782185	0.37064248229862323
520	5.004123198272786	3.6842389013732397	3.5368389994016387	4.544548023194088	4.5515618209363895	3.921291579836629	2.915760748177352	1.654929156893483	1.6183893639712106	2.8668439315894294	3.7503733540260904	1.87113070015561	2.3502068460255265	2.3263642729198297	3.5516641050313233	3.9477238555419887	2.1095862335348907	5.311209665240387	6.745213014738773	3.60626267476347	3.35230588066588	2.3398499429755035	2.7675416399700263	7.831865767732543	2.541505568763369	3.328068963231345	3.3651034747040036	1.6437268215641	1.2154046266387348	2.4433710513414573	1.9923024127250468	1.1477835149396496	-0.3601317098585008	0.31502532879448125
524	4.225996960460755	2.9984118862743423	2.8882627414260993	4.083500851811733	4.39742564044786	3.7910447024951828	2.424150699217132	1.176729199299552	1.0648364993867416	2.652195446947649	3.895724286734066	1.6738555389105176	1.3872523272775539	0.9081115699728637	3.189326278263643	4.010530938513298	2.051070446557995	3.4911651523184677	4.854890811106837	3.100445977966194	2.962830774456217	2.128954643596464	1.7684147313292493	7.452023964187157	1.9295806836048395	2.6602833203860916	3.07732915101345	1.2968088355701717	1.4323863946990016	2.13524150309292	1.8510920954698744	1.385960575419243	-0.19172856163255483	0.23786210953739537
528	3.1814253249907445	2.222592586627873	2.1879658643794815	3.5889658837304803	3.9798040289534256	3.2469935335196585	1.7046329932090327	0.8291795828865338	1.2191100089764864	2.3572120606990024	3.675790539044106	1.2214806049025082	0.4067353893978202	0.6247886403521867	3.067080251579487	3.8397779367776605	1.768152113265032	1.3977097237584146	3.0045084877451558	2.877537958509451	2.4464559493286635	1.656661506284861	0.7337428908896343	7.0879525959352065	1.5163063964707666	1.9069195937648975	2.558215134837514	0.8334951975759552	1.679747815659557	1.7887592270511998	1.5704389770912361	1.64908825934811	-0.01097917181461691	0.07792398313875586
532	2.295380824969491	1.6488999086710954	1.7075456337732733	3.165349952335408	3.3733949576084847	2.5197169717114463	1.1015951605640766	0.7781308869743122	1.9203482817803097	2.0017733523373655	3.1985597529717764	0.7423368673655867	-0.13846541906206766	1.3099591698951856	3.100582114974517	3.4697019966261973	1.3730094398165655	-0.34019321117341284	1.7111049847316941	2.849004261453196	1.8656241846665829	1.0482543680428043	-0.07344320397907873	6.727433187665743	1.2292215793092336	1.124403473876242	1.8582117510610299	0.29204642698939925	1.706338162882462	1.3205845322645995	1.087205645677311	1.6829692082829546	-0.01107614112084105	-0.20979799277265626
