time	FP1	FPZ	FP2	F7	F3	FZ	F4	F8	FT7	FC3	FCZ	FC4	FT8	T7	C3	CZ	C4	T8	TP7	CP3	CPZ	CP4	TP8	P7	P3	PZ	P4	P8	PO3	POZ	PO4	O1	OZ	O2
-200	1.0951335402495799	0.9298415756591201	0.7128627282264397	0.0987818387636995	1.812204356386538	1.4286234342745423	1.0073137257892968	-0.034910462708547634	1.0441088650091421	1.4294390642315895	1.4213663303728818	0.6659016592379494	-0.4565723526871399	-0.3941702832760559	1.3300844397342058	1.0398861143560463	-1.2152018516377208	-1.2248939244815977	2.27302789114226	0.8668758251238184	0.31826817908994376	-2.2485384884330935	-1.852354641052319	1.1894391745100774	0.777345297758156	-0.3205034426703446	-1.9764720151591189	-2.1512613242194663	0.005539519232681682	-0.7546610217114549	-1.5712933500672894	0.19519109974694357	-0.4735306787456273	-0.874763128933098
-196	1.1965162723849705	0.9956725214615408	1.0541393730251993	0.6552441103604382	1.5199460944901417	1.433525201039205	1.2085946767810503	0.4059551645996803	1.1937236755750047	1.3061656918926783	1.342421289869379	0.8061155656489274	-0.5633659944615792	0.8028444031472681	1.2745504347093155	0.7913667539643628	-1.0863412591209605	-0.8385184386063637	2.202341789407273	0.8548954703681467	0.009099240391824887	-2.128863567699477	-1.3612807954751447	1.2837424245847897	0.8722516872318277	-0.4491613495930579	-1.7069811777886754	-1.507480617531868	0.3438936463256607	-0.4869721817596339	-1.1679612368659396	0.557500539802621	-0.10814557197207968	-0.37621644044304337
-192	1.1581402987803835	0.8893781281904797	1.3026090827479104	1.2018609016591963	0.9980464552476614	1.1803013056519227	1.3218560185437378	0.570614157666546	1.3241524662918462	1.1162085504960533	1.1052325936069558	0.8139997700166866	-0.5786873683624106	2.064941401036524	1.2518057791576094	0.5021350371080854	-1.0393263075337291	-0.3287282577798127	1.9630171011000717	0.9283781624242895	-0.25941070848773584	-2.032234902019369	-0.8803290702528161	1.670528169228977	1.0325125429787887	-0.5794720635088975	-1.5234717092197048	-0.8936322904912929	0.6045753940577003	-0.2538043850212844	-0.8672981836356305	0.8213481286292678	0.15927398164590653	0.007204432022263515
-188	0.9582402681953	0.586492715785331	1.2596282927181819	1.351425167486417	0.22799082042829238	0.6011517032704459	1.2334967820495994	0.35499411731737956	1.3435651029997309	0.73091745192048	0.6222916229749157	0.5985518082765522	-0.5915239438381191	2.8712940143571246	1.0835812064469597	0.0807328967201879	-1.1350792617750085	-0.040782395647318545	1.7362602905306097	0.8943820573160296	-0.5885693416040626	-2.036625380142439	-0.6172855480821593	2.132541889528569	1.0963468523955644	-0.8377994277782534	-1.525956626854117	-0.5380340801006399	0.6783258897821427	-0.21139371341739302	-0.8101589063217024	0.889608798165178	0.21682678108308107	0.11820173233706736
-184	0.6098077877860975	0.14563639425224517	0.8583227374340786	0.8554385282853242	-0.6965029818115979	-0.21077156013679826	0.9348690486192968	-0.20348961599949036	1.163743373793703	0.09076958126754438	-0.08449531325226509	0.1908321077773963	-0.6722819788171776	2.812820904305781	0.6085056051149772	-0.5057227598773476	-1.3181025948624185	-0.24101281105226774	1.5667798479577133	0.5496726022193879	-1.044842717393764	-2.121424431213132	-0.6463854296577065	2.3322198332077804	0.8892196990450667	-1.2934873071438044	-1.6867308574052322	-0.5249140249350954	0.5067753779014234	-0.43683710584022284	-1.018086788468091	0.7112286668940481	0.022535810190166185	-0.08195503780415749
-180	0.16521595376740197	-0.31554049173797427	0.1932812179215501	-0.23453296661767717	-1.5840275247635323	-1.039886471983914	0.5166506158182327	-0.9283968782827017	0.7250193935209119	-0.7448667865066907	-0.8813091494243834	-0.27167344024731804	-0.8139018991902124	1.7906207993121248	-0.2173788393015969	-1.1944435804727842	-1.4578422271161162	-0.9104518271347712	1.3328765597070147	-0.19832342813011034	-1.6068905551394634	-2.1843280737087345	-0.8651388265701595	1.9940069863520298	0.3227252057987378	-1.900471801727954	-1.866379256304691	-0.7667940835666556	0.11127130659143482	-0.8812879897755416	-1.3795461619832894	0.30452078503972213	-0.3739349534607359	-0.496109514175987
-176	-0.28405859994695976	-0.6641375405709861	-0.5199030028568352	-1.5329613646904356	-2.202732319038855	-1.6398860174737606	0.12177639423857611	-1.543929215347864	0.03946354975273533	-1.5906388719453266	-1.5627757271411016	-0.6078045948895437	-0.9185639000589314	0.11228722305558282	-1.2554517952693147	-1.82626866833223	-1.4185454809613636	-1.6893274741436717	0.8729014374628837	-1.2413512436996907	-2.1446535533163495	-2.092633718929254	-1.0423604223637153	1.0854583951247765	-0.5255022035682541	-2.48485588400039	-1.8785384845988822	-1.0493643257350092	-0.39711370963924525	-1.3732590640682545	-1.6904652076002717	-0.23075912834557372	-0.8366808274125779	-0.9272284484341197
-172	-0.6268681271938604	-0.801425395372683	-1.03414904810161	-2.4686033663412283	-2.365304464090436	-1.8360364390747808	-0.11593899101549447	-1.7627536013920653	-0.7754611949415627	-2.1907994691849497	-1.9261064480789432	-0.6711639744979482	-0.8494916536818083	-1.5930002887560761	-2.207524294048119	-2.196430200753375	-1.1223231525695436	-2.041047091099293	0.15407420655928036	-2.277322048159616	-2.4565124449697775	-1.7500294402761194	-0.9403258538347067	-0.12341037361458147	-1.4107669556285245	-2.801660292227635	-1.5810227354187016	-1.1355808944641717	-0.8436622002282036	-1.6833661752161566	-1.7420908168678177	-0.7317508440616254	-1.1857918470961903	-1.1610083550704446
-168	-0.7685406784680991	-0.6971302014869858	-1.1700412005447702	-2.55540799449426	-2.007035250364852	-1.5917546708927048	-0.12198095737892878	-1.405060764580004	-1.5010390243779654	-2.3201022089555376	-1.851225490664545	-0.412324665935909	-0.522623001209648	-2.630899184260328	-2.728483431603063	-2.1416892951298636	-0.5842879399806559	-1.547752018835527	-0.6454493387138724	-2.924490206010537	-2.356587404023333	-1.153177496859625	-0.4473827767997731	-1.1684024304454532	-2.0127861448968414	-2.642913334849502	-0.9546980237698866	-0.8819463230754236	-1.0518773767616842	-1.6263781744902863	-1.420431133498717	-1.0247050497886618	-1.2660585609896056	-1.0612133714585723
-164	-0.673840759483408	-0.404853760173979	-0.8914483167075918	-1.651966210009179	-1.227458950758386	-1.017410991007334	0.09286490804352708	-0.5003222214464635	-1.8825766992722193	-1.8916039419099502	-1.356778022201601	0.09693326031530275	0.016636967616992276	-2.5679635936752065	-2.585555546908379	-1.6277767378717651	0.0878940967486469	-0.1962181473784753	-1.2101646631204703	-2.8973736689848835	-1.775586958216964	-0.4144634892013067	0.33732497606941786	-1.6209677416883947	-2.0838479943115433	-1.9485912273800847	-0.13537086512243193	-0.31916767278197816	-0.9211955643284101	-1.1551964253823597	-0.7732552866486397	-0.9974490974992307	-1.0173848841729882	-0.6374952777026129
-160	-0.40221092003363307	-0.057185482089383274	-0.3319215468132695	-0.07744546960112655	-0.2821866862801924	-0.33195865070454855	0.42822080742485835	0.6753175241586347	-1.7549585059680204	-1.0297824118363896	-0.6158141478249489	0.6772820932454714	0.57804232689828	-1.4672906361727667	-1.7964348747674164	-0.8000748137301273	0.7170165759103493	1.5091309509322424	-1.2934805122143171	-2.166006321206775	-0.8306764939316436	0.25561931664779036	1.1094937296511902	-1.323599335189727	-1.5868701894749833	-0.8694120623572527	0.6138120278119985	0.3359981766800675	-0.4938647436547685	-0.4064810861815281	-0.01661699819839779	-0.6693021042138001	-0.523346184362882	-0.06100948512051916
-156	-0.10677782419187203	0.1705195750461259	0.2501316958311094	1.4951072893541844	0.48878106351471046	0.21172229892204897	0.7220370751271049	1.6682724910577922	-1.1591089934648275	-0.05554624260348976	0.09154256410136244	1.0983145209239218	0.9008788443708547	0.10416184339451022	-0.6599745137718044	0.046755548448533406	1.1058980198595483	2.7358102729389344	-0.904946920971149	-1.0014983390318235	0.1893808687912303	0.6195516570661536	1.4834185801246622	-0.4897577154192118	-0.7380430083714533	0.26792269877500674	0.9993212197822543	0.7664632777889874	0.037872996085629496	0.34052124533510597	0.5437571988682339	-0.20736825413800555	0.002811478210965412	0.3982865502315294
-152	0.0182937513575021	0.12702111867783003	0.5764252528896063	2.338799947555791	0.7832615951789792	0.4158591021528765	0.8128984549979522	2.0259988256801327	-0.37167757655717926	0.6298076494528267	0.48230844614328067	1.1674284905522823	0.7911492566161266	1.3345007862730434	0.35413527399297934	0.5829890355649899	1.1086963387153983	2.744356386885253	-0.3320604852398902	0.1300130930240663	0.9340124702713923	0.5200691210014048	1.1865268915737046	0.4021508981564958	0.08333809652745316	1.0919049950688275	0.8342318513788745	0.7109183651141308	0.40748664633867254	0.7871380428468044	0.6544225199389285	0.13844959402891976	0.3064579359900315	0.49745121472649356
-148	-0.17227457420246153	-0.24214021800418664	0.46916800618927446	2.021262163781081	0.4635722923495662	0.2084268773300273	0.6109192355944181	1.510330554009963	0.19749045322147732	0.717755375480475	0.3891463269899121	0.8129489401319495	0.23218230844528254	1.5701571663314495	0.8136613348445063	0.5912660345408272	0.6992906910407046	1.3096536364868385	0.011311795533946184	0.7787485103019154	1.1461976737647595	-0.024025227813859573	0.22385421338784062	0.8637372233518049	0.5154205547671086	1.351483937666017	0.15223467311570543	0.11436744005415311	0.40398603575752967	0.7615314106787889	0.25201493438035555	0.15939070244124323	0.21734794919452005	0.15059263966209513
-144	-0.6877778751174707	-0.8452107885002031	-0.05685538784216027	0.6246170385803117	-0.36363971141557716	-0.3240141860410737	0.15381225904731508	0.24005335508774067	0.2152199292709606	0.1484491523332555	-0.15550567170459204	0.1327778991684759	-0.5883402809547691	0.6626385433633144	0.5345466719482814	0.07903527448488429	0.012080654471414258	-1.0823044749590942	-0.16275361139214145	0.7260048371104955	0.7899489978873149	-0.7846032361248412	-1.0667819949872985	0.661123929738751	0.39475694199077654	1.0355674002251043	-0.7626712899025956	-0.8020626882330125	-0.005158852307139592	0.31525146881618815	-0.4743255364840227	-0.18835735273489262	-0.24668203231995964	-0.5022597300246406
-140	-1.3623807395870526	-1.44743334881598	-0.7756969313110542	-1.2686394421018639	-1.3595989908224084	-0.955504236193083	-0.3831240525109457	-1.313941117783997	-0.3644692590571443	-0.8313005545608664	-0.9131783819984929	-0.6207271202628012	-1.3463354076726073	-0.9353407597768583	-0.3133385769562411	-0.7046527844758056	-0.6762323362443377	-3.4015276346157037	-0.8194786885552523	0.092447794740442	0.08164805898317808	-1.3874878848331116	-2.1186253971015465	-0.05579045400838886	-0.1574915643530434	0.3841708888844929	-1.463443156362229	-1.6022529561597783	-0.629541455109932	-0.28460404204992223	-1.1405379743390462	-0.7334958892423087	-0.8604763724536657	-1.132589933396894
-136	-1.9003661822976787	-1.7488045648290778	-1.3314911093473536	-2.8301272320819106	-2.0731885380854043	-1.396485921194976	-0.74669194032975	-2.5071439679742693	-1.221530195966836	-1.7541820958671364	-1.5286647042780048	-1.1302019329146418	-1.7219420627988156	-2.3976542889141563	-1.272469994193328	-1.370842691775161	-1.0394644710999696	-4.547555911980439	-1.596049185537929	-0.7234300356719888	-0.6032346471815078	-1.464405652163632	-2.3751859604949312	-0.8376684167693679	-0.7981042245741834	-0.22503343167709972	-1.5264453849400412	-1.8214583350924218	-1.1283701629760294	-0.6776340586719815	-1.3362745012877912	-1.1540373534629838	-1.2826346126597912	-1.3664712871383706
-132	-2.001477713300026	-1.5167261323782153	-1.3948670590469638	-3.3696620379249165	-2.129400009501101	-1.4067993128544232	-0.7208249550740128	-2.813224308540602	-1.7999312832211132	-2.1377572959332483	-1.6842474894915804	-1.1491669387413936	-1.543059225954919	-2.963846914437782	-1.815573091691448	-1.569369073720219	-0.8445463159219248	-3.8851644894737394	-2.0006463477167977	-1.2500455347925468	-0.9075067020392101	-0.8337022641113822	-1.5610849817916714	-1.190108057832058	-1.1439317435946992	-0.4604341376123874	-0.7595545034305148	-1.1973409622480007	-1.1795065373204943	-0.5917680248578581	-0.8310738780973579	-1.140674826603105	-1.224449750669853	-0.9736638044570184
-128	-1.509139891628936	-0.7138873916721864	-0.8262190201880149	-2.6516318254280757	-1.4045885765852855	-0.9041433311523162	-0.24860428210911278	-2.0800716824466883	-1.598735328452595	-1.71428215070878	-1.2493958441661355	-0.6289639457081613	-0.8577662088672159	-2.3494152963449078	-1.6064883429975347	-1.1576639384605414	-0.08451411106706366	-1.5781433542461618	-1.697252626902288	-1.181917306776993	-0.6645818335920202	0.37853965067658824	0.14188498222768184	-0.8541132190120895	-0.974740443152878	-0.1956735248393764	0.6706306917424892	0.1678270246321628	-0.6612648947232889	0.008755637310691192	0.2868602566629087	-0.5776325449664838	-0.6129758342525556	-0.007020269502856292
-124	-0.5063765036195935	0.44959977155659636	0.23588126838257595	-0.988932249433423	-0.09723142509945824	-0.013014718857331117	0.5099367486476836	-0.6128435119414885	-0.46962198496506	-0.5660457596792703	-0.3475185623931688	0.23550987184191818	0.09362366026844095	-0.894772586947612	-0.6665895564415654	-0.26892614296726697	0.9783067082500753	1.4537454806817574	-0.7111383658574413	-0.524095891582974	0.027379067545549068	1.7553017095117707	2.1196103042493286	0.04743257898037624	-0.34319531830923533	0.4408347297505705	2.272027725205454	1.8101935340954722	0.2593358748564093	0.8936111904470957	1.6223744113015424	0.3662921479037077	0.3463816932039157	1.1911290853944825
-120	0.6983064395440136	1.58363222676038	1.4167112076276769	0.9204949117308444	1.3520433868604664	0.9791396235540637	1.2319763867745073	0.959002373181474	1.2496411768834115	0.9074527598358246	0.700401065965422	1.07819270815429	0.9831327175114198	0.630198357898343	0.6402460916566969	0.7587776164924738	1.8998312902168148	3.954797734766072	0.5710547551996132	0.430960058077885	0.8694894887906204	2.754351847370271	3.5659942536920424	1.080498096599092	0.46701106311191076	1.1510865659261833	3.424069634375685	3.09063743764672	1.192160484165072	1.6777677493651177	2.6435353689208076	1.300386544759137	1.2534809080901477	2.131753439289471
-116	1.696924324519694	2.284082406952973	2.265020841601929	2.322561973429918	2.456484311577514	1.7430344776015192	1.5804510076674596	1.9719462344927499	2.855816833915244	2.1752202455914706	1.5269052943779668	1.5258519610981556	1.5280828437371765	1.4615168534572414	1.7921353533320437	1.5523776968862872	2.2461411896262797	4.91038941097282	1.6093342263597954	1.2723256317440463	1.5240771731998046	2.951967231926882	3.83752631172231	1.7424347356673036	1.1039787503026264	1.633955593752161	3.6525638011266737	3.482828369884072	1.7153406099880288	2.0163757750147315	2.9308516905220636	1.802794809558183	1.7066439347093878	2.408119910835975
-112	2.16286873271372	2.3208997191006184	2.4584596095003834	2.7419590880784397	2.9044563696963714	2.055420631941299	1.3788920606131756	2.0369052835535975	3.615235081128146	2.824793093225139	1.891387219422094	1.3801369632208114	1.5965496261341998	1.2695209947958663	2.369454139449222	1.8856482458190298	1.805961604327104	3.9936234850189987	1.9944591471861544	1.6927179055392254	1.7878125860852672	2.2495899143642766	2.7578425337780836	1.7323535637033152	1.3415406908496907	1.742921228776732	2.852899782607301	2.825131886025187	1.5999387462275718	1.7849001839396053	2.3836486279387747	1.6470286804577412	1.5119659862491812	1.899765009851992
-108	1.9992459961959803	1.74937307392951	1.951356286844234	2.16340422084103	2.6916944912662584	1.8979637574914274	0.7135447841748825	1.2046995132548128	3.138800136270848	2.7454097201650645	1.782799835472313	0.7183040958388918	1.2363533942478926	0.3330439618762011	2.24970697788632	1.7730240777073825	0.7067244035043887	1.6754971700327768	1.657595868694001	1.636122103374987	1.678608651691486	0.929880199468837	0.7190931421244363	1.104911443781717	1.1922981708941554	1.5464525183734148	1.3435310091430055	1.4041992390465956	0.9421191787775361	1.1441757650097935	1.272366997367416	0.9367820596885331	0.7925261239069619	0.840123651290757
-104	1.3772176469363728	0.881430444876195	0.9887476538490195	0.989263710862182	2.0950381702934227	1.4528961144958523	-0.1022728157441549	-0.0881809291997431	1.5934419591727467	2.1525666659367517	1.399732824606273	-0.14519904517230994	0.633619902918391	-0.6304199083624138	1.6396604734984999	1.4304860794190706	-0.6319248064299033	-1.0325305435814656	0.8949945546441951	1.2983067002895956	1.395751949601065	-0.46944481015891254	-1.4741708003018192	0.23110613168541874	0.8828421212794912	1.2665342060537124	-0.27826785971003887	-0.17402590767315276	0.1268034723179822	0.4567033338937031	0.1101110947332305	0.06992856395470727	-0.06413343532582583	-0.28839316891337197
-100	0.6381920559982781	0.12168696491989703	-0.0226603783094968	-0.18546406877899402	1.5026245079249878	0.9929669474327273	-0.693686543143782	-1.2534861532988748	-0.37053319718270344	1.4469315969175276	1.020576832101941	-0.8231326320846927	0.02336592966379265	-0.8760596491629788	0.9374074316199376	1.1310112447793588	-1.691199298403472	-3.0588574332256138	0.2002893085191289	0.9917023752923653	1.183553692690525	-1.4039556944686582	-2.9619867726883284	-0.40679600732140375	0.7131370288010035	1.137266036977007	-1.409524079578806	-1.2664450375053535	-0.3618001928731634	0.09930438523254545	-0.5929091557792019	-0.45449620370556526	-0.5962502345290062	-0.9825322007168239
-96	0.11322973639987527	-0.24688893494261385	-0.7175828200342859	-0.8596756436577747	1.1950035065043905	0.7270143609765074	-0.8273365476700871	-1.8367248727201984	-1.9433486412574568	0.9888719295330625	0.8407170155279978	-1.0541070673078128	-0.40982800618650567	-0.056489415324163364	0.5066683279596771	1.042377469292078	-2.093355173547794	-3.730372419475758	-0.003733929470067425	0.9566150283503126	1.1821991175367796	-1.5671195944320753	-3.2136778750344366	-0.4698240745126608	0.880241213006639	1.2667503324951221	-1.7081007914333097	-1.4874596558209414	-0.19360066901441728	0.26778834990602224	-0.5700183496388754	-0.2960534386312753	-0.5044752942699929	-0.9591741537672829
-92	-0.039350785215685594	-0.20500601776339253	-0.9397889351959255	-0.8342740514672689	1.2041221826669761	0.6896703225843114	-0.5367154465476032	-1.7086207823530173	-2.548037760977101	0.9193437672292036	0.8732133485682059	-0.8273152092073114	-0.6030126794849245	1.584237333112612	0.49574756497150224	1.1440712184631214	-1.7659326747177793	-2.998845092831476	0.4114291955573868	1.2323468892454958	1.3553987707249808	-1.0080832217514044	-2.254827255278178	0.06876614672465182	1.3683328593992956	1.5823608596905308	-1.2212594716709497	-0.8717634655877051	0.6275755747209134	0.8780392982249058	0.08717524238272883	0.5415893183385816	0.1912472690283699	-0.28687155174306517
-88	0.10582965585692079	0.016263643238609918	-0.7827988247181115	-0.2515347593632573	1.331565257525267	0.7434647660558238	-0.09085067338655656	-1.0705916854531436	-2.090063805071607	1.1249309749811724	0.9717855428955985	-0.36127376465183625	-0.6203619822098291	3.3500087176620363	0.7981672862881966	1.2706785169944819	-0.94213366270618	-1.3552774156685246	1.225368854289969	1.6578632551297883	1.535862918790776	-0.06555782241958831	-0.6241465195156427	0.9292429066085075	1.9657328079184715	1.8877352428459262	-0.3175758711426255	0.17445248321357204	1.7600732997325728	1.6167482096861086	0.9961146687153684	1.7051382021768735	1.162028786586423	0.6607451422221597
-84	0.31421488444151646	0.0953223553873478	-0.49098980302825324	0.5238850103502911	1.305519339126366	0.6897156221142263	0.1788175101533876	-0.29435059353898646	-0.9455918645826723	1.3491935695916606	0.953602132773813	0.04764651122580588	-0.5982801303063519	4.46049021548395	1.1574982375484841	1.243974086481765	-0.007985996062262416	0.4644278276161898	1.9979162165743989	1.9852248380129967	1.548218365575072	0.8293057063145601	0.9084203220320207	1.6875369506191396	2.385627025303165	1.9843820283380005	0.5223773704691488	1.0935120554972042	2.689113133316843	2.1022396034570034	1.6823836522541595	2.6613550118964473	1.9330080698800607	1.3936759198287796
-80	0.3501504948835484	-0.16605724352396017	-0.28910675571882133	1.103554365232897	0.9774693822023847	0.4198747564682232	0.09106669551983837	0.295932560411976	0.28325939106950676	1.3726308311139082	0.7420473676066436	0.21388404017330495	-0.655032633081309	4.43258665873067	1.3388018574291765	1.006720182738122	0.7110660058188667	1.8214427186755302	2.2981395663413102	2.027848715430711	1.327988621219905	1.3694491351838307	1.7145400004014273	1.9905461022665294	2.4152905880029296	1.7817408993559067	0.9411874389727597	1.448170539060701	2.97712539874874	2.0686194844470376	1.8046238376831427	2.957133047267233	2.1158463901505553	1.539495464252796
-76	0.13446325029756737	-0.6923233849212104	-0.2372952395646902	1.2642562357454377	0.44351321346840206	0.019400170023932448	-0.25377207930389767	0.5865484461280552	1.1022250624484724	1.1563472718607772	0.4442715335596424	0.1824102248116371	-0.7967491725832808	3.2852260983492783	1.2677243915975824	0.6787875277547626	1.108577844681884	2.41054725038368	1.9204624842794111	1.7607563689599741	0.9683808063853347	1.4986102543187898	1.5920114477017488	1.7187901691910505	2.0175738283716917	1.3390864100026156	0.8511905052629073	1.1134707899591423	2.474271529626478	1.4853107891729245	1.3004531827518275	2.4391283927370564	1.5965160091146313	1.0130026314908762
-72	-0.19615852783268922	-1.1507556409392259	-0.20600637741529343	1.0326579783116736	0.004183020432163117	-0.25635042721875945	-0.5192196952108553	0.6984818560131447	1.3555967773544246	0.8565504529308018	0.30064621491820265	0.1961512113625615	-0.8823011495248757	1.4699324332318315	1.051275489060262	0.4895058857956716	1.3087369170525074	2.293904298712843	0.9655818318783939	1.3120801415695182	0.6589706523470318	1.384404417357376	0.8150466063902337	1.012411830253354	1.326957460867894	0.8135868886433698	0.42377790701684037	0.29621627852039056	1.37272584091744	0.5501850233492281	0.3841500570611965	1.3113290038379553	0.5778105244353337	0.037702791297612795
-68	-0.36890733148894767	-1.1381553382748104	0.013608593459341631	0.6365283115528632	-0.018761699971871642	-0.13125887480021026	-0.33932399664084784	0.8691765644063397	1.2304726807999102	0.7049100977266513	0.5303294645271357	0.5259899483752196	-0.6825214607172897	-0.3982235183198386	0.875639794046241	0.6250659807636264	1.534094925821912	1.7748918488513483	-0.22640342953264198	0.8609562494475408	0.556522964026128	1.2711547581050349	-0.05737935364660635	0.1651524897220376	0.5557873235021674	0.35530120044648705	-0.04984635847142864	-0.6051372274379346	0.09128782130081618	-0.4253312338580877	-0.5830904826701415	0.014535250105518704	-0.53305399283294	-0.9772961711051047
-64	-0.14309051596754283	-0.4286988962793947	0.5410657511401964	0.36864709761051534	0.5042063581134454	0.5055636750808437	0.4380657065775536	1.282811042407881	1.066285011460416	0.8396695235033598	1.1695530385052924	1.2730324236200086	-0.011220684246701586	-1.8343441440045904	0.8606761076178037	1.0900201769964988	1.9268554400432998	1.208743926811191	-1.2504076926132877	0.5181924091607452	0.675356088363707	1.3156669106644665	-0.4947678136254804	-0.5418745265631117	-0.1228006553529716	0.021658770685349056	-0.330235808253988	-1.2092570035921222	-0.9390219426288923	-1.166455861961293	-1.2690868345644184	-0.9994363759556696	-1.3255001273068152	-1.6333669382818456
-60	0.5232107626102942	0.854388354051678	1.2818959919035995	0.42392492187280767	1.392514106095751	1.4852521382026134	1.6078153808054636	1.9335656117258821	1.1007730933054098	1.1905751198273387	1.9993920275753114	2.255131238965765	1.120959398300526	-2.6527154378673568	0.9626427864565845	1.6656509595778997	2.426619046760339	0.8318454006173825	-1.834050889153036	0.26122841173021694	0.8611203410341931	1.4931826553792462	-0.2691652469991798	-0.9754539107490381	-0.6528393013684018	-0.24379491744477974	-0.3457971802564016	-1.3265545334702298	-1.4782843552459624	-1.5482766589175152	-1.5099006853129282	-1.4829777441730163	-1.5755537708557883	-1.7189520554058517
-56	1.4086294138629862	2.248088354156886	1.9303650807281034	0.7842468599546288	2.2078840676830747	2.3922922550837	2.6592388085936847	2.5936601096473164	1.3026831117165345	1.487054344237492	2.6127307349043436	3.051285736009623	2.4193215309096225	-2.9404122755198983	0.9802015995073455	1.9930027672993895	2.774483196883043	0.6802214366905039	-1.9508120964388087	-0.04510819900568062	0.861579594821028	1.6149916608090127	0.44544333107064565	-1.1921224564018011	-1.1002778979178662	-0.5649297223133136	-0.20705184288201425	-1.023956773080041	-1.5700776537355199	-1.6269290406159098	-1.3589315380118987	-1.4913623295324017	-1.3360078301077394	-1.2923815217767232
-52	2.118110651390566	3.1558866421176015	2.115518087767961	1.2174484699029227	2.4670915541349623	2.750967972485626	3.016197673811835	2.9123628065965756	1.3997449839537766	1.3998030388776412	2.6039543086111943	3.196791640793623	3.370267144277148	-2.895234100661428	0.6706539971585376	1.7493995383917234	2.6475000314626778	0.6133502706300893	-1.7996644928317722	-0.5506921396656967	0.4631774115789262	1.4432547055999065	1.1948158710831114	-1.3721882070229234	-1.5837683637687032	-1.0444425318097523	-0.1219930347700459	-0.5582004771444512	-1.4786975346425022	-1.5791789253418749	-1.0313020918557463	-1.3169678416380495	-0.8840764142603837	-0.6346631630132606
-48	2.280219549144122	3.1458263317792317	1.6114741523111187	1.3924323285233258	1.901010031668917	2.272895807249771	2.341969007301208	2.5902090007235343	1.0712041827813092	0.7359182816045093	1.785691375992356	2.428370946475154	3.4549059780630897	-2.6608345441395826	-0.09038796998091402	0.8272924998377094	1.8470088196852008	0.4085906733687373	-1.6607389408143614	-1.3028504815586412	-0.3800926198899678	0.8342754819787399	1.5080651006770598	-1.6844557481198998	-2.1737182085469233	-1.684911604441991	-0.26821789077751157	-0.22631037178122135	-1.5128446779202416	-1.590054984846581	-0.7809386829686575	-1.3011746373703674	-0.5595685825525266	-0.10184308115757049
-44	1.7447564557847328	2.175102466813692	0.4884958552901803	1.0538924905871632	0.6097409709794729	1.024583813941495	0.7404595594784807	1.5449957808587822	0.1736834789897827	-0.4311651576600393	0.30965325158140566	0.8456491210567747	2.4197015701237508	-2.2540817203832093	-1.2075016468079187	-0.5865252003166516	0.43435430417069476	-0.11067674281072083	-1.7175254778413993	-2.1866505090818995	-1.5010321102391888	-0.16963878231134252	1.1519092292312962	-2.16743564058488	-2.82393478634254	-2.3682169854453874	-0.6948348266224808	-0.21747977976726918	-1.8416376067394722	-1.7529885724631673	-0.7770785073688149	-1.6355409580898943	-0.5853881225111423	0.04466447222877052
-40	0.673630355087882	0.6232787950991934	-0.8835285283669917	0.17745020940801462	-0.9672546958344365	-0.5755624160540163	-1.2549012867715592	-0.005011619521690358	-1.129702922829842	-1.7657707885029779	-1.371132370348038	-1.094388720610347	0.47524985551054344	-1.6124495227157605	-2.374474519456688	-2.067899460339969	-1.2519071070534717	-0.9597260927765096	-1.9347963284280971	-2.950522653759753	-2.572077506247217	-1.3319932188736736	0.2528074079329659	-2.6853220395001207	-3.3640348826351683	-2.8922915385655856	-1.2862385478923914	-0.5256584273418159	-2.3873553215787084	-2.0177450129110546	-1.022913691799105	-2.244289630945652	-0.9490157937885052	-0.23713137149545518
-36	-0.5345520363662977	-0.8915127493284314	-1.9948538491428605	-0.9824011301032938	-2.2583279552662874	-1.9435369919344714	-2.9136035368790876	-1.5921989639137388	-2.4182252822856816	-2.8151657510253245	-2.6923866203996427	-2.760371916477386	-1.712772722688299	-0.7077473384154412	-3.1973192611078427	-3.1285552899527196	-2.713158600632843	-1.941351170406787	-2.0643560834263077	-3.3096356308346473	-3.235479346689598	-2.3001890124420927	-0.77549737496085	-2.9852707310646007	-3.563270559851263	-3.050111762929091	-1.8012075378718218	-0.959615585765375	-2.8579742836320867	-2.2125942651199133	-1.3527638878046924	-2.8165137696681612	-1.409176703709932	-0.7515026908020704
-32	-1.4427895509532538	-1.8159604026722207	-2.4366788802615513	-1.9870738932985503	-2.8332743573181056	-2.6043286257794387	-3.644019117691826	-2.6698098115272004	-3.2082328715386623	-3.218982211568896	-3.2266504683091792	-3.6139380840611084	-3.271794072473767	0.3605256071525045	-3.3676564608425776	-3.4202821168376403	-3.482400885372822	-2.690123312833946	-1.8019919349950855	-3.0735437792426112	-3.247092000392579	-2.730482571383782	-1.4475280009916445	-2.8333177494993924	-3.235860577996619	-2.71193074495357	-1.9644122074121622	-1.2360242574002738	-2.9041402266612812	-2.126404995317989	-1.5052987299107288	-2.971903078205284	-1.6227017600098224	-1.1598498791975151
-28	-1.789478893530401	-1.9223678063494907	-2.0975103325338855	-2.411655896773703	-2.5977151328304378	-2.4119524894853566	-3.2641131795488234	-2.835988514415745	-3.182609073232995	-2.872128240963295	-2.8666512893780016	-3.43577694025433	-3.515324106877834	1.356559392365117	-2.796961062045408	-2.8730623649538565	-3.305133572816839	-2.8129384446649808	-0.9936280821509067	-2.2329368534932357	-2.5677850181599102	-2.4095678268632033	-1.4459238015862097	-2.1481058543330236	-2.333940976925969	-1.8752840710023624	-1.5718485077273259	-1.1080740662255142	-2.307939523591958	-1.6093566377061743	-1.2401987282912235	-2.462856763343652	-1.3208599057227666	-1.1421542138826952
-24	-1.6080468852451866	-1.3947528565478624	-1.2153156965089544	-2.0634965844508164	-1.81888913649051	-1.608624931088759	-2.0787730164496008	-2.0261337705955635	-2.345057004729935	-1.9702237794723794	-1.865244979917479	-2.4137000976657585	-2.2959408702103867	1.9874248454461019	-1.6610065656687272	-1.7178149179956979	-2.2432630005466323	-2.0823025650857088	0.21240232831257447	-0.9795548295085207	-1.37935852656201	-1.3432728018224904	-0.7708654384224042	-1.0735712024286534	-0.9982514356205265	-0.6794697029124946	-0.5858803376664548	-0.4840521800217822	-1.118594405211099	-0.6609179360869273	-0.46299868705201846	-1.3211586442016265	-0.45954149845448483	-0.5623579011070382
-20	-1.1793302267816936	-0.6995253545265928	-0.25803783470809044	-1.102175709802723	-0.9715656613615772	-0.691903947036985	-0.7282978873938601	-0.578852413623377	-1.014651772798358	-0.9133887863940188	-0.7139024716472766	-1.0562171909368236	-0.12861981955479804	2.0220875688998468	-0.3308439842454182	-0.3872656812427071	-0.664789853801761	-0.5974091872390928	1.37240171085997	0.3535892358435706	-0.022393630760994057	0.21500013714390626	0.2686729722392227	0.053338467940131896	0.4634658086519438	0.6211056097561694	0.8135502913915701	0.5131580816664365	0.3358810237510573	0.5362417088321245	0.6981009823339915	0.12765784529403557	0.7337948065351025	0.4437196243527381
-16	-0.8503229596603918	-0.3152852646496905	0.30695754212127746	0.015364323703896513	-0.4889042961174725	-0.15865378041742326	0.11774081707076356	0.8766722657004337	0.32372817315384106	-0.11860563576078743	0.08245504626675465	0.029791088699585033	2.003735775656996	1.3982964718801023	0.7767661194263358	0.6606866700657827	0.8831333495731286	1.1885572641882072	1.9379723023122906	1.4095001185116667	1.1208213539435745	1.819705600912582	1.2057065933303952	0.8403018691781854	1.6739498334583143	1.7233270363213198	2.254356378585641	1.5762745102185927	1.578210230657431	1.6633090930905874	1.909703369087459	1.3986377680752244	1.8478801203803275	1.5095409116779723
-12	-0.8279794433670113	-0.4746502327856169	0.23246413410623024	0.7482642512503103	-0.5563892708082343	-0.26526048712515776	0.0657397730478864	1.6780852037023901	1.2250628440444649	0.15916423459399093	0.2213114941493034	0.39237451454279687	3.091000787560353	0.26055422359486463	1.3550654615522384	1.1151812048412986	1.8666738224584274	2.6180713110627347	1.53640889733554	1.9286529969158976	1.7502834752715108	2.9629933759267537	1.630748267824895	1.013678786579501	2.3192288817024935	2.3617184102512234	3.27703427441061	2.3244976938687563	2.187887663085734	2.3776442944578404	2.7467262675555393	2.0613329358509325	2.4673693117789144	2.192431205936201
-8	-1.062954542337355	-1.0529645654796427	-0.4064623107184713	0.7451994996329869	-1.0447877619114199	-0.9203395224223072	-0.8385090210725129	1.4297677242420512	1.45511638750813	-0.07869038710992343	-0.28383588719231884	-0.0867966858341355	2.571897977057607	-1.0747011872814523	1.3127994504208516	0.9177182293609932	1.959560866176852	3.102220765864545	0.20893345720469436	1.8372712088928302	1.7450045303156616	3.2515225328368373	1.367242690449106	0.552622316872585	2.271669382081969	2.39849590649626	3.4994540126185854	2.459411376465754	1.9932061383468498	2.4551553664209576	2.86981224289175	1.9376060913757152	2.3670811593374155	2.179744238118501
-4	-1.2902260986177974	-1.6542715984539809	-1.2694185940164007	0.032910309648869755	-1.6066151816812964	-1.7546479657695246	-2.1523990576760665	0.2065584356338093	1.0509532663514198	-0.6030248388324281	-1.134352323529163	-1.1560181350131584	0.6152555330955244	-2.2085306588679656	0.7893329838851165	0.26604291729514884	1.1712439030640116	2.410247319811927	-1.5449626406763706	1.2689130274206921	1.2022780149622816	2.5723028118038997	0.5363273011018058	-0.2888286404470015	1.646839137687834	1.884891982088029	2.7847249437596506	1.9049367856568056	1.1549063891816147	1.8997722816186362	2.189777845576079	1.1846175163877903	1.6245790678969283	1.4476970397638007
0	-1.2052696912852947	-1.845772023309234	-1.9339626978683733	-0.9932211612420524	-1.884586091051814	-2.3316404760620264	-3.2622625745425093	-1.4568793736868455	0.25495389039519795	-1.0927965613431267	-1.9062946986706502	-2.3173282087946943	-1.947698469012893	-2.791879408463267	0.07227122765414158	-0.4864015566943174	-0.15275852343615257	0.8097717741548637	-2.9708433076238534	0.5027576076211925	0.39597311515970307	1.1651574343827842	-0.5098692165853236	-1.097688910573939	0.7525567989422619	1.0526107523091492	1.3270527090900046	0.858640012957417	0.0858347562768565	0.9527884101653938	0.9278814173159855	0.20975279755086942	0.5839814528979945	0.2824270718119646
4	-0.6644145233545581	-1.3989633286441656	-2.095624203159375	-1.7701480343949416	-1.704173560608264	-2.3720045029834322	-3.666615000050548	-2.7944841314333755	-0.612724719884751	-1.293401238036966	-2.247201675463446	-3.0421786231480947	-4.004137029075096	-2.6458027296023388	-0.529312251661967	-0.9795383190219596	-1.457415577069891	-1.0282844279076766	-3.422157994213275	-0.14815241060999043	-0.325115113629618	-0.4397494185789179	-1.3398909534957626	-1.4956076107411658	-0.04388700042015415	0.23450219571988956	-0.39141407510163345	-0.2687728100189694	-0.7449305038717947	-0.004238771729645277	-0.46038052323454726	-0.5303672538718278	-0.3055218152438751	-0.8460836985207348
8	0.21301881915192986	-0.40626466171689507	-1.6865860181187937	-1.8559738350739432	-1.1508729428798476	-1.8768402290642294	-3.1848654666599154	-3.15972756541723	-1.2744811741122615	-1.1210708589859744	-2.0195941874058976	-2.9888069554209067	-4.666563975949992	-1.8332446767298396	-0.8018203357479676	-0.9856744383721595	-2.1953904573325382	-2.320134395463635	-2.6865477494121874	-0.4564919162192186	-0.6680809838593698	-1.6190911490570243	-1.6101518828747596	-1.3165066208979421	-0.47549542664639805	-0.2659738653143509	-1.7773605540224227	-1.0134652827424546	-1.0335383389127832	-0.6187942012422603	-1.4771692715543197	-0.7517925481888814	-0.7020742875493322	-1.5019038877714728
12	1.09663200101545	0.7743477801799695	-0.8700894095387701	-1.1610506743681284	-0.5049669729835038	-1.0988306971463735	-2.0088837096039596	-2.3373541772957696	-1.5690418442212284	-0.6751776320577	-1.3364925350778292	-2.135001415584371	-3.664367666529611	-0.6528658850399045	-0.6935624462736729	-0.48937478537981915	-2.0525538869534197	-2.5315208371143836	-1.1011791201445946	-0.3625556519414618	-0.5100277649400259	-1.9164537143005187	-1.1895484894283195	-0.6769911629750572	-0.48907196398280234	-0.30544203442704465	-2.3711323678232805	-1.0579060289376256	-0.7819113711642913	-0.7323701959239227	-1.8044668390492007	-0.47675654171737175	-0.5304146395643047	-1.486551281036858
16	1.6241139132502755	1.7108855204301852	0.07164283823760295	0.011693880863765832	-0.07431068997694959	-0.38809215924507606	-0.5883766993926349	-0.649920521525765	-1.4625047408372547	-0.15985093970471442	-0.4820896076905403	-0.7736966590420871	-1.4325933420251393	0.47022205472482126	-0.30634096187495513	0.3221755913706516	-1.0816595527042527	-1.6130975444121225	0.6076811536705256	0.018166793464451058	0.05592094347663393	-1.2440205781045723	-0.19357496451142278	0.08999884850906091	-0.25338271196288553	0.03603020673834194	-2.0430560060417307	-0.3726866533883566	-0.283190547704965	-0.45202159767467315	-1.4424151145757202	-0.008630190954174931	-0.005410836064565518	-0.922139165457467
20	1.6007938344593606	2.1126565879888086	0.879035113022654	1.129492876062184	-0.022814445139981307	-0.005836746640668199	0.5806447252872479	1.192610976069147	-1.0211206648794988	0.23317418933648554	0.23189820290667792	0.6205095037052757	1.1193562717786945	1.1551061839503975	0.17229388610732	1.1482192248918577	0.3203993133561849	0.00494656291472742	1.702284689420101	0.4631871569383224	0.7652415017834661	0.07500640283959203	1.0760062905801593	0.6099846943713442	-0.0545576474183217	0.49628227823843224	-1.0432910892848886	0.7683383206995975	0.041395556077155504	-0.08610468336062095	-0.6913686973282533	0.23886753558408938	0.4921506034823232	-0.1710667754861048
24	1.0991889210605692	1.9485248278059726	1.404860850601932	1.7033396916299617	-0.2898440651728314	-0.009224619693115943	1.1571342915884044	2.427903646061295	-0.37870252036802576	0.4149074543967953	0.5993220194943952	1.5894957740707103	3.03099726865362	1.2230244844075824	0.5583483562677656	1.7014418797451047	1.5889450271543761	1.6411008793405053	1.8069200470126725	0.754053829196661	1.3014837470573921	1.4551966153597953	2.2439877930252714	0.6568780524835406	-0.1319802549129443	0.7647142987017588	0.12619309095470088	1.9080927323804049	-0.12836705115810498	0.028486739772161682	0.014491418339977665	-0.02970853626677954	0.6228781922826694	0.3624648144630534
28	0.39828416604574446	1.416472193002731	1.6194177825095688	1.5220295152383605	-0.6434439404454675	-0.26284676723875	1.0572373840342235	2.5899760657723405	0.28143250871175346	0.4159967292773154	0.5805221185332544	1.8644703579559339	3.694066992016151	0.7697822432156358	0.7374262195088748	1.815943832581015	2.2410774174375265	2.6892926625064533	1.0737386914800493	0.7736203054923226	1.4363779985402423	2.320860618453745	2.9838931485180296	0.2519066327410721	-0.545061467701916	0.642753599451422	0.9552044844352643	2.607080453012481	-0.835785208022444	-0.2832559936047631	0.3334200373814619	-0.8253684619092174	0.26782846383185477	0.4402291167588591
32	-0.18994070541586972	0.802216587425434	1.5559911688620274	0.7248675208864076	-0.8260032513744727	-0.5518620596303944	0.4340967226989483	1.6969518618655108	0.7528471331662298	0.3356494597066895	0.2773276560457256	1.4466280900670976	3.0544130725038023	0.1008495238857374	0.6868605000320488	1.4955815039068199	2.0830132908682164	2.8691437171976366	0.05494851977661065	0.5454280362663592	1.126565215127498	2.3685295522018004	3.1150121610196275	-0.369244067928756	-1.1423827380901872	0.14819781444803345	1.1622823447446573	2.6313021116579924	-1.81840610045047	-0.9314519739475957	0.18225091649771588	-1.8597742272152271	-0.4151019741545287	0.09703775470791079
36	-0.4958316075204234	0.32024472871035015	1.2498592106734494	-0.30399635357398996	-0.7042796594004537	-0.7200955730377379	-0.4343394328118609	0.200068413706149	0.856302199585939	0.263730674316215	-0.1485550548855928	0.5681139812431097	1.554633851894629	-0.43792560586036283	0.45641171816987575	0.8893778301672566	1.275325056670861	2.285926813076246	-0.6482718570554401	0.20092625865275177	0.5217087851703913	1.6891509251862926	2.647575610152062	-0.8995147324739693	-1.6482740599025338	-0.49305856103389434	0.8051987270053071	2.0391862340941036	-2.6381506853253938	-1.6044235188984388	-0.24430532691786394	-2.686526053321544	-1.0822416516636597	-0.4047755886825534
40	-0.5666437730787919	0.027497673337772047	0.7203930598190608	-1.1498675317343148	-0.3453310123307902	-0.7526743989061068	-1.2808502880183001	-1.2662149635771014	0.5061594235038697	0.22075189594324252	-0.564327417379379	-0.436509101480852	-0.12611336974251505	-0.6396368725839857	0.12305412410423901	0.2096227700186202	0.22602683248674066	1.2877781358630527	-0.7528704981869228	-0.10803388776921377	-0.12220456420323911	0.6881996971874811	1.7613645747537265	-1.1304692001411398	-1.8228518916837522	-0.9704980229670559	0.20906540698673273	1.1283316583756016	-2.9062790797290012	-1.9421554754813555	-0.6098794325689366	-2.9281437323074653	-1.3940919602482615	-0.7423822861047908
44	-0.594760356831962	-0.15400637647369722	0.0062429266824161785	-1.5621577461856306	0.025657262588334052	-0.7584444265290206	-1.9417149971575773	-2.189558977321016	-0.22812949063401222	0.15533332487465912	-0.9119237042291386	-1.2796227899668948	-1.386810537651594	-0.5272025452654686	-0.24724279281659073	-0.36123689917913576	-0.6282949431768914	0.2404062890897259	-0.44637432581736436	-0.29776790662926605	-0.5761761054750743	-0.14699017964444944	0.7312005143778036	-1.053383824549934	-1.6036916930717342	-1.0612522336868677	-0.2399355614088007	0.2762448482691473	-2.48924803105351	-1.7459411577012973	-0.6465667469866555	-2.47331618638243	-1.2018786638432946	-0.7223396283032208
48	-0.7519984822360604	-0.3319621673785814	-0.7801237682673459	-1.5293527802955547	0.15861919482237966	-0.8699156619996885	-2.370903009150764	-2.381915324873083	-1.1158498497447007	-0.004153011821900908	-1.1936075657272753	-1.8161065532608411	-1.9266693543427809	-0.3002885274458086	-0.6145628079156937	-0.7302389722507147	-1.032744643464958	-0.6297314151123515	-0.2394082689201265	-0.3945325305037638	-0.7475457768640016	-0.5013614880301434	-0.16308224160028084	-0.84109723355606	-1.1491697997643355	-0.7562298159579823	-0.3144786051916593	-0.23800079464427634	-1.5861087997445447	-1.1065428229051004	-0.3178642384133208	-1.5410870274735702	-0.6306352599434436	-0.38769388100969243
52	-1.0407159302185143	-0.5351393805344316	-1.4359579050049258	-1.2170009582310788	-0.0727413965415234	-1.1295462818237678	-2.593998187191629	-1.9936685511798498	-1.8335572434862526	-0.27840498019499843	-1.4195830786149939	-2.053415531696117	-1.7998502209044234	-0.16861051278459602	-0.9542821621643386	-0.8991956688112921	-1.0133047078298352	-1.2665578094929837	-0.6074445232313647	-0.5064123856156577	-0.709758637543664	-0.3751919856135528	-0.7184743863085852	-0.72776317412693	-0.7567408661809962	-0.2689469747905634	-0.059163387715454915	-0.3417763701392949	-0.6385129078002939	-0.3738302877047746	0.1584979887775349	-0.5802369699133689	-0.01585777472426236	0.014999784491338321
56	-1.2676901785315677	-0.6780267340707703	-1.7242455438949895	-0.8329211452435729	-0.593911348273925	-1.4381561242986924	-2.6454865865672486	-1.3652313913208833	-2.0969049877630748	-0.5965120181281988	-1.5609283407855972	-2.089923614947449	-1.3118900027531648	-0.19712644765675302	-1.2369712559940742	-0.9244851446652586	-0.8196877816485965	-1.7021948056160066	-1.6439573723295091	-0.7423139791820508	-0.6385731084913651	-0.043796639778902795	-0.8609661438185485	-0.8619453885250911	-0.6980644446868365	0.08294233658830497	0.2638262205615487	-0.15853814740685093	-0.11235298933034582	0.026779659024814162	0.4430133689185776	-0.049222048247756535	0.27611350943471635	0.18857376229836448
60	-1.1667873829946969	-0.6189395769705004	-1.4872341118456807	-0.5137171732330181	-1.1689045399717735	-1.6016280610655307	-2.5330126221600557	-0.823985753363209	-1.804537649367015	-0.819382605868117	-1.5472985466992206	-2.0299227186450794	-0.8367215969895013	-0.26823171905506454	-1.4235118591607998	-0.8663780667365558	-0.7573098521185856	-1.957196826761739	-2.9437050745075566	-1.1317764492070532	-0.697890995170978	0.12702432242747863	-0.6542504413298964	-1.22273564029973	-1.0675299140680516	0.056468307829385576	0.35151162654820267	0.0962100771620688	-0.26925706795422444	-0.17046126680252158	0.28002622652879583	-0.1952587957220763	0.04131299991905972	-0.03810283159530312
64	-0.5925447329819652	-0.27182513406788844	-0.7591946701909142	-0.2915927164345145	-1.5285547933133166	-1.4490897618901062	-2.2524163666123895	-0.5454007969437656	-1.106734869070082	-0.8137042501886362	-1.3127303090330866	-1.9319765519001821	-0.6475742442947502	-0.18767709982694974	-1.477430459107066	-0.7575617413467703	-1.0110777590973594	-2.0001976439520615	-3.8050544165863984	-1.5873416622139662	-0.9366723871424233	-0.10053385023722333	-0.2606948309515348	-1.633267398525322	-1.7186146931172748	-0.3691616645075621	0.05530583099468551	0.2514773302881612	-1.0282853815819906	-0.9028839446160365	-0.3331603101425089	-0.9276388264123622	-0.6432260854693636	-0.5997217282412498
68	0.3358342937096713	0.2996979944291874	0.19683927247895025	-0.14392083846949003	-1.5173793992833042	-0.9516344642454557	-1.8306754781279277	-0.5368700013911156	-0.3481898895055791	-0.5350174890361736	-0.8589066841374688	-1.8085815860862362	-0.8301707485220013	0.13163769211912382	-1.385967251139441	-0.6036897882478635	-1.551189895528202	-1.7999020769452472	-3.6423544791767415	-1.9311619948267382	-1.2520905701496272	-0.7008164507338129	0.12504595486541115	-1.8545618010427791	-2.3204896391455994	-0.9556466912937365	-0.5147706257221186	0.2748739116404522	-1.9818390557797236	-1.7687880948231798	-1.1059806318969985	-1.8425235701771767	-1.431832905969015	-1.2060329883643612
72	1.2318918673884292	0.8654038884248064	0.960035083254245	-0.07366844993111625	-1.1845624416961569	-0.27827629376725327	-1.3705365623203674	-0.7239044886432031	0.0901837942707514	-0.0771055517634113	-0.3016419105066616	-1.6743575292275485	-1.301208254389936	0.5385674820653882	-1.182409760350884	-0.41722559823554706	-2.1757731382750114	-1.4239881002713528	-2.3673813283277463	-1.982675785780968	-1.4489195310250573	-1.4133917057592267	0.3373925379341002	-1.7177525715374202	-2.516390317285641	-1.3145126071166606	-1.0470640632896449	0.26810079745314597	-2.5761156017112654	-2.200833315061106	-1.5795253475364348	-2.4031603275660265	-1.8611472798088062	-1.4781708680025964
76	1.604354377510674	1.1097974749201986	1.110672351894003	-0.15387318989528287	-0.7665131072718938	0.2535806291853625	-1.0570585701003488	-1.0606023046418778	-0.025650514224975426	0.3485490074894442	0.14127591216658225	-1.596746321461462	-1.9009884547875626	0.6780916435287668	-0.9482319331070431	-0.2505278581016088	-2.650732272131397	-1.0736260387017083	-0.5012098538142177	-1.6549667078195966	-1.3560432161426652	-1.906206364587316	0.28414204644943464	-1.2051709859937958	-2.092911238154628	-1.103145358161481	-1.2069468467757503	0.381563245286798	-2.3562152326222954	-1.7330458120459886	-1.34744250434187	-2.1758649294277337	-1.5563896855159893	-1.1302285165861445
80	1.0991660328770332	0.7694274763708284	0.40667766229950103	-0.5031210767441152	-0.5720478877883535	0.3135633162687993	-1.1066307993605669	-1.580317016426343	-0.6716717464655078	0.4983250188166946	0.22698800208480072	-1.6988644557022345	-2.5022475656276226	0.18927086841957505	-0.7886245230791049	-0.19781811485414155	-2.849757187324098	-1.00396668657503	1.0676761838659612	-1.0082119677837942	-0.9328500008872729	-1.9669858167577763	-0.03345571822421964	-0.4387004066358419	-1.075378176835102	-0.2068868274233702	-0.8293184021038652	0.707295296790606	-1.1630959481437873	-0.2297197276514435	-0.2582686834967227	-1.0143551800867043	-0.3976144184564167	-0.10472873571895709
84	-0.3147685519854372	-0.24572177169273016	-1.109668371259941	-1.2097419469807904	-0.8342593887246912	-0.29314067885774553	-1.687202210934926	-2.363652223341434	-1.5908112485775818	0.2037407899719397	-0.20965604431148205	-2.114670509721395	-3.079920522543162	-1.0407131884048615	-0.7951747755001587	-0.3648239960996294	-2.8247497010438516	-1.3776483500984325	1.551856990710844	-0.2373441302744438	-0.3133318118290762	-1.6233575303099856	-0.5324904309180115	0.394786744313089	0.28334233093250233	1.17736673057846	-0.0256032905826262	1.2082859247218933	0.7892831544022101	2.024750942840266	1.4926308355793088	0.8719239212910354	1.415109273198738	1.3909227812935554
88	-2.317635291923802	-1.805709119052473	-3.127438298912449	-2.2537610473951273	-1.6046583611982608	-1.534802552162899	-2.8423366474868756	-3.448950281972169	-2.4426636634190486	-0.5513538108256778	-1.1746610373403572	-2.915593139916667	-3.70347427386801	-2.727326386241604	-1.011115190814184	-0.8166254142170581	-2.7664387156258874	-2.1437773650403633	0.7089026552422057	0.4052886356611623	0.24186980663268462	-1.1242530317532087	-1.0841574641511933	1.1422314615021292	1.614208217360063	2.604481452088257	0.8583589770580106	1.728361721443496	2.9980962200764085	4.4239945299987005	3.429750672264174	3.00180482106497	3.4309816273849676	2.9650835916044596
92	-4.380279053119326	-3.607718458603789	-5.194639669654571	-3.4810686023561663	-2.7377645900268957	-3.161463014250129	-4.45338248082172	-4.753516185203115	-2.988817684256939	-1.619226570809612	-2.49632238711475	-4.049474705962583	-4.461218822659845	-4.2645673644161075	-1.4135525190904248	-1.5323665103370792	-2.8838272021916924	-3.0322115344739182	-0.9952566598559929	0.7154595833834575	0.4621543574585844	-0.8004963973815593	-1.559822078581359	1.7486375526148388	2.5842921668609096	3.5614561944688807	1.4080444538806374	2.072999948989811	4.8725833769801365	6.27675579393665	4.9866223209366005	4.81456660008804	5.117028223469906	4.196545113458697
96	-5.999289497487528	-5.289858804698589	-6.890205842741842	-4.642068374357785	-3.9621300597292493	-4.802927005085689	-6.259253486088994	-6.063305839488987	-3.200385324027348	-2.7419705321702073	-3.877870073064544	-5.330975995909476	-5.362563119700575	-5.004858004331721	-1.9152558993621365	-2.3917772709541407	-3.277856580087855	-3.6874256040934656	-2.6195404463434495	0.6245148762194246	0.19576030920195023	-0.8860896803418792	-1.8710955334152812	2.2566325607545767	3.0208930892968064	3.682379474879521	1.3406556810863002	2.1137208885232313	5.965102657516468	7.076053124682291	5.728862747987184	5.887918934261631	6.055874809234312	4.793676364239904
100	-6.902015668609242	-6.5540079905022814	-7.959267596176754	-5.4773011069292	-4.99718474080129	-6.106196864923911	-7.92598245526958	-7.098369580467011	-3.2297720827574747	-3.6466383841952226	-4.999693381084263	-6.493755801018173	-6.27141521777826	-4.5870380285799754	-2.3875367581169464	-3.206115714561586	-3.8805723092332585	-3.869045009381381	-3.2330796636969996	0.22617940547581927	-0.5152694569929844	-1.3986923659297008	-1.9927283475155364	2.749085419389793	2.9549457952280775	2.896728746730042	0.6358481629530484	1.8557773781652596	6.131251319664122	6.679607374493035	5.510086999332996	6.0868887747626985	6.090532764316486	4.691185939388804
104	-7.117928010135649	-7.247642021954149	-8.36161515985819	-5.808889851209207	-5.657659039518275	-6.8537697619012174	-9.146782851967629	-7.626973609741546	-3.273489705404056	-4.140575398481599	-5.630455956548626	-7.289025765135797	-6.932413560530786	-3.1292891423373415	-2.6991698673765354	-3.7862100505603675	-4.4961542969673935	-3.6034915356255692	-2.398089879657075	-0.2721285217090292	-1.4547504149901331	-2.1444959586359613	-1.970108146461807	3.274406186419809	2.5713679725576024	1.441619988616424	-0.4713398206254721	1.4275461399275917	5.552247510243397	5.326523290537417	4.4953193551054875	5.583169446200483	5.358839498341569	4.04827069214116
108	-6.909940702158569	-7.3879065327084135	-8.23338220424933	-5.6043119289046714	-5.908035263403957	-7.020626050389858	-9.737501119824353	-7.570993404346993	-3.425189963276055	-4.174982537219192	-5.704225525759348	-7.582876663136571	-7.09294174310889	-1.1849290102606	-2.7644340922178627	-4.019600381239424	-4.912132727618809	-3.191226951171442	-0.4105562259322104	-0.6523317082147762	-2.337077134907553	-2.836072437755377	-1.9099825572428821	3.7956161403193343	2.0986165947381235	-0.2614700787618486	-1.6232917267823197	0.997202751502996	4.618389594815517	3.4976248652843362	3.0540096682689812	4.744568812789182	4.208847512109277	3.1552185932606456
112	-6.617550356369684	-7.129836064457391	-7.799019317009808	-4.992986666471069	-5.855482563493916	-6.756983739959299	-9.693514799439802	-7.051320535023055	-3.6258923915870787	-3.8608579538142824	-5.337115274305841	-7.409855347045087	-6.658335668919299	0.5198501335370529	-2.589482062477689	-3.9238610168571193	-5.020440088948142	-3.0511619967673815	1.8532967520652603	-0.7983062247148172	-2.9459838792808557	-3.2554781354727242	-1.9477051447330909	4.189595211895433	1.6917542176449298	-1.8018072798060374	-2.52253698665794	0.6676698906253917	3.7340285683770493	1.6952214198227606	1.5847579200787658	3.9507348437698604	3.038191549259846	2.298096174160023
116	-6.495655997088814	-6.701238615283147	-7.2865662390799955	-4.23050736312881	-5.693136677673331	-6.315902694014816	-9.192067123093532	-6.352505667860391	-3.73355173122005	-3.4303834351715117	-4.780485617965835	-6.96359632641275	-5.797889694834392	1.4140956366122468	-2.2925593795115264	-3.649883976304338	-4.884746539180872	-3.4898803145989334	3.3799879465597344	-0.7625510673343872	-3.2366442598641476	-3.373018017835877	-2.200443500685259	4.290190685884618	1.3616929019880812	-2.9496543332968574	-3.0669941824726483	0.41147804156365686	3.1321232239799666	0.24706986484137275	0.35768049865062396	3.4182803544525573	2.1281971877725705	1.6432278114793004
120	-6.628953440142164	-6.330954058875497	-6.880469781670231	-3.623341312797133	-5.624893651112229	-5.960269912930281	-8.538281419177775	-5.822798237404561	-3.662793388655778	-3.158720485341648	-4.329964626824238	-6.528776629176824	-4.925492751083613	1.2931339708104679	-2.0817317910087807	-3.429112187310952	-4.718854415423684	-4.529724109657296	3.5001172931039712	-0.7519578914730709	-3.3495602523158783	-3.3596708689743116	-2.7245056560393754	3.951803674257274	0.9790698861198525	-3.7237899209419623	-3.371606579851159	0.07942618409607613	2.780306809081474	-0.784137187408519	-0.5606942758709126	3.111923448335165	1.5418186148816964	1.185406205045467
124	-6.935453874243812	-6.178601726191301	-6.697672827023107	-3.4232218179105405	-5.786497101479366	-5.870007023296112	-8.056696871443464	-5.739083275610305	-3.4835016639497547	-3.2597086347296216	-4.212762822005398	-6.371232493527222	-4.531314361575888	0.3298576763884876	-2.177089685665486	-3.4743916900652847	-4.782841670358567	-5.888031467830682	2.1743316595494027	-1.0257289383740285	-3.521313181569744	-3.4858462722507197	-3.4856188209268315	3.1099960725465743	0.35519057422606326	-4.324060905983431	-3.670005312236813	-0.5136893974686229	2.4279971061440664	-1.552104230776748	-1.2719297376944478	2.7894089151528543	1.135717031472495	0.7857549766729282
128	-7.231249791007986	-6.279725058913285	-6.770063860012945	-3.7230939771113216	-6.182655795700109	-6.07258699791282	-7.960303763318913	-6.1832547031693	-3.389914980912723	-3.7851376437942763	-4.488479602925491	-6.621876223057981	-4.931091772981098	-1.0750552388705243	-2.697757475717504	-3.86984442687509	-5.240489946485831	-7.112933140916081	-0.04504631075810852	-1.7476483539326437	-3.9338920017103334	-3.9568326373335663	-4.356653679338642	1.8144231988873445	-0.6379227026092181	-4.969169604153271	-4.153059948926153	-1.4710110388809639	1.7651916697758023	-2.278662914245098	-1.9299828957467684	2.152548784543364	0.6749064905293013	0.2777819626470566
132	-7.310429077764865	-6.521529181227593	-7.0251025976197665	-4.394882191052426	-6.6603627036737025	-6.417671664247376	-8.247858980335826	-6.983389359962631	-3.552760115236686	-4.570221889401241	-5.0026173465309824	-7.201691132482761	-6.066691860140839	-2.4976391729238037	-3.5666437058998754	-4.501009452899959	-6.050645812970658	-7.788076381093833	-2.3279633463258267	-2.866890900049394	-4.5832280996955514	-4.774476039276173	-5.15373943935012	0.225875302578943	-1.9674065063395387	-5.733509526082141	-4.837772834007722	-2.7344529559715363	0.6089041217689393	-3.094019643601315	-2.618381016796206	1.0251448128567044	-0.014558905698854213	-0.4204248179311441
136	-7.002670747243052	-6.662752134667426	-7.2730030829863095	-5.10524319313467	-6.929997903493428	-6.606618864545477	-8.678100564027403	-7.753294448350839	-3.949143161339797	-5.255796419225507	-5.417057500513918	-7.822108725826025	-7.477773170665115	-3.629548302069792	-4.487201202507576	-5.0640597215589604	-6.948099595647432	-7.69550846064273	-3.9627678294267357	-4.091126431626465	-5.239332185868638	-5.700665459545192	-5.692875847748452	-1.4154387676742244	-3.409391156171778	-6.471822722307679	-5.539119229636895	-4.08643959921032	-0.9744666194154712	-3.9477834601866135	-3.2857503808033988	-0.5293084369647111	-0.931685504945236	-1.242493387899993
140	-6.207210525099784	-6.4050936537200505	-7.22895143591125	-5.427008615143335	-6.648482305907067	-6.282712443701885	-8.842477776136803	-8.02459237933702	-4.299381245248622	-5.402117715547975	-5.321800695334497	-8.067673662797587	-8.48170564417413	-4.303071011169481	-5.0300340525469664	-5.16674088127286	-7.524430732803176	-6.882382375506956	-4.628583419557847	-4.983702647024294	-5.531312451702503	-6.345949156951652	-5.85437105608095	-2.8482925819963745	-4.616218078402543	-6.878804666317991	-5.962403759207852	-5.240447984816016	-2.680971854116817	-4.638225066872371	-3.77670716285853	-2.2183394376060184	-1.8917711925427676	-1.9998949715666563
144	-4.916469561561717	-5.5063233236528015	-6.597568018468475	-5.012824522713708	-5.550497994714367	-5.166007982562553	-8.32798764987229	-7.43258951217934	-4.180166233952931	-4.664075362827613	-4.398655403475762	-7.549657325757063	-8.489362695241224	-4.44092272590933	-4.808358657141067	-4.491269577131093	-7.3877129368226715	-5.616984353189083	-4.430652607221881	-5.149069773071626	-5.124320494111895	-6.347078307339426	-5.634911999780783	-3.855007161897902	-5.253917203989773	-6.6535763572552895	-5.866953358142689	-5.977215751815719	-4.103413094650864	-4.934589850364844	-3.9355273147402623	-3.6487626937296542	-2.6241254740265756	-2.4834933218242647
148	-3.2281289019144555	-3.8909521004668175	-5.200413690788674	-3.759964456601973	-3.5813681988894333	-3.18567036778093	-6.907816392624137	-5.885197624606636	-3.266276112892972	-2.9564199372989406	-2.5727574760330985	-6.076326354898009	-7.291179638573963	-4.015061845179106	-3.666037788672001	-2.9498696252732426	-6.335315211513412	-4.260644901962633	-3.7301745320556035	-4.420083034799836	-3.8999540707352276	-5.544942841835326	-5.147140489934407	-4.316067207883496	-5.147278772709937	-5.676920399638101	-5.20703123685351	-6.24858044000388	-4.919229971863586	-4.718249785908609	-3.7160134221670402	-4.506507385320161	-2.9212093279518037	-2.5821843082083946
152	-1.3386977877196613	-1.7112200216958202	-3.0918958109040404	-1.8845934820277475	-0.9747302507586472	-0.5544592724152799	-4.673027503613117	-3.634691467645186	-1.5637594421959908	-0.5333592878227088	-0.08385311045933465	-3.766677608516787	-5.16251562722469	-3.0697131079418583	-1.786059732696138	-0.7600467781904718	-4.462361801325172	-3.132293931682172	-2.910202019019634	-2.955920927214141	-2.0475180097383507	-4.075349797449989	-4.570208537960844	-4.246101845511313	-4.36510132641204	-4.10454367555011	-4.173538197470641	-6.1972441516813435	-5.03717468897303	-4.063710202447638	-3.233299247207798	-4.697686183513017	-2.7589909960707164	-2.354967588201007
156	0.49017730231504886	0.6769518835142495	-0.5968422874640653	0.1460452076085662	1.7773270562121435	2.2613859119541235	-2.037484402280773	-1.2086728780747982	0.5217052088917138	2.0715851731449946	2.5679423744217202	-1.0510761711286365	-2.736771099810288	-1.7740501120599554	0.3513715556333341	1.6075897176209137	-2.1566848700431756	-2.4230785308696197	-2.214424366128476	-1.1919187277264733	-0.010917999754102887	-2.3265201986701687	-4.078792084886366	-3.7917346858613605	-3.1972336688381615	-2.319921249254456	-3.1119339387526193	-6.083437427420338	-4.625182616954128	-3.2117698111507043	-2.7225439479754803	-4.376178730406289	-2.3180630148536303	-2.010781759907395
160	2.005474323931415	2.831824533942249	1.7784571602742316	1.8065266563581481	4.0816812412206245	4.6923589587950225	0.41043728486386144	0.790655789763277	2.3507082402961115	4.244673241388943	4.802950370106382	1.468846555816055	-0.7042415720325383	-0.42820292603147087	2.164436573285933	3.6074168591019866	0.03663007160713725	-2.162119144702917	-1.7191920237051117	0.3501194408636988	1.6992074208274064	-0.7719950656473353	-3.7764887714406243	-3.183334342548791	-2.0222477861845984	-0.759861467350333	-2.3514079988240075	-6.154255374629235	-4.003678311730063	-2.443662637262962	-2.418884748073811	-3.8422770403174935	-1.8873177719149734	-1.801039691192558
164	3.05138634864975	4.388576019651111	3.5359823614490895	2.742897980440571	5.474182591922426	6.283237918248898	2.1523878520028767	1.9344180773533075	3.363800040335346	5.546741948428684	6.198545917119952	3.2555124677480283	0.5003879653694848	0.6318392737648666	3.2303302206497424	4.849553572808545	1.6310037333317575	-2.2309362832010455	-1.4038037026248649	1.3025321927563442	2.7406430175251217	0.2431730621874081	-3.663851013470002	-2.652322285631411	-1.1280417413841461	0.29803767725083835	-2.0341410585544732	-6.5230569674786185	-3.464658251598038	-1.924801106361658	-2.4221355853916533	-3.3706095133558738	-1.7013627247770429	-1.8797306967006695
168	3.6262872127530743	5.193591581583487	4.391393173574663	2.9215631411222973	5.818224892231781	6.880362970147064	2.963865272668327	2.1434748118642473	3.368672839242721	5.901078209283338	6.669657690375089	4.060390938997766	0.8569918253242492	1.2038087814455383	3.478687277594112	5.271879182856777	2.39631413808441	-2.420951360312246	-1.230133172744127	1.619029398645193	3.1000626008919663	0.6535164697359853	-3.662768593123614	-2.3431708753554243	-0.579659818139466	0.8677186347988145	-2.0416309781980386	-7.125990849623348	-3.1215467374191452	-1.6123324591937171	-2.6295087271105184	-3.068337194325337	-1.8093198492145603	-2.215625518926957
172	3.8755395314597103	5.34973572334014	4.395169723858097	2.620341055930051	5.377053724064625	6.700898630390207	3.011201850917954	1.7041246847996716	2.6370086603343807	5.624202237234581	6.50600622441864	4.034342278785212	0.691054759665014	1.3471200432144494	3.220744840119744	5.170105921089804	2.450051539911016	-2.510700457909748	-1.1645635337037417	1.5880130489310211	3.0991752069427907	0.6907948238098047	-3.6751394179062236	-2.25179504779682	-0.1968361879385909	1.2390150992582623	-2.05451154190148	-7.770136813573209	-2.864485256592333	-1.276595946903553	-2.774956696179943	-2.8329739499091957	-2.0447294660442195	-2.6047892504731
176	4.017348756184074	5.150290953030701	3.898863067320013	2.2668611946093673	4.709593284160445	6.238505347713644	2.765634529760608	1.1126061649842134	1.7490858987517073	5.2764115200340544	6.238206370816205	3.6592600253224137	0.43622636684907373	1.383735414826106	2.9936623497720514	5.062459932897228	2.195096487225248	-2.3653128087406836	-1.132904884339092	1.6846270518685518	3.2393491186372256	0.7593974451919282	-3.644079199173608	-2.214654678475307	0.348005979374589	1.8217706634302564	-1.715471859415493	-8.240295389351504	-2.438944572013033	-0.6261768325255008	-2.5579986507682366	-2.4267237125163	-2.113598102955304	-2.776024334574464
180	4.237831105023162	4.93598746007201	3.3809628401272196	2.2186486665023324	4.427357662467016	6.039266094218871	2.76776670710813	0.8279082754213292	1.2812910047606567	5.4011020524035676	6.38852308567717	3.519928923302975	0.3780932714929923	1.7355462268880035	3.298449507968602	5.446537957745395	2.1254999583940046	-2.0141010233572665	-0.976804611600883	2.336578840078489	3.958008756181305	1.228252050159765	-3.581987133519218	-1.9648624608976586	1.3598718608855012	2.9304830953997034	-0.8136472681483748	-8.404051759482492	-1.6011632640467457	0.5287007080081155	-1.7976852610023577	-1.6230275589973422	-1.7543553069644164	-2.533599131863165
184	4.6086969259251935	4.945977198511143	3.21996521136805	2.6026344233606205	4.923830973591471	6.453962309755116	3.359925023178992	1.0575193140032992	1.5221955737782855	6.281600459451763	7.2278837975167285	4.023760785434242	0.5270962701841024	2.672060959745394	4.367926109730103	6.567828638660747	2.5922834807750594	-1.6503643947895292	-0.46498089911366425	3.7254688645717566	5.42199610294896	2.247569555330071	-3.542068234083871	-1.2367190091380216	2.9687108918577527	4.6267313840400615	0.6103978141632393	-8.252982118750625	-0.2592344873559023	2.1672043745637355	-0.5246494995222502	-0.33849456820857	-0.8767412878789093	-1.8541268063463068
188	5.0632719865755975	5.223856435938227	3.5208663851536355	3.288316003126633	6.19709537848836	7.47603080769344	4.5095090752234706	1.677889462049442	2.3700685441260156	7.824708918843142	8.649497010327647	5.1959652769510285	0.6709583980786369	4.120344628421592	6.0722460593455665	8.304265001311578	3.6344447044164383	-1.5467144211818966	0.5980826005140649	5.711752400282581	7.451130371354941	3.6742374804237596	-3.5652952104198814	0.11728393256855252	5.063921915620588	6.691769106182299	2.283178800540459	-7.875835398816599	1.473208185291127	4.0563630955325936	1.0296444866887275	1.3182485070324603	0.39120730658942965	-0.8922209121112198
192	5.436824308020165	5.619863972780202	4.085535992797806	3.9950680631861277	7.850700358596856	8.745040871475581	5.8177742811184165	2.3273811281571306	3.4493479641611065	9.619232153448149	10.220081303542479	6.659959776276038	0.557640074275688	5.657640919706308	7.998846033882003	10.221257183971638	4.962268816817179	-1.9057011556194754	2.218535417677545	7.909353236256389	9.60344312150559	5.141482340229454	-3.63390897787055	2.0349764772535357	7.338983040400293	8.734558083416111	3.8266851805393545	-7.387511711542418	3.3270170604630045	5.852826103692273	2.5364024575091633	3.0936987321946545	1.7657300189260545	0.10065074239591335
196	5.546304211918558	5.879504665789223	4.535897243491808	4.457444656562196	9.27163407845905	9.71455094745798	6.7123570272728985	2.612658017237901	4.357158649887904	11.131035776645371	11.381483049267448	7.817247371010418	0.08206871876261833	6.708605272521629	9.65306279606293	11.767517060133626	6.100920661781714	-2.7126586368737295	4.13234709650042	9.860471700568569	11.372840852633994	6.233030303476978	-3.6674840357691796	4.2272615326011165	9.415441489289819	10.369934055849683	4.924975382768269	-6.863726121739361	4.9957437389128385	7.249832135016246	3.7075512315603536	4.698900687751895	2.939273111551827	0.8934999681802256
200	5.265406595287669	5.766876206143162	4.516989219705318	4.549001205403304	9.897408460424044	9.9009685266382	6.723934156607682	2.3119864405434107	4.870748507600003	11.930205315032936	11.70005318548706	8.134847620452694	-0.6422564967152502	6.842030031095896	10.66636178184688	12.512007681728088	6.61869190452354	-3.6793064978212398	5.856561645980205	11.213896723091441	12.395434348282173	6.67055843576466	-3.5745196252220315	6.249763472990395	10.977525683343982	11.368455858138228	5.442825780478157	-6.3244404633108875	6.250880702449244	8.088477114283148	4.394324291578737	5.915146335926287	3.7049918081201603	1.3613963092764279
204	4.564502704540192	5.167577253646237	3.873707046265362	4.298103321667863	9.44678208827075	9.097259498516003	5.713013157725687	1.4682855569008455	4.992464052946998	11.842072456979082	11.045442553289696	7.4006228260112685	-1.3603612150178717	5.998254284019682	10.90974518882517	12.310460059556283	6.328743441815648	-4.335461605570125	6.876976949495212	11.824250191399079	12.56859966919507	6.425087435713028	-3.321143380363088	7.645823936232039	11.857498139008008	11.708685845377374	5.4469108444021686	-5.761730179544826	7.0000114264184665	8.383487680249743	4.606446731381315	6.646950228121629	4.014204968807978	1.5039241275963893
208	3.511864653303804	4.130464543404587	2.7127540043051295	3.81377958288517	8.012786845004033	7.4528226664251305	3.9330854316592694	0.33388158594711487	4.838395106497606	10.967329951253024	9.620042776615048	5.816202625848947	-1.844380016438664	4.510162818965717	10.477952930699033	11.32982918739835	5.361693845563366	-4.255018700347199	6.876326066775908	11.743536919508134	12.038220375185029	5.701133713633364	-2.9736859723353044	8.104229906601775	12.045525520430257	11.521652192590311	5.130621420304482	-5.183914171482187	7.269367676501347	8.262506464124527	4.4558839685473375	6.906748754229616	3.9470205207354145	1.3992255890805152
212	2.2567384186034305	2.8498158382944085	1.3411992754452793	3.1956908622166904	6.003083213908614	5.40423201150211	1.9166232299098318	-0.7772984485074808	4.481699932227276	9.599296545588325	7.852955321512305	3.896855821307625	-2.030193562150255	2.9193813727104474	9.59294412098278	9.947619413056062	4.0908470050524635	-3.297289363165623	5.892233833695317	11.147272081841194	11.093106241829025	4.825960623954536	-2.6707720689100247	7.583772640154573	11.653692216060653	10.989239664942826	4.70799874070744	-4.628179061648711	7.152048092904728	7.877794722694709	4.08161686820443	6.771541578362485	3.63979958568954	1.144441363306242
216	1.00302278742275	1.6006109674096514	0.12182424931762934	2.4887230333436534	3.9674615759816576	3.497610798588205	0.24597725210075364	-1.6417304235970336	3.8791775605490355	8.095909098212138	6.220550998241151	2.2352678719352266	-2.0361790605634877	1.7053648190357373	8.496466615206199	8.586280801075631	2.9533681794941455	-1.7242121652939995	4.323202122263675	10.250534031737077	10.033026669920508	4.105696190958576	-2.5360469754086203	6.3475270111041615	10.86840436098765	10.26331422121897	4.335629452249389	-4.129201878612854	6.765314561929232	7.347932320162854	3.6036360172841397	6.349697573842822	3.2226989187891264	0.8255733230727933
220	-0.017704285636548685	0.6587472541389776	-0.6707407815211114	1.7180186466710259	2.403313392293423	2.1923508588752467	-0.6722902042581358	-2.1900515501041964	2.9456367418305605	6.776588422832165	5.085679995094463	1.2561806408637881	-2.055249685820515	1.0976538630428994	7.396081905765165	7.569776515922332	2.2678534927330825	-0.11495558143440876	2.776636355065473	9.26306912944503	9.081978774982806	3.724364986553303	-2.5801541740124705	4.88686512666942	9.919983838785015	9.45138070581285	4.0988836184965285	-3.6633920577063908	6.244875415293996	6.761421186542334	3.127641669959909	5.779771790217049	2.8045375276329687	0.5308553563066613
224	-0.5881664142063983	0.2289165252628006	-0.9277363992156131	0.96033620591889	1.6178895194213863	1.7245253280968589	-0.7324134688959204	-2.469642632924908	1.7185926393987636	5.872555717900273	4.614284503730911	1.0733039352021554	-2.2072586957516704	1.0535010072812667	6.469108088372883	7.053801518750921	2.1297089999788366	0.9022701359856893	1.8184282733782704	8.383066156202956	8.368537881703505	3.718350639492072	-2.6562597684553317	3.751142253941752	9.061220146190001	8.652578332036176	4.043836583418224	-3.118593208068692	5.75447414852677	6.21629093508052	2.7723336149792903	5.237993227131784	2.490164750487841	0.37597271705117213
228	-0.571331439959962	0.38986048003948537	-0.7028342467682998	0.374283581027147	1.674646969381847	2.064273590598147	-0.11521504045246096	-2.5552675659515236	0.46862172962128723	5.510402188693773	4.773873317109726	1.5008075199382422	-2.4466302333095467	1.3804798091366939	5.876738056604313	7.029464703931995	2.4183175502755607	0.9670144295119535	1.7421913102986555	7.792269210215327	7.947062472306201	4.011537541751724	-2.5167236264583837	3.3390059386828574	8.528470017835359	7.989770392272837	4.205588330141188	-2.3317613542813254	5.473038659582785	5.841743931326453	2.6713173321990533	4.917043196661587	2.3899285732964546	0.49536082023485356
232	0.02216807002192712	1.0673736306898451	-0.15422227939768976	0.15049317441137733	2.4190809665639166	2.964643709327128	0.8363131263598869	-2.4750127729870335	-0.3573050489941317	5.70439051141567	5.388017640815509	2.191247219275372	-2.5918190413841424	1.902851099932091	5.746467098986439	7.372939568024521	2.8937454150572766	0.16084298450869017	2.4694917139647177	7.62557456952291	7.822984675683433	4.474211204676603	-1.9610637376864244	3.7393894101146135	8.477020242269456	7.596045951738575	4.59950970442129	-1.190684077117713	5.538721547447957	5.76674459908783	2.925983898404837	4.961376177659276	2.5907587939655548	0.9829020475367214
236	1.0009901498317515	2.0460050054391923	0.5262926207606249	0.398804812616543	3.55184577998814	4.063603867761627	1.77355360537023	-2.2086095754174493	-0.35449534565115837	6.346641524503614	6.206328376359336	2.809911959229507	-2.4551045832637373	2.5478894646212744	6.11502264386281	7.902002791481245	3.3165256893347075	-1.0451463434534833	3.6032409576995663	7.915173033757564	7.955668429315724	4.967100607729052	-0.9881660317267698	4.690356719572782	8.90795991555888	7.550967674264497	5.17857931736968	0.25725588137525635	5.964352592668508	6.04148624802186	3.528499117525722	5.379828916318361	3.0909199636622415	1.8084984972116291
240	2.029378885867522	3.0254852695372874	1.1637184590522498	1.0428633663550602	4.716015803828068	4.999104487195369	2.4604961809979273	-1.7521421865094937	0.5779897556017208	7.20973823634428	6.967514497331813	3.161224595671629	-1.9892648408256726	3.298745147005942	6.868585092369183	8.421333291726459	3.5332813173732673	-2.047233099537044	4.592603195039313	8.545182206513868	8.24678418938395	5.359881387529612	0.14046870136558837	5.684599385214416	9.633635496612467	7.810645560571763	5.796674236921201	1.7625535682047042	6.583172304698667	6.566127283684573	4.310975063883901	5.994781955842414	3.7470691109466645	2.7702276636754033
244	2.741654389135117	3.7129642869666086	1.6213583905292663	1.8043045952065317	5.584778771605356	5.508618340889439	2.8117146421015424	-1.192019697994468	2.109473699965839	7.9929728306192445	7.455517273199334	3.2179262556847212	-1.3601020540230426	4.086583604031733	7.741890410904045	8.761567093662862	3.50057672570474	-2.437463754221972	4.952054488077098	9.267188048807188	8.546771981595302	5.541443810777266	0.9827631091101008	6.188755496612443	10.327065441761139	8.194952944092448	6.227901919853451	2.944070093351239	7.082300168276138	7.093406659336964	4.977304446051678	6.483714564166083	4.290723312988987	3.537846794732957
248	2.893833629931321	3.9277889629379006	1.8140499546027034	2.3142158926709606	5.94322107721893	5.496596799324331	2.864517681519009	-0.716754732706512	3.5947344212372783	8.423089006138529	7.554301242829078	3.068928949237173	-0.8782842733143141	4.728346335870911	8.409624078499185	8.822390534061054	3.261287442556446	-2.2107860986205723	4.452280986989051	9.795533155505472	8.703551270445079	5.444791303239308	1.1232238979591151	5.890911564258958	10.65781590631914	8.463308312982786	6.259473308018371	3.457805147977645	7.138066750624354	7.331358414259875	5.228211866530258	6.521891577466912	4.43536900354176	3.7910861873278416
252	2.4734113153952513	3.6735961344475956	1.7250806049661844	2.3002550543883373	5.747445091995444	5.057027327167536	2.726207726271284	-0.5424041138306039	4.386253345859369	8.371355035627056	7.291628342338699	2.8420319485435535	-0.8335131385739873	4.971054064597732	8.634077050344606	8.613903977580597	2.9115562365455117	-1.7302422479814117	3.2116696753477343	9.941612218552185	8.640806176304178	5.089952456021176	0.4038756479556843	4.858842837464047	10.455528232879672	8.4484166885697	5.820131287185464	3.182874433110865	6.594269259016354	7.1031222164108225	4.924719798052117	5.962071403709424	4.0315408604878415	3.3905670557249192
256	1.7084456639071093	3.1399428765175967	1.4220668041565137	1.7453384355348502	5.142701612839901	4.443339336621002	2.5279664929461116	-0.7864156941585952	4.176705826704588	7.927333811772516	6.848949415081112	2.651921504000953	-1.324499365323563	4.639093864172423	8.391736009391517	8.273959138961336	2.5822882587086204	-1.4741519652341177	1.6672818618641263	9.716190313603743	8.422332742407528	4.619856822747604	-0.9435888505000524	3.5352764040381524	9.81562230492985	8.172715166438632	5.069145666675515	2.3220326841856487	5.5878033496922015	6.476403220037814	4.199615467912615	4.955234515077126	3.1868021407730676	2.4881417688492715
260	0.9623189544223374	2.618227475231652	1.0477898094425977	0.9114466286535609	4.413175571743545	3.977746953458131	2.3913104473774385	-1.3727483714731084	3.16072391665678	7.365984421252531	6.504503233699778	2.5824539596206777	-2.1807904188409575	3.7684090042338507	7.888542155376315	8.026851633786881	2.423278802475559	-1.7197378830405865	0.43380474934725316	9.323778128925543	8.243269899536866	4.28302859178649	-2.3562197625752868	2.5506710941766295	9.067289329524288	7.859410266106604	4.370541561536244	1.3425753082710898	4.523463237785896	5.765296921479181	3.4311983498728233	3.9171452423379423	2.257372135185083	1.4915168247712693
264	0.5566941485654907	2.3612656533706526	0.769286272967712	0.19974949905508346	3.863477935573415	3.918414582849874	2.40133714069624	-2.0420954175889556	1.9049433421677142	7.002001744711782	6.511713965187921	2.689324372177394	-3.0331168098164816	2.619003527704668	7.4349951556364005	8.079908350571872	2.5742816860054463	-2.340981239130484	0.06219136326704463	9.03417489631932	8.329523065517828	4.3444628605828	-3.174826852412189	2.4230980811930563	8.59817025874825	7.810651759454805	4.1403126612080925	0.7730515579733118	3.8833873173896034	5.379268632658887	3.0707015913683176	3.3315982734488747	1.6897807078613993	0.8814107753434689
268	0.6212815626671021	2.4585540232574696	0.7016764861511057	-0.07094112765759512	3.683016052484115	4.3396887669669235	2.583383315239669	-2.466459268064781	1.012594101256617	7.009938222352877	6.966463548237786	3.0014257355251557	-3.49121402812706	1.551064368146622	7.25369451598794	8.504898049816259	3.1169524114114573	-2.849290602165974	0.7935194353096359	9.004934288177813	8.79409501716472	4.956087099913841	-2.9440708086069747	3.290114871301413	8.626711823617596	8.215438822031448	4.635715472915084	0.9540539955847145	3.962626685628264	5.59260414618887	3.4066927347003193	3.485373249790977	1.7854939654093585	0.9702156757654677
272	1.0401527855360981	2.785995476364475	0.8395093062186081	0.15024256668305191	3.8517281911877967	5.079161154321127	2.8837070392281285	-2.419769281000045	0.7669205646225496	7.306600075394161	7.731057624371337	3.504699698182734	-3.3348452960694606	0.8276419022645005	7.326396446804141	9.168077445724899	4.020559777599306	-2.6782727173896226	2.413811439141918	9.155582404862892	9.531332945601225	6.051531776408362	-1.6375158983848959	4.806638705515771	9.04824254612511	8.996974922353182	5.797637924815496	1.8681551170866455	4.675764072057135	6.361427291067846	4.391904343006966	4.279576767606972	2.5154352124601718	1.729281778737926
276	1.5242871007581735	3.068162433507297	1.0454914543458615	0.6097906812530901	4.148645867363811	5.798293099069213	3.1795933166335533	-1.9032946776973894	0.9757479404609728	7.581788997581456	8.478763558915446	4.131210316718134	-2.611075156295242	0.48035675165968283	7.388822536887009	9.7709207288098	5.127370344568062	-1.533577676715857	4.28975342621165	9.188759780572584	10.232974980267738	7.342092972338241	0.32099366107006205	6.282221301430176	9.463021254489515	9.80972859766934	7.250353318028846	3.1491136471395844	5.568211541422574	7.312348824158944	5.64527939324826	5.247614847285714	3.508319845878672	2.7941391397502864
280	1.7720687344633343	3.0270793361531356	1.1128441067255561	0.895529923562216	4.272250641526837	6.140690788024078	3.3267617141654315	-1.146817800487437	1.121442434340566	7.477336864666461	8.852221466602925	4.76958225953389	-1.5977929790210752	0.33321082507882854	7.093699914188518	9.997416471035805	6.198426230993545	0.37934949898310677	5.604128346599227	8.763828255461352	10.536639186959555	8.43279168860915	2.246290678074999	7.001874429190863	9.38897893442499	10.20688721940831	8.471862771579353	4.265439499576259	6.043087467195063	7.925658682839977	6.6392292808754965	5.786144718820344	4.232850540918304	3.652355423289065
284	1.6208656985367969	2.536743396076418	0.8766322113792457	0.6786414367707869	4.011392106418839	5.914546474782782	3.2314329065753027	-0.48256218311544885	0.7154182773647325	6.814575178107352	8.658519723012386	5.305792795136876	-0.6555195434232498	0.16662304061306207	6.24891899438535	9.69604966576641	7.012980920251689	2.3852951466418935	5.710945114975781	7.728307227649765	10.235460255530016	9.011420227187315	3.496489992850678	6.580676062181777	8.551819779739297	9.896718953895023	9.054235435514276	4.78428410275849	5.694503769802448	7.8238730233069225	6.977673036124524	5.487567410919394	4.286658276225568	3.916383971816793
288	1.1202779980031738	1.7071033673101565	0.3220876149151852	-0.08012467602527422	3.3820903215849443	5.211320863917875	2.918351404451329	-0.1558122928977037	-0.3539653113488314	5.743750557703014	7.998972395728608	5.684128746940458	-0.04173323129011674	-0.09027615911817828	4.993607985286639	8.998318649461606	7.480713825412329	3.6358773616546425	4.463883388693157	6.276221736320811	9.434887862226562	9.016841865662396	3.754755249080335	5.177898870746642	7.094727021424695	8.947000480951035	8.919095016849125	4.583817470421602	4.5667476538753435	7.008106690832843	6.616198999866748	4.395222175945367	3.636447182057257	3.5362057596571437
292	0.4929871546696337	0.8460785129166525	-0.37857603931213174	-1.0870540114613851	2.643029921534388	4.384140480416705	2.54799985242312	-0.18765859258479373	-1.7045497851251363	4.70967673066292	7.245365601366634	5.946781143433086	0.21158257073388703	-0.2790101759541974	3.7867655658482717	8.287967660959659	7.697043876288268	3.5383443743062855	2.342920535848	4.917824255924752	8.548137643212948	8.684318520554672	3.1524751106778504	3.4467303665877593	5.568776593453618	7.804268340434056	8.362610795842004	3.9020986458488314	3.17577695044751	5.895771965400251	5.894160255809594	3.0218887252806206	2.6620404653096337	2.828453295242265
296	0.016902133779767316	0.31641808072310906	-0.9322116351433402	-1.8599604321250351	2.173160785910391	3.8838004967861433	2.354341977851024	-0.3683059504270047	-2.6497645311212668	4.237760533123925	6.858988744584574	6.213292106200153	0.29280975387078806	-0.10816436978687825	3.195538035907872	8.016774157310861	7.892101267916156	2.091958755933522	0.2699129574636769	4.253513325442552	8.108636835606761	8.425768830960866	2.1765577738168536	2.2241947594753904	4.684689033124689	7.093275529118789	7.894048194028184	3.1965465464949254	2.257245296501321	5.118869768570237	5.349048124159746	2.0985765404169356	1.9618222663939209	2.2961392344676983
300	-0.10354810181938817	0.36105403212942655	-1.0623333427310742	-1.9847013900239008	2.2725517692409962	4.0328502553209615	2.5268480713943697	-0.3894211640062775	-2.588512890956088	4.6518225552413615	7.14456174953984	6.604443533435246	0.4852491008904949	0.6319500787992243	3.5920109658150774	8.458950021367814	8.294321992913831	-0.05081365244672388	-0.8050132373512344	4.665500152252727	8.49026105644501	8.604676224918347	1.4270772897929722	2.111638779077194	4.9488458508476505	7.294057350816453	7.955169180812345	2.898923866582288	2.3700113236671756	5.185110079071942	5.415739522611973	2.1816804353944965	2.0219800421209433	2.3415450990686355
304	0.1846794928417964	0.9877541636324116	-0.647362290178464	-1.3392180170579475	2.9928755684630026	4.85455988611988	3.098197213933785	-0.03425899139337802	-1.3725622857725894	5.879400715288996	8.073991755127826	7.153317910253818	0.9973867510409531	1.8830066871785434	4.925399767837998	9.539725279564411	8.982545829982385	-1.8391338540373585	-0.36227726844874114	6.091586574433455	9.686478590351122	9.326663947399704	1.3471633161864471	3.162449113490803	6.375474436875886	8.470205285621624	8.674043633495653	3.1987359443012875	3.5706684499235273	6.188074573152249	6.177784904141362	3.331539384059985	2.9328648969989146	3.03346347042962
308	0.7861412743747422	1.9744410464981699	0.21454171782209613	-0.15592487117023898	4.09885167040701	6.054860576601374	3.9049184223767464	0.6917907578168423	0.5790426120443751	7.466015320047829	9.285967803398446	7.760080794769252	1.8392116977032387	3.2836530125683376	6.711436254722733	10.844370814600577	9.814810728088638	-2.2992322386865736	1.4078768456199522	8.016819933677933	11.279597253931422	10.366379711681411	2.0417454191157183	4.844706523107647	8.439635255486403	10.203921292291774	9.790865873412764	3.9642290968943596	5.349122987593396	7.732761840370452	7.31280706466682	5.048956858285324	4.317157734461553	4.061571110961339
312	1.5238791665703606	2.9874625130567476	1.2511886326671633	1.106707689352133	5.184015260959471	7.17195699788376	4.655632960962942	1.562875624525493	2.485731118602062	8.79675672217509	10.269340489209126	8.230030039035626	2.808235638204076	4.3310203442898345	8.255246141572059	11.816178292005397	10.488265964730612	-0.9943400000263065	3.6868996527092954	9.70058820182673	12.631109205780414	11.281481714375884	3.2667899049296385	6.308954222963023	10.309998486237822	11.78556630020036	10.801920863535877	4.839058863820148	6.874780637550074	9.127953506312043	8.268776872739068	6.517565710778615	5.520657525429355	4.908490645413649
316	2.223178381075247	3.743515005196971	2.1432955210932154	2.003354067512818	5.8740906567086535	7.809954623531271	5.073733793800161	2.261380428326818	3.608890047498536	9.401985144719301	10.629195186481732	8.376986482451217	3.5850319771852366	4.649662006082997	8.988424278453872	12.039454429747343	10.701125117940752	1.7444438890283198	5.431804643268434	10.523281070843378	13.19562527186003	11.651109666018346	4.567502487094874	6.825417024546043	11.2435769750917	12.561211554284524	11.238059015510906	5.448734746527691	7.424360733361004	9.743283247190126	8.570891358670638	7.025212270165876	5.962973579610466	5.140649782553334
320	2.765965216328987	4.131220330298431	2.66816686910276	2.323538297508874	6.010152324761127	7.83282134939517	5.041304098752644	2.561385386675824	3.6322953609312645	9.185001350101116	10.290058110006429	8.136716822108133	3.893226136868547	4.203725804205948	8.743385292866481	11.455021829294182	10.32862088456727	4.922757613151066	5.8935379833197095	10.27422616271974	12.792610136158796	11.306755037371156	5.483514771922057	6.161846145331506	10.938257189790782	12.25496289020177	10.920443507279606	5.5961556293342	6.760550481893653	9.336892104417336	8.086702326384797	6.337819560261972	5.453638539850271	4.654479491880161
324	3.1037802617865107	4.229148377231362	2.7829625536273817	2.166758531821941	5.7073945855047645	7.410449486142708	4.65869377867372	2.447271340867132	2.8032617498194172	8.442481019639374	9.518671011734268	7.615704517210183	3.6314828304157376	3.3163220798686686	7.81080196315926	10.38271710635452	9.504083609427347	7.294411640824103	4.976027952982391	9.223713851529256	11.682806939192712	10.419945690550076	5.728133187136975	4.692410457207978	9.653387045329689	11.088341684956289	10.046020482448736	5.339885221350849	5.24620293246384	8.168338755011693	7.094364148348218	4.814070212607604	4.290759075775761	3.732441177481399
328	3.237293950490559	4.2153949631120335	2.6025075846768586	1.8340738965458612	5.2512507306078335	6.88585851838148	4.172028531031582	2.091681236708148	1.7528947547525278	7.661947231021654	8.745285012099965	7.0272211851083135	2.9028344081068385	2.4826509889864252	6.7429947682844125	9.326302504834697	8.539058663743683	7.895300845239621	3.247191659358392	7.936899641979077	10.397319767450464	9.384780860094768	5.266105161722673	3.175512067406797	8.030741671313681	9.62435815288589	9.04720018009991	4.914043414106905	3.623713245779592	6.8264927691722335	6.106779559929764	3.1905457892926687	3.0782816332345555	2.8696193622617434
332	3.1838281074248638	4.234006871024027	2.301991933732707	1.6180226761974783	4.905371653569717	6.550408823641251	3.813422670273156	1.7204792456104312	1.120368716272293	7.225889187689001	8.294923761405963	6.552870733882838	1.943112130027585	2.0936999268123047	6.028786644019499	8.67696473791943	7.730874995740206	6.456250651271556	1.5936466415223884	6.94733236466182	9.42351529603213	8.56967065554872	4.279021729156225	2.322666877604458	6.727038843336905	8.432861306834072	8.31514165686273	4.550264823869352	2.5916664534939025	5.8782272190456215	5.557920441900217	2.1651694719962413	2.3714351594179752	2.475050443122436
336	2.955999128507889	4.298286427136151	2.007204765974165	1.6234394270917	4.7502012132876565	6.463806612861365	3.650088777863269	1.4541870318891386	1.199345824074604	7.196307164143082	8.190688112560247	6.215581401390906	0.9953077410364365	2.2313198986938514	5.82748602349502	8.489140489126063	7.174799424176633	3.506405821530477	0.728597281523811	6.47528837476475	8.931651092867229	8.088725069604788	3.0527129096205217	2.4015588699742443	6.067006572664458	7.772995452329419	7.954977015438074	4.315299976897884	2.4203414855884438	5.544324860879855	5.537596211757439	2.0157494494090127	2.3571276605222136	2.622932189041185
340	2.5638213092923543	4.29001711715947	1.7378116802209067	1.7308909849335092	4.648091304487842	6.426111681926263	3.536694994580225	1.2390196292112536	1.8050688459599122	7.302763443628945	8.147405603819427	5.849775776398949	0.2102246428188813	2.6600253514841548	5.91200111803872	8.46204946288831	6.702194196945774	0.13900524342727424	0.8478366711191533	6.347178443142395	8.701952912294818	7.736948470608906	1.8568788719979277	3.1047346513562446	5.909993156770597	7.476009350021375	7.7253761096456905	4.06804322169329	2.824311249277991	5.591469750592369	5.736175999464081	2.4688982901228322	2.7561154295954324	3.0046429558234298
344	2.030700440048145	4.050678719784005	1.4339334928548857	1.7130241350793267	4.356260765521275	6.120313152119716	3.210333339215244	0.9118106938229298	2.430787557186826	7.138162118055754	7.762960891197527	5.203221784806243	-0.3804914643694753	3.0032696648112718	5.849879250062018	8.14199922413337	5.996356472134825	-2.455408090114167	1.6066319901910806	6.156815513325164	8.29594610027057	7.136413556201038	0.8669347145127079	3.7538707161541014	5.798720821999042	7.095005494324382	7.204169255187686	3.5636563211112753	3.167197219481623	5.504570470263673	5.638910279342221	2.8961353228881563	3.009030096086401	3.117494813677544
348	1.4137338364193737	3.5077249915253153	1.0400456163850624	1.424691077450059	3.715793361819085	5.339526162971629	2.4791536268584147	0.35790240674256246	2.581591838040823	6.439296229317291	6.792648298279899	4.120814313021237	-0.8152193406503566	2.982373706917252	5.304429040867858	7.225664597388054	4.8254675743341995	-3.479848852908562	2.4028696953188353	5.5592102864099	7.36604164171137	6.007843956084094	0.14618787132547592	3.719339838174267	5.286377893452495	6.225097640533139	6.082115157983979	2.639848702441468	2.8652346061845573	4.831007945261374	4.856425749915218	2.709576123072308	2.6299421720862304	2.579019778415969
352	0.8177536705351629	2.762461655317935	0.5879796728547885	0.9387264228008421	2.801309578498662	4.162941445330648	1.394853826815857	-0.34764933498347583	2.089725012271559	5.285351739890633	5.343574033597395	2.7027513912627565	-1.1197805376391345	2.5725696021932407	4.2758855711746415	5.785820469553585	3.252913228405226	-2.823415987515725	2.77543544068557	4.519139755283384	5.917476162275385	4.405240047776764	-0.3179107002338059	2.8101141381840744	4.243275154844621	4.801227080620987	4.4102887995950715	1.370412823078126	1.7508360103271836	3.4912526519367773	3.3977293882416264	1.7231248573667521	1.518817659358103	1.3838368619312575
356	0.38223469160849755	2.0754537529997292	0.21605351512720103	0.5298240171407165	1.927297468087838	2.9616646691887754	0.2869014136700222	-0.9282676554131549	1.2214462726272042	4.087991227319195	3.8600988290603397	1.3205765452422198	-1.2637609211486047	1.99148356411719	3.131339780531017	4.273141850173268	1.6786190228996507	-1.0405642960025885	2.6676423482300606	3.3595557128008964	4.354034412835245	2.7551066805898006	-0.5603134617964041	1.4008407557405609	2.956438772366642	3.185573808256638	2.6390113763937775	0.08329445847700716	0.18270939542417064	1.8648108196860314	1.7161377625052423	0.2680800848391388	0.04596422973591261	-0.05355427028128665
360	0.24114832221182247	1.74984979187722	0.1081925106297218	0.5130256997507247	1.4968144855855308	2.220219844934645	-0.37693765664300466	-1.0441372368199837	0.5152156339988881	3.373827448909883	2.8990497515917357	0.46281203510737556	-1.1813863486026743	1.54019879905937	2.4015877186222427	3.282750836667295	0.6665130240778671	0.9551649069512334	2.386955255203986	2.5780618125675576	3.2700261987141923	1.657766218768339	-0.60008877364285	0.21593712215740973	1.9606404255002983	1.982639546157036	1.4070606196164588	-0.7812235931699645	-1.1661065787437912	0.5911404475546025	0.48598852630938916	-1.0073916886644663	-1.1498670548971577	-1.1089447708741949
364	0.4660403716718719	1.969625110421767	0.3828214695325074	1.0291339133028707	1.774019356063329	2.2685549201910287	-0.2412927442657486	-0.5110101686927335	0.4533448803899906	3.4822192104160052	2.8183627057444256	0.47840216635082067	-0.8450056889180488	1.4095619881327874	2.462743991356022	3.2138023295324136	0.6384298189256868	2.3086025656587656	2.323934072349183	2.540808432839836	3.1036500852426503	1.5522398909479143	-0.4429028321051207	-0.10516747060687985	1.704737658964994	1.685255284822898	1.1900745600217788	-0.905437944033569	-1.7098298029645889	0.19840376028990356	0.22722330632061866	-1.5292853078378392	-1.5330686530507605	-1.300436612660622
368	1.0182495091479171	2.689827435378028	1.0070110534038916	1.9239984702171389	2.720309965894939	3.086004487829315	0.719890890688096	0.545870302729476	1.1729323834369458	4.3637156376338	3.5673022180136913	1.3661277259667526	-0.3296402982495406	1.5833321769793383	3.3007910168280468	4.027787198387943	1.6150509078257698	2.5614826614558517	2.6316537790612795	3.245919934660675	3.863512506267297	2.44476580002568	-0.1104546708060096	0.6020233615934405	2.2624466362098685	2.3672938287094367	2.014764065424074	-0.2841207377889812	-1.2985324826834348	0.7835450748688153	0.9983601544923224	-1.1418694228906774	-0.989668605213119	-0.5747573361190677
372	1.7411724285034373	3.6431274322082374	1.7919969513472247	2.8079047132171184	3.991143454965446	4.293373097070432	2.1555221026358327	1.7187880234238442	2.3868687092599905	5.596679673369742	4.70294235949462	2.742504828204625	0.19960935363440915	1.8865672302298566	4.5010638123358575	5.250850187395954	3.1658637443720745	1.7858958199234196	3.078178636408644	4.301731575595471	5.095428453932155	3.8677120111089893	0.3319891086779519	1.9126549910892843	3.2644252694680795	3.609218826718287	3.4097297105532474	0.744340596703942	-0.3096908919144863	1.93400930870047	2.3372158945202397	-0.20308731445059458	0.09465876942815817	0.6402162893343843
376	2.402132743492693	4.455059517102886	2.4699656900987748	3.265008202892511	5.092360960501178	5.335116849780857	3.48657082631078	2.5183923180893024	3.542905321712983	6.603823645131147	5.6203031398017975	4.008863915812429	0.57145809982979	2.127833837858937	5.462960706269606	6.218066199816029	4.602363097968773	0.47263207912326227	3.1977932372419	5.13051222459553	6.110394939254133	5.100300299165216	0.7694328407888447	3.0432763022835068	4.092232693830703	4.703078258084365	4.6276402356613024	1.649764414436735	0.5689704999863696	2.9375729486685462	3.487572422759057	0.6230488999848751	1.0417482826634175	1.6507664877221688
380	2.7823855806674125	4.82012509082718	2.821467154055069	3.098407499120022	5.620759472961046	5.7607884261597535	4.191946495916596	2.648929350840783	4.131520737707341	6.953954202261069	5.8735623211386985	4.64798353929036	0.7226513009899646	2.2312259617739225	5.7247986648980795	6.4307265119317005	5.327419744392576	-0.7388659696997893	2.6322314672769838	5.286388860707106	6.35457323377314	5.544329152414268	1.0699287625956255	3.297876826543046	4.226299275218292	5.0308852068722105	5.0304751269171915	1.9754900882435682	0.7356621008419115	3.1687028328048483	3.7973680400341494	0.7530832867682337	1.2582017151537292	1.8699983311170258
384	2.7717711855526095	4.6425237538427195	2.775317423489213	2.451530211934871	5.447063432292409	5.441132531733652	4.066294659838573	2.1846682970202536	3.958896388549059	6.568570597277038	5.397501931868223	4.479622829571388	0.7591328601744383	2.262791866311536	5.203789697860229	5.815069660763917	5.1386594642600185	-1.347559806282492	1.4167095386976274	4.694424140521986	5.702117905525411	5.037632929480907	1.139239785179116	2.463093989829259	3.5357808977502576	4.393593777054215	4.4190916903504345	1.5694652756166436	0.009927188952535401	2.4245307384312604	3.0610949915848327	0.01433240432398929	0.5591121897886338	1.133771416662649
388	2.416882270432993	4.061984528776457	2.421403878774238	1.7262150005626855	4.73866890664563	4.594304550015487	3.2970201885904973	1.5255827865230296	3.226857892472474	5.716714844575471	4.49917410668267	3.7222726251083906	0.8991349316784194	2.3421883523934275	4.211603154039576	4.729708182791301	4.304528702358428	-1.1705046862613735	0.022240187916632966	3.670007219585441	4.498108852473933	3.920074691411967	0.96718102449368	0.9239512658633533	2.3404040277519367	3.1000020425730277	3.118852845900678	0.65229374005615	-1.281001922234226	1.0190818284054592	1.6143344599973783	-1.2680160967283767	-0.7440869193364185	-0.2185762668097889
392	1.8897225809070097	3.354620925063111	1.934066052322153	1.339404937223491	3.820734252820004	3.61628006975771	2.3221399725459735	1.1534543008292628	2.3820102154673255	4.813831317191948	3.6325042156060303	2.8314313817063033	1.3200563159039336	2.5136458810285323	3.2427511133338367	3.72248243345747	3.3743956003824476	-0.3646396389338046	-0.9034175253947186	2.7102100780725387	3.3302552615961862	2.816152565521734	0.6344761236384278	-0.5683354124978913	1.2084057300575892	1.7669300988409322	1.7760933592776973	-0.31641593495590253	-2.5132055219140432	-0.41421899094905534	0.12967909839791067	-2.477480166855926	-2.0396311231615836	-1.5451557597249554
396	1.3842655385354	2.768578283949343	1.4545301162235995	1.4614150487242221	2.9677166863854096	2.825339310188481	1.5550320109207234	1.3270134892338414	1.8360457373993422	4.155039299964857	3.100016109269159	2.211826318878566	2.005675072374512	2.677587263976436	2.670305483751901	3.1879091182330415	2.8362119126237992	0.695337234172024	-0.9237879491370811	2.189986700250844	2.671254866531487	2.2625324668981284	0.27561283041986717	-1.3273130621777263	0.6196579917521644	0.9555999612523506	0.9867050622823688	-0.8944351054497457	-3.1342010418915907	-1.2868736949855144	-0.7619814853503516	-3.069766990540599	-2.7684259344776816	-2.261780733120119
400	0.9963830088254697	2.3869783818061006	1.0057769988415777	1.9024316024432208	2.253737443955856	2.273204082471771	1.1369403571987764	1.9033952903375162	1.7287177995904852	3.746237506944858	2.8614356445547444	1.9704768607934569	2.6913070610761967	2.63688802053366	2.532928221983267	3.128448955266709	2.820477478535717	1.5903686244865973	-0.09911651139268776	2.146686310116637	2.6026377612207194	2.393249505676376	0.006281204040136233	-1.1063033314429975	0.6953677517500719	0.8560593702637372	0.9642021035646167	-0.898368594762477	-2.9676256104884224	-1.3751913274377046	-0.8123106339926613	-2.8747842239277808	-2.727861635950336	-2.158647054944227
404	0.6616880280954811	2.099002355998136	0.4973793017227536	2.223810905564006	1.5541362723213004	1.7431653694011155	0.8731097556958478	2.4097979007914554	1.8730021667875425	3.3367781554853573	2.573895924745434	1.8681008768600367	2.97133325780267	2.240559810703604	2.541446440955901	3.168478957759637	3.035841934168732	2.004144663519123	1.0231999133025937	2.284000390961969	2.788396828287123	2.87283300628134	-0.13981102371679716	-0.2008321578200502	1.1552202672402097	1.2064424722729343	1.4396874868283953	-0.49093118186026463	-2.2794830741551366	-0.9103036499882338	-0.2638549201979356	-2.162523741030631	-2.1513149683996287	-1.4903023205323922
408	0.19897279093097633	1.6948604540949121	-0.18598662269842056	2.0127949663842455	0.6878330690183934	0.9314829087581561	0.3889744867994585	2.3292951525053254	1.9004369926154931	2.6250760488990537	1.8370604468694365	1.4949160776542276	2.5256166394364192	1.5259935817337844	2.2924287261305087	2.808755629123784	2.9694642945658116	1.8131461097716113	1.7390685037574674	2.186473840915231	2.7074251106570846	3.1112182061799634	-0.22734378220856674	0.7723693828155798	1.5190131625924728	1.484048839636926	1.8417671872368868	-0.06918262672838775	-1.5787699182704589	-0.3996742059630418	0.3241975895325845	-1.4442001544729468	-1.5288867911838773	-0.7955222705783218
412	-0.5595720992265595	1.0198421452522946	-1.0715453597671423	1.1515762776864216	-0.40541326897307295	-0.31119108121505046	-0.592754839354268	1.4301094972743305	1.5047558508074852	1.4954936466606428	0.48406439897393033	0.56078445769823	1.3274960484367246	0.7404249887845983	1.544271822845168	1.7587262347640498	2.2263941708620494	1.0920110913362597	1.6094403226272276	1.5987012345958695	1.9917082736274259	2.6261820726847134	-0.38350871108503254	1.2615463701822112	1.41341185212911	1.2364317147509296	1.6386820036523375	-0.02923100248049626	-1.297050830427349	-0.30703169029919086	0.4134813834718222	-1.151594755126255	-1.2980775800356574	-0.5694272503781302
416	-1.6280366141223297	0.09128193534215948	-2.0379664846464993	-0.08705877490713178	-1.5762795170087411	-1.8339968873450059	-2.0279285856545086	-0.0603577195074167	0.6350215061367456	0.13226999309046597	-1.2641124693426025	-0.8803638197606324	-0.29086598680492537	0.21588727777334218	0.38396516345357007	0.14411994778485954	0.8010433296006374	0.05052133264303191	0.7204200607230759	0.5958636984086136	0.6645523292929308	1.3391990627809567	-0.7242451291872344	1.0939333411254129	0.7945086935964754	0.35166859537982237	0.6435334070170495	-0.5437988625148267	-1.544278498565366	-0.7854292968946978	-0.21158206409440772	-1.3924053872239552	-1.5927627046426012	-0.982178625964909
420	-2.814214699315689	-0.8992987252418486	-2.8588573860468496	-1.1888923615002884	-2.5380761559302307	-3.2415542520697684	-3.5319511801238184	-1.5611914356869716	-0.48456495877949024	-1.0740151378218197	-2.8917717860644565	-2.4242455898113753	-1.7806589558466754	0.15690161248170728	-0.8268328288183621	-1.5469397267385787	-0.8959447122841606	-1.0605415079043603	-0.38419636987007005	-0.46835687638289647	-0.8721887447271038	-0.3771805753721735	-1.2892843452327238	0.5271294699711585	-0.054912432889580566	-0.898137388345977	-0.897364316105192	-1.4847141466802292	-2.087414974664476	-1.625307555863534	-1.3546225990426752	-1.9290935944489649	-2.2027683202442088	-1.8137795879346847
424	-3.795600404693153	-1.700218911646691	-3.3282971298109687	-1.7083411173604373	-3.053242198864791	-4.117944230173259	-4.580441940187205	-2.4668831762973533	-1.5017139873736978	-1.7668223336434505	-3.8751346967134177	-3.5316979795934516	-2.6593885354609825	0.4787916230987998	-1.6848828750032818	-2.7426803042784007	-2.2660646381386003	-2.0409283586472	-1.0545585128862018	-1.1970076530752582	-2.084448570710784	-1.9170771788832952	-2.0171174952124438	0.02406953641655761	-0.7386631946987754	-2.0492682405231166	-2.466347211332886	-2.5224394734593334	-2.5471980507436256	-2.429252856797024	-2.5624842579041283	-2.3776357113890145	-2.75132011672607	-2.6271281176041996
428	-4.295537937763208	-2.1602773611840074	-3.392891398446712	-1.5461044272488054	-3.1112563531525232	-4.281002033869243	-4.814707267049355	-2.5013751920488927	-2.1504082625455947	-1.8573989821269246	-3.98790430015795	-3.8394105337481927	-2.774293892531714	0.8094190338679734	-2.0038857409428723	-3.1178462426622526	-2.8653454708235593	-2.8028335500524317	-0.942453382019948	-1.4122544491397835	-2.6252906256197033	-2.785267107607159	-2.7805874277483684	-0.08205089697387549	-1.0218183968494778	-2.739313595531408	-3.5751294999458336	-3.334000340627258	-2.6713483266142584	-2.8859717773052966	-3.4126024160055892	-2.48473190633957	-2.9628972932396183	-3.058529607680177
432	-4.250666130778109	-2.323622697685663	-3.19534610895218	-1.0153025363083727	-2.9631767198136196	-3.897800197297062	-4.259310711597348	-1.8797979307398063	-2.3950667320817	-1.5908794362910328	-3.4307224663901383	-3.3715608034840874	-2.383095019999499	0.6767078024945105	-1.9257270049112611	-2.7676758696297217	-2.6481714181797327	-3.3759922896026597	-0.21365792995392038	-1.2687046495830836	-2.522570126840351	-2.854603760187838	-3.450225344529985	0.1867198939377573	-0.9811001991297106	-2.9080738947879463	-4.015648831719371	-3.783458223327325	-2.5005915101813643	-2.960706226503207	-3.7478403950481107	-2.297311061781024	-2.843435280296602	-3.039108268694177
436	-3.855034818453008	-2.3897385536893907	-2.9911270066082865	-0.6478911621902208	-2.970330707680079	-3.378707400374613	-3.3137354767105265	-1.176671859631423	-2.410794013612427	-1.3893197739810133	-2.6987628868630367	-2.5204863484642646	-1.9988533207971915	-0.2028743470553498	-1.8074816419743283	-2.1185016578593054	-1.9662691305108064	-3.8571841619381817	0.5806723818423538	-1.1386578054289984	-2.1196682399639037	-2.3887605606803852	-3.944719543034315	0.48493969318024704	-0.9315248108233274	-2.7833037306132145	-3.9184844394933744	-3.966274013042151	-2.321896785595904	-2.8828542159728356	-3.7201685811531315	-2.1154780334467733	-2.658706896745052	-2.8107383180225867
440	-3.4415275963677407	-2.557073586683658	-2.9791548176889284	-0.8519496300168501	-3.348941556104672	-3.1059632222912534	-2.512684100482865	-0.971974072386547	-2.42528724058084	-1.5617620905546103	-2.2613267841466556	-1.7990546181079703	-2.078776115891121	-1.7040333704841062	-1.9549775074237754	-1.63098263328756	-1.32167136335469	-4.3231744657085684	0.8753416516138273	-1.3396986689122028	-1.8120733453776523	-1.8252184344939393	-4.243925560726768	0.4073744703974885	-1.1771482199512653	-2.6717004708547023	-3.599662294836287	-4.097861756469079	-2.4418823657373054	-2.946413509559312	-3.630949964892791	-2.260823005690286	-2.7285659244312237	-2.7331414153712097
444	-3.26605867514938	-2.8502538132231123	-3.152369968084732	-1.6307876068903475	-3.9768538374630715	-3.1703326622074717	-2.2050468865989297	-1.4911197386287782	-2.540862315438577	-2.068699831507992	-2.256444448496141	-1.5242037734649878	-2.7369387080709733	-3.289696446696146	-2.383010142985553	-1.4916058741103388	-1.0413360569411916	-4.752533423822539	0.45502593998466906	-1.8871643495597088	-1.7619938805916764	-1.472871776676864	-4.35890721174262	-0.20541256614321785	-1.760763998354486	-2.7112765243741674	-3.3167004501527475	-4.330117691551634	-2.9441966936164228	-3.271024934139527	-3.692140093064717	-2.8250343728265803	-3.1840839305595936	-3.020318500522622
448	-3.32561468238427	-3.053255311886608	-3.2729473031379697	-2.5514216358617463	-4.40371035417711	-3.289978019037354	-2.3491434991654185	-2.4613056120719334	-2.6571791104940266	-2.50181578958196	-2.39664148679269	-1.6296336609704094	-3.664714088724171	-4.24316882015861	-2.766861908602724	-1.4918643198494326	-1.0807255479229805	-5.017531859127604	-0.4108427156566	-2.4397540030870393	-1.7812548830836352	-1.321384188176887	-4.294431675558969	-1.1196806402547432	-2.384967321096456	-2.758014433573182	-3.099267951769827	-4.62193917061222	-3.594097605214106	-3.688124408947048	-3.870011558298618	-3.5665807633951516	-3.849151601609951	-3.579563847087348
452	-3.336061707656966	-2.810166828689923	-3.0036942882995796	-2.9914543553165664	-4.086789597683557	-2.975091211436981	-2.5473167831957184	-3.269572726577886	-2.548387759450339	-2.3122112692629355	-2.1519210284261745	-1.7197782949896423	-4.305360306360234	-4.026595105495446	-2.631184571298792	-1.1759237021320912	-1.0750616761721437	-4.947144495871477	-1.1509076327830192	-2.4881780084732035	-1.4633915387399838	-1.0784660550545397	-4.036406983675019	-1.8217389537593158	-2.5694873268103975	-2.486693375984886	-2.758852951713765	-4.7496762155778	-3.957611789248103	-3.832024803023432	-3.911543597836094	-4.028778542837345	-4.326751698060377	-4.057217110880779
456	-2.9061257765830257	-1.8554286909942037	-2.1341640895366805	-2.529409402183191	-2.7369637420217154	-1.8570089293324992	-2.3115312994770547	-3.338894835625277	-2.04651545961576	-1.1686711281834223	-1.1122993202736844	-1.3433208431660582	-4.185301770133813	-2.585130685001493	-1.6738139348685694	-0.17390090183221318	-0.612033961658193	-4.438424099206654	-1.269629713667662	-1.6855001407030172	-0.48864757891307303	-0.4115803529361555	-3.578780880475555	-1.8276045276275634	-1.9596739957923501	-1.6451370674559254	-2.0674765057817104	-4.457743633459635	-3.6724092867638243	-3.3857142839781385	-3.5365765005467105	-3.8173935316980674	-4.245318402062363	-4.067776669722527
460	-1.808045621121769	-0.2337230438053528	-0.7607447485790295	-1.2357207505498438	-0.5612830505505174	0.022932778986013185	-1.3938530648326048	-2.4882109102370364	-1.1931135624326241	0.7791098336576315	0.6984745246418558	-0.31244373242648743	-3.2077667632176956	-0.40779468314209405	-0.012156707203987918	1.4975808821061178	0.45648994926594594	-3.56157874161823	-0.6624492986166304	-0.10680171075320545	1.1039204569601833	0.7755056600064529	-2.971467487462365	-0.9874175762042149	-0.5852037057406728	-0.282970308543076	-0.9713993047984291	-3.647161951393608	-2.691023819804939	-2.3147065581055126	-2.6571333341269545	-2.856474392354746	-3.502675524451272	-3.451851120816774
464	-0.18005718245345748	1.6353837210373738	0.6978037935758917	0.3179358235915153	1.75848149809322	2.153379196452278	0.026807963780430412	-1.0580295297612883	-0.25501590902793014	2.9036581442955547	2.7610506941703745	1.1381989688746759	-1.7330033735390158	1.6917798476421186	1.8117810442004119	3.366731396757999	1.8713818741280592	-2.5769202644137015	0.33756357346185134	1.732166405119193	2.862462990209499	2.220821136589621	-2.344324344438206	0.4088569869209214	1.102900025444205	1.208091613580416	0.31269737999168873	-2.477236979905856	-1.3388820852808416	-0.9314109659520938	-1.473998423669564	-1.4592176638954804	-2.3499154985226003	-2.394751781139502
468	1.4751276932666273	3.10365485361422	1.6732506709768642	1.3450700010672205	3.3593902503074173	3.7706689739394488	1.4107239210751052	0.2629820995843708	0.4025409509509212	4.381434429550734	4.29706620085139	2.4473175940713614	-0.3983306874708742	2.960004799045261	3.08238386329622	4.722124087809228	3.080378047795303	-1.836339588297343	1.2029101818231733	3.11921953367441	4.131511677801358	3.415350190122797	-1.876337046654306	1.7905253126714358	2.4507465300673426	2.280507320368371	1.382947441424165	-1.3134722676493775	-0.14630424939410605	0.25537076527970454	-0.3889778246595575	-0.16618052083020562	-1.262343641908714	-1.3338426317870953
472	2.5159032281297664	3.5934488682620085	1.7294242338385797	1.2695420948400635	3.617183437751645	4.244213093532439	2.1429512446658623	0.8109554627924696	0.5110134469481878	4.608248222160458	4.678624618161973	3.028149835570599	0.21704834644831297	3.0544903201232363	3.2837626851144477	4.996618735095932	3.547042360887108	-1.6171265799701875	1.5652029474795168	3.5200064093409877	4.4102983363382116	3.8853316208972677	-1.720528359837602	2.622885458999799	2.9522423669664706	2.539004081037751	1.86978315834993	-0.5505933747695533	0.44731303936556194	0.8196254351903187	0.21407137757136102	0.5539994821866434	-0.6742842180394173	-0.7118098717837854
476	2.498669141182922	2.8935632632633026	0.8003486374675342	0.042413126570191854	2.4670176443756273	3.4179859075081103	1.8770999861055047	0.30004215164725156	0.04414505872905767	3.5195927531072906	3.7797796630796543	2.6037902766291863	-0.11145170004839208	2.1644978468606078	2.382320159619375	4.09848927416769	3.072205058924336	-1.9771448323876448	1.4402830564374873	2.868004791648144	3.6496164706592613	3.4762647064179775	-1.9188387345505395	2.693435662145041	2.5260586674809575	1.983510012387138	1.6531447130427026	-0.4095866073757748	0.33563184653420286	0.6573920829387858	0.18541884375488488	0.5589336142733375	-0.7386159878202325	-0.7261509280944711
480	1.434896107865578	1.2836482492462824	-0.7547798137681923	-1.832141633176411	0.445274918147258	1.7100462870338664	0.732971129951031	-1.044219968066723	-0.778084514560794	1.632814522435462	2.063301319635025	1.3756976092891486	-1.1630606621941693	0.8566917159385627	0.850754854915344	2.4901034769131662	1.9295993994632519	-2.7190484931960976	1.1729030579517903	1.5987179238963645	2.3045902194011956	2.461202376827443	-2.364341491451876	2.193724388305983	1.552649136437909	1.0315524313631708	0.941494700915801	-0.8291577675866011	-0.20887207932189186	0.040748029844402	-0.31099575679461466	0.09286643541254559	-1.253121730501638	-1.2281678884015546
484	-0.18343612505375978	-0.5846962317963365	-2.3128297270555636	-3.5652480035413388	-1.5730164011341061	-0.0866626647906964	-0.7581154088906912	-2.6242022448088522	-1.6210443932613823	-0.21117134338945867	0.35370641857490315	-0.06746146810903789	-2.414610856635627	-0.25457498366931747	-0.5777447209076678	0.9665766930018281	0.7368258815282127	-3.4937004954822326	1.1444263429357966	0.41230711236806694	1.1103978129008607	1.409638639705775	-2.8392372059663806	1.5628567894577914	0.6540871246036242	0.303068100640924	0.16698412555019973	-1.5086098871289313	-0.7063977700518442	-0.5402421341607695	-0.8954866505902183	-0.37481909895677945	-1.7897446110361388	-1.8229833795297947
488	-1.6114752251947217	-1.9883035371171622	-3.277106276821317	-4.484692562224603	-2.790875904666362	-1.188091871122976	-1.9231055926406577	-3.7854971790106537	-2.206828588636057	-1.256261226343321	-0.571767805563261	-1.0464082929894818	-3.32108425255562	-0.826325295269381	-1.2782974210890155	0.261010854777336	0.1361647840876745	-3.985219230126887	1.4573916160027518	-0.09276034659569385	0.7101066690636288	0.8944230057068869	-3.1135189454624848	1.208647009659031	0.3518535485920934	0.29379835650653674	-0.23793142973909412	-2.068133825802634	-0.7507257442593849	-0.6483227594219497	-1.181340810654181	-0.4293505836614011	-1.9418624590483795	-2.1002232975386326
492	-2.209730619573554	-2.4489297804991756	-3.337376109280234	-4.344098556994852	-2.8313002514881287	-1.1721582383125575	-2.2686510028781637	-4.119333256811597	-2.4200832782679287	-1.1639034718691654	-0.343015014259245	-1.1174154253404183	-3.5689027219311593	-0.9097469426074372	-1.0177968714766357	0.6994770747644466	0.47564771651341464	-4.051869859002189	1.8293333007402641	0.29453417584443115	1.3471068109833426	1.2120255201256598	-3.045721046387442	1.2831004825621795	0.8053858855894294	1.1288950414765961	-0.04682820651033116	-2.2281928006182503	-0.22679579200704655	-0.11919263720221464	-0.9648487543541522	0.06417895837315811	-1.5368800124466553	-1.8503291560186756
496	-1.7414615110298681	-1.9052110862313694	-2.5706391269631292	-3.3761196051235784	-1.8366477443100537	-0.1212441322126563	-1.6853452878362818	-3.5978019146682545	-2.2981331290396905	-0.10499577197745724	0.8783166386363455	-0.25818890267989225	-3.1694366851894697	-0.8316598513586653	-0.00888200101994113	2.0857372231275746	1.6604878860512013	-3.7520708943050076	1.7759727194769763	1.341042157602048	2.783750765447901	2.2657341899887995	-2.6336023741033565	1.6445436436140397	1.7717876389592835	2.5299334462187333	0.6813218576395689	-1.9144637536350715	0.6546720845859729	0.8872701503286754	-0.29414307996872485	0.9150103307510392	-0.6985148769862669	-1.1448568076792776
500	-0.46023014071615864	-0.6701364500292595	-1.3450137342826947	-2.0932033009132898	-0.3053258351723484	1.4963504038224813	-0.4433775234949135	-2.5043160852146853	-1.9406366299270237	1.4078052008371131	2.552053683513349	1.169418808845597	-2.3703782498594865	-0.9243047810106235	1.2686258522428895	3.857313384807729	3.241268626612726	-3.2468511976282945	0.9722535585651932	2.551327460523239	4.47169779602206	3.661337366396881	-1.9883694598541173	2.000317568497047	2.790737860309411	3.999047507679865	1.6800148444674767	-1.2441714970647626	1.5121741256682113	2.0175611921870313	0.6053018554663886	1.7523707107169857	0.2618939273897763	-0.24942468043772995
504	1.0443773243285328	0.7741748075012681	-0.10355260197005735	-0.9875535343986043	1.205195900735249	3.104127637655385	0.9854463910018246	-1.2457807032603456	-1.4316275083636374	2.817084066907932	4.070903767798128	2.631422989877292	-1.4788676462982615	-1.2929372754832058	2.3430106580706727	5.3957943780090085	4.665122497224384	-2.6472947530665896	-0.46050873282513544	3.453014126642695	5.850049957764224	4.934010970056248	-1.2581788269701935	2.112981314092725	3.458058110089433	5.09064625408461	2.638530009283787	-0.4314513791635281	2.0208361097813023	2.9320623800636847	1.4752762280410328	2.2509384098442706	1.0330198977138358	0.5491158352339466
508	2.143776172947471	2.00773477047417	0.8313397148123849	-0.3135510973166512	2.3249435366105504	4.278494824097741	2.1491689627745534	-0.17901666417224055	-0.841214833519905	3.7652635479277055	5.038415419255542	3.6668574717448825	-0.7196858507105863	-1.7670643285006276	2.953367225819832	6.3045735200016715	5.529466138230602	-1.9280660103756315	-1.9579534481206076	3.8119642638284743	6.592233641193124	5.759435162308189	-0.5582050070974427	1.9273395489669432	3.6170232204668933	5.605491147193931	3.340240708500907	0.3132851413923349	2.067931170010909	3.4564816864483934	2.1384403651606494	2.2918257655454832	1.446967121285724	1.0810022326833293
512	2.4472715792857107	2.803566210344161	1.3347046341576605	-0.06469368918297762	2.9415569231152747	4.858596789491035	2.7631878783080452	0.4642365861139108	-0.2877235703356558	4.166021336527706	5.371936784532867	4.041565884876594	-0.20400136657707862	-2.049619669507825	3.0838391702993815	6.515583021879812	5.710068211444059	-0.9852645968357188	-2.8300356793477666	3.671617975501784	6.680463297189848	6.042969688417284	0.051692154127979464	1.5448906382656638	3.3693585310744862	5.61151216997536	3.707358112511769	0.837221083911458	1.754375572543589	3.6009728817622992	2.5235645707312733	1.9718644569203245	1.5037378034772917	1.321371194364359
516	1.9248400877992424	3.1160771768097852	1.4269727432463002	-0.11497960955677318	3.101839534557524	4.885143267695495	2.7351603438939445	0.5592468962854861	0.01371848207228822	4.109245289918122	5.213380323598955	3.759949197812949	0.011033828342415375	-1.9611169050294297	2.8514625954161055	6.204124911856843	5.322801576527038	0.1901788259711462	-2.7019598415821378	3.2292356409558503	6.303236468613446	5.8659572453217175	0.5319233523290502	1.083916780596198	2.9281949923018424	5.310304628316403	3.7512283230485903	1.042683360328293	1.2604398695593944	3.461765995822259	2.612949603159406	1.475094076247059	1.2842845884322978	1.313294526599106
520	0.8464696981993257	2.984226457690772	1.1651923627045344	-0.38726988337015317	2.8609011101017483	4.4598822481087765	2.107902283114948	0.05385701717249769	-0.20177088626940898	3.7102446462416636	4.752234923762258	2.9764578267289408	-0.14163878524305867	-1.5958222110511975	2.364022010556687	5.6096129275790325	4.5854153517347065	1.357057210357024	-1.7909059479320104	2.6658232144761085	5.680647358857207	5.363566861916059	0.8098723271903459	0.5486145601726512	2.440107339420376	4.865914332502345	3.4954645545445513	0.8669053294229078	0.6930874568606571	3.10413479021274	2.3829460083879366	0.9185224152262724	0.8438799359950183	1.07184445587387
524	-0.38611706993846295	2.4556231436719735	0.5838791117231736	-0.9095495916290841	2.218341106536068	3.6599244979006924	1.0115638945789203	-1.0114216778968452	-1.0862234803431816	3.0356640739091714	4.108167161106146	1.9072068881519897	-0.72586506421885	-1.2800568309890534	1.6703642564562586	4.905099379553071	3.7012040521635368	2.0316202589239967	-0.8060362318669316	2.0610723443446326	4.953642832647063	4.644847858145933	0.7714658956123555	-0.16998487668035703	1.913470382627753	4.32626341681161	2.9527275487737175	0.29333510920851197	0.03448873004550413	2.5279626782488553	1.8079423858772787	0.2930417351476682	0.18084432139037396	0.5617079124574037
