time	FP1	FPZ	FP2	F7	F3	FZ	F4	F8	FT7	FC3	FCZ	FC4	FT8	T7	C3	CZ	C4	T8	TP7	CP3	CPZ	CP4	TP8	P7	P3	PZ	P4	P8	PO3	POZ	PO4	O1	OZ	O2
-200	2.300367587957389	2.4927055772789113	2.253965133698323	1.4043017590353504	1.5940464694785323	1.9959256598625055	1.1429069013350186	1.0544366809925885	1.4733854495042416	1.5823708732708277	1.1468428344381794	0.7197320443101706	1.510234590532117	-1.0946837636012405	1.3052952256625763	0.9040077901904391	0.5627195820906221	1.924679036049466	0.9464402770942631	0.8971589184998146	0.44143822677739764	0.27868932415218156	1.5860624273310264	0.19569083998863993	0.4196256388560134	0.17141646103495795	-0.13893395627230287	0.7150378805227363	0.04249396536946438	-1.3061586585446125	-0.9273310280275191	-0.06470943225973917	-0.524616001711971	-0.6415761693015015
-196	3.151882163673122	2.9025392459066564	2.6505770616367936	2.013149256391896	2.2616422119260107	2.260433668151596	1.3222675290102281	1.4371957742644959	2.1989984456809726	2.3388285577852113	1.5272154769485948	1.071058509029846	2.066711897400462	-0.7120085936689649	2.080003256314659	1.2506906954659667	0.9965643261544187	2.2152194920877726	0.8203358033449584	1.3816013301299561	0.7616271953427012	0.642217753696244	1.531523223824926	0.257865815703703	0.7561866025906292	0.4765700387843404	0.12947931853028913	0.8304958322537855	0.30030569358346054	-0.977184710419656	-0.6480599625437986	0.05316731692838177	-0.35544350653552903	-0.3126842073652266
-192	3.1752970138489904	2.5809764796897157	2.4129021106835205	2.0874736256347872	2.3441710412922303	2.0294337221405767	1.1765350073673642	1.475056406111656	2.500024073964535	2.4438946185398422	1.4938639364673088	1.1146877975930936	2.0185873457488936	0.14860904179246182	2.2794434966711057	1.288937446201007	1.1728959053944354	1.9305385302439617	0.7366098146914475	1.5217717847550025	0.8534293749243079	0.8033781627398842	1.007963774043576	0.359260796593564	0.8869993068234998	0.6042500123026929	0.2219543600439053	0.7873708585887094	0.4320994306622124	-0.7653626780259885	-0.4503810692383396	0.02153062256205066	-0.301701276732708	-0.1158311364110457
-188	2.27154206656105	1.5628944595931944	1.5386882981552856	1.483928080626916	1.7508141950272509	1.2544041840353874	0.6202986820772375	1.046736237744208	2.1701049749897616	1.8070819332274737	0.937104818839177	0.6942614299411891	1.336846467457612	1.1873657673421554	1.8185079051834891	0.8800193049147005	0.9067407227511355	1.0899364920754453	0.6273196919815387	1.239846345632201	0.5716100320689389	0.5939389452243863	0.15822592337714453	0.3924471726045946	0.7360920887482356	0.42441499126091364	0.03304539612533152	0.561137555612988	0.3222019068212535	-0.7865098694971026	-0.44390711076240574	-0.1782357092172039	-0.41847899450504183	-0.14875629506700763
-184	0.7118369918970898	0.15489743610851722	0.26670539311783237	0.35297402650407467	0.668033419352959	0.10106980775110988	-0.26919567517026083	0.2167412931215278	1.2829848495516072	0.6473205669272266	-0.04138202209753536	-0.15174859723878933	0.24796496269086607	1.9807075212061644	0.8761587120823455	0.07614353279916536	0.20432732947737106	-0.051620963830555595	0.395841001464892	0.6209137424051219	-0.05466173575428822	0.017302989916030947	-0.7219662052046458	0.2696474783765176	0.33366349255243233	-0.03905722861561765	-0.4008869518649024	0.21362386589951723	-0.03868930032021899	-1.017823812776006	-0.6125316008361663	-0.46603590132352507	-0.6501198990620353	-0.3665376594349177
-180	-0.9725205873731128	-1.1967599361721972	-1.0263785097911506	-0.929470238723107	-0.5347383008807506	-1.123155591036375	-1.2797919479483404	-0.7903096059872956	0.15272822937552194	-0.624732671590884	-1.1760050028673597	-1.2044826715576675	-0.8967696405657694	2.166521782173491	-0.21845604424158047	-0.9047265029953262	-0.7422583680486157	-1.139101979240743	0.005251994343253012	-0.15157717428084813	-0.8433916547462511	-0.7598455529102182	-1.3346903290429506	-0.028506379502565588	-0.22071467284267426	-0.6312829240119378	-0.931828377278402	-0.15034416279981505	-0.5532494769433283	-1.3274071183069445	-0.8398758747830511	-0.7147453409269173	-0.8694746472341088	-0.6224367006799327
-176	-2.2145953122492603	-2.0978379196607437	-1.9871787974730901	-1.9371586989131606	-1.4809849224846274	-2.105552906442413	-2.154998058600291	-1.6905031161542532	-0.8267172554124343	-1.6065322120159786	-2.162227386737556	-2.1651205961876485	-1.7986233188994645	1.6072999198387474	-1.1493654222079945	-1.78494548346952	-1.6476316410427667	-1.8988507938127352	-0.4837121951288418	-0.8890638328993725	-1.5567842682634063	-1.4960616789239183	-1.53139865011766	-0.4444686759217393	-0.8125503042686981	-1.1545571059641129	-1.3851633036927402	-0.4476653922222621	-1.0666393014680664	-1.5608434637716515	-0.9889878009622133	-0.8248139002956274	-0.956937549082378	-0.7622884492701698
-172	-2.6558334760369746	-2.372812741964546	-2.4319975314727116	-2.3887655674705335	-1.9600721548184443	-2.6653017930449296	-2.7063729694701655	-2.266022676468784	-1.3765466178471857	-2.0878121800162566	-2.7971284318875145	-2.7928030420363745	-2.335812085930034	0.4522818613554278	-1.744713540440603	-2.3609807431693457	-2.2680027427632234	-2.257620805762458	-0.9460938548997032	-1.4723159037610922	-2.021715397498809	-1.9963029572629811	-1.380362030358915	-0.874975917514409	-1.3552201952096845	-1.473536964510878	-1.6513508516580715	-0.660412369491219	-1.4400459491611695	-1.632609720876531	-0.9882226561391634	-0.7778953294187545	-0.871935901824605	-0.7164407950432727
-168	-2.285957330654294	-2.1173546260781437	-2.399703735014939	-2.2558336200980245	-2.003271574684657	-2.8182365823163993	-2.888055555681383	-2.445041173483847	-1.4443503581774015	-2.123166555766229	-3.0592920702942186	-3.006191007653628	-2.570595257944685	-0.9192769504225791	-2.0161225744843647	-2.5912001067543575	-2.5044307645509436	-2.3337526262489545	-1.265718099259508	-1.8744113397957645	-2.206099266204427	-2.197213882620903	-1.1132850618864911	-1.2168787687095979	-1.8032298042546555	-1.5774884184110234	-1.732263322271353	-0.8310661294935566	-1.608506675473823	-1.5676165779589577	-0.8716442562984553	-0.6392663105083527	-0.6740601045756277	-0.5354909287284292
-164	-1.4209606611615646	-1.6205514628503344	-2.0969796127781453	-1.7400263503965896	-1.832426543377718	-2.742074482670433	-2.799473755444215	-2.305943721671338	-1.1867927282887316	-1.9644960115425047	-3.0902070921125278	-2.9003016875474374	-2.6495327882629653	-2.0502316899988333	-2.099666590157836	-2.593777411587938	-2.4272315440885044	-2.317259782662665	-1.3966382706666374	-2.1308045333470425	-2.2136828843493426	-2.176056856383426	-0.9868318413614859	-1.4010764325054077	-2.13832902368449	-1.5687682589024001	-1.7212290720398125	-1.0175602410374747	-1.595867391371823	-1.472685690976345	-0.7534549813321145	-0.5128590451643534	-0.48478042956980927	-0.3539286842947094
-160	-0.5372449146058063	-1.2046697109325004	-1.7723398163870885	-1.1433283061725166	-1.7196410850977157	-2.6663579873476833	-2.618602984492789	-2.008394713099457	-0.8462201931569259	-1.9045524549082642	-3.093770019349626	-2.6748158864199567	-2.6731917790632176	-2.584528201253624	-2.1506934111654803	-2.5615765983757806	-2.214118236673683	-2.3257579744747052	-1.3746255601509252	-2.288209909383958	-2.2065184060654293	-2.084344858629137	-1.1426075668097122	-1.4040465319470665	-2.3474411905149313	-1.5886636932317466	-1.7332828001130174	-1.2396018473799497	-1.484334703512547	-1.4591658078546568	-0.7540108542478864	-0.4787772583794452	-0.4146621216795192	-0.3059070698644082
-156	-0.045819498482892476	-1.066121813943433	-1.5885239799447457	-0.7100929599953651	-1.8349529458447893	-2.746972315528551	-2.505383008353471	-1.7005283789615835	-0.6035396441480534	-2.116520637890552	-3.2133138098650678	-2.520107739761607	-2.6234407358691247	-2.399536842009989	-2.2579729500029018	-2.6461138658472807	-2.0460109659036547	-2.327764028394201	-1.2742568222298933	-2.3704745709652	-2.3057403506238776	-2.052862877431155	-1.5355143508290094	-1.24012934848488	-2.416255706408696	-1.7289674238421744	-1.8317422820574243	-1.4523069821883798	-1.3626699413227727	-1.5693966110660358	-0.9251851416117334	-0.5526662454956736	-0.5016788231581264	-0.44638886935065286
-152	-0.11758375138159637	-1.1994038789984687	-1.561996694435854	-0.5300531373946546	-2.165379518763899	-2.9931406899222943	-2.5292291577378454	-1.4600026570651905	-0.4980644869150392	-2.572640412511055	-3.456136456346726	-2.525870316803943	-2.395503514917511	-1.6418753820927612	-2.4168119369523358	-2.8767645286407983	-2.02121781792548	-2.181895488952303	-1.1446802587218987	-2.378284925178269	-2.5281612809247456	-2.1255907958724127	-1.968618268764763	-0.9484845971956081	-2.343556636615437	-1.9821227738881382	-1.9961324879793538	-1.5684087236860227	-1.284019824600874	-1.7533248618681412	-1.2207372157747463	-0.6882881504801045	-0.696177361638012	-0.7247688155949088
-148	-0.6400647147231032	-1.4393315278906955	-1.595003600861919	-0.5443155155744354	-2.546777718789731	-3.2837378895822837	-2.6563105516125525	-1.2923935619149374	-0.45541310195383017	-3.0814564150258565	-3.7049796487726567	-2.6576254300729776	-1.9057719659372896	-0.6605262143624525	-2.5633373195780003	-3.1577229420092054	-2.1291172450670004	-1.7624286368695703	-0.9822109316822957	-2.3133187235600663	-2.789905064214712	-2.2553083839695898	-2.2088763658067903	-0.588750420514433	-2.1604385321430732	-2.2545633259117785	-2.145702833480326	-1.5153069457896962	-1.252753731425724	-1.9060946654832889	-1.5262321195215733	-0.8163949826609382	-0.8977556802017991	-1.0213086579286457
-144	-1.3106795516301222	-1.5843412836128379	-1.5677908619398409	-0.6298062785460004	-2.7776179243531556	-3.455504170276545	-2.795317165946653	-1.1745040387064152	-0.3839622428259834	-3.408786526656703	-3.8032309912980335	-2.805495016644223	-1.1946048706411392	0.13868419791016337	-2.6342747144947256	-3.3386251842129937	-2.2875099124374834	-1.0824882956831174	-0.7542793731719216	-2.2026984636007083	-2.968903295650602	-2.355035775914458	-2.1157448238361143	-0.24194595156619292	-1.938432569378084	-2.4310612617149436	-2.1999230329283943	-1.2915098634537285	-1.2436962096285236	-1.939463848939384	-1.728372569488818	-0.8910827614221073	-1.0188118193653084	-1.2216963737160502
-140	-1.8067978574911914	-1.5249350032452462	-1.4305499755981084	-0.7004121524293222	-2.7442812850330256	-3.406265488607648	-2.864712469497643	-1.1025104494869364	-0.26953682235377147	-3.4081506643078443	-3.656419267959591	-2.8644888328710105	-0.4498661745157474	0.4518502045190542	-2.6070995264987613	-3.308810940971617	-2.408076041817531	-0.32607790745424403	-0.45884802821659637	-2.0976509994952	-2.979994527922404	-2.363542550795324	-1.7119399265935997	-0.003959943996057696	-1.7684582427198257	-2.4446024832994078	-2.1320347732121006	-0.9817225312242392	-1.231107708683744	-1.837321753631472	-1.776961798949882	-0.9111263132933467	-1.0319802735022883	-1.2786360946797741
-136	-1.9396367024087964	-1.3009185758170587	-1.2357348172459752	-0.7558663468350596	-2.484220498488688	-3.1515669743123453	-2.837341063011573	-1.1050490113015112	-0.20144133218927787	-3.0906085889987214	-3.2885255730571346	-2.7942275930429097	0.07128851842763022	0.18364599300748408	-2.5005924638556785	-3.058881990339199	-2.445430272603958	0.22953782917720944	-0.16772793191047392	-2.044600481593251	-2.8180847096818953	-2.282104963262897	-1.1652511328841346	0.03876339634406833	-1.7177296833538842	-2.3108067454169947	-1.9832495400901273	-0.7208778243937951	-1.2067913978625684	-1.6619096952440837	-1.7046079592582903	-0.9072913504581804	-0.9763857101584592	-1.227194067717673
-132	-1.7138981775881064	-1.0574631664280625	-1.0931074591694903	-0.8522053339422909	-2.1547555869059565	-2.805690281460014	-2.738736145734282	-1.211235400956512	-0.3063063613787504	-2.6063868933676257	-2.8244335580087614	-2.626258366629833	0.1805814053029335	-0.5253329263775193	-2.3493003785900712	-2.678589098843292	-2.4036548076978344	0.3615289917401201	-0.010653848732931615	-2.0527079053551303	-2.549828999757369	-2.1623973791840263	-0.7001178246941644	-0.15450458189579447	-1.7930647089510352	-2.110652441417941	-1.8322997046939562	-0.6268246754079289	-1.179664370419461	-1.508504744535813	-1.5963261087168563	-0.9084663368176711	-0.9228921509330134	-1.1498788566167935
-128	-1.279610988247259	-0.9374283528502009	-1.0844701501168954	-1.0288025114787562	-1.9303469609161374	-2.5023972924949205	-2.607567542168356	-1.4043961727924363	-0.6419209821706566	-2.1533739512435512	-2.4122009216441533	-2.4225640235772175	-0.13317082788700443	-1.3675218786045291	-2.1745715086393735	-2.2959666194168644	-2.3062884749358483	0.026983953944266018	-0.10584528717497367	-2.0803902096675637	-2.2642006816918903	-2.0593459554177165	-0.4897770869287149	-0.5483278022273608	-1.9319651078084141	-1.9358758877515434	-1.7425845817438905	-0.7400578241737089	-1.1610981196652497	-1.441401477989229	-1.5321491918027768	-0.9163260436764894	-0.9254360771656043	-1.1191912861223727
-124	-0.8171011188858095	-0.9752021407301426	-1.1905416220170595	-1.2443284956987046	-1.8891531181322634	-2.303372615720798	-2.447193377991963	-1.5961610038512455	-1.1260619135082852	-1.865973587093374	-2.131557459217944	-2.2159984055837305	-0.691354928655345	-2.0034527728043168	-1.9727162072920144	-1.9963781783244978	-2.1565613692195127	-0.608117757692403	-0.4748858499458191	-2.053665871203542	-2.015842194236049	-1.9829667756560267	-0.5782271609012618	-1.0285474035997617	-2.031496758100334	-1.8325972510799238	-1.7203223661857783	-1.0022509072748575	-1.1503242225214307	-1.4526507817785763	-1.5385626515644162	-0.9049642659227349	-0.9886680220438007	-1.154529926246164
-120	-0.43831336387597014	-1.0690362426470124	-1.2886141506085615	-1.3788264955040883	-1.9629142234834491	-2.157089466370889	-2.211108202120125	-1.6540653663835787	-1.5558716019449097	-1.7510430768626106	-1.9483697365206587	-1.9802379558158094	-1.212586280622291	-2.202146047754325	-1.7275750593437367	-1.773735876373493	-1.9243723105482262	-1.2493929831431934	-1.0031919454041955	-1.907163734389281	-1.7970734789299276	-1.884394164096122	-0.8672569372215501	-1.4384969436566575	-1.9993542382306193	-1.7766461327519485	-1.7098078684553668	-1.2839264837273914	-1.1300954790193418	-1.4680384360442307	-1.576706524682834	-0.8441788532878122	-1.0691632005400633	-1.2174967496650688
-116	-0.1555176969416451	-1.046285745840133	-1.2223304479255699	-1.3025182452695019	-1.9754264304831088	-1.9309761475447977	-1.8325139237867383	-1.471718307594083	-1.7127473311096886	-1.6937617020758966	-1.7386561588259524	-1.6478905636190173	-1.45275663962743	-1.9267059515945806	-1.4285644256763637	-1.5394107064481395	-1.5688859184708897	-1.6160485703675014	-1.478470798574349	-1.6208690363968958	-1.5513060053759313	-1.685500498330885	-1.1650232047230888	-1.6383311707140753	-1.7997529461243955	-1.6923257069775934	-1.6267938572819005	-1.4452366792429738	-1.077338096759658	-1.3955556119016705	-1.5705490072652137	-0.728384969779657	-1.1060775490491586	-1.2432646720014393
-112	0.07585252057236484	-0.7814328650772425	-0.9027304626561274	-0.9682165955893931	-1.7473783448924929	-1.4976340494491232	-1.2793953386430061	-1.039931771513829	-1.4927152357560975	-1.526623722036759	-1.365969058402761	-1.1634973258206913	-1.3184223141761864	-1.3321251835568733	-1.0786641808932729	-1.1807899445285577	-1.0796176167886928	-1.561472173563155	-1.6936713414346454	-1.228242990253782	-1.2148090570296426	-1.331202622867369	-1.2674310175367387	-1.5620101650855394	-1.4655419551087612	-1.498917695075765	-1.4065545761835934	-1.3950307334011038	-0.9780623292071131	-1.1823726862619273	-1.4531900846031425	-0.5859027490128337	-1.057500598144887	-1.1825811833088251
-108	0.2805238061021245	-0.2920757226722324	-0.3767085959937112	-0.4631565499533075	-1.2090616195670418	-0.8257981517923184	-0.5986373409415889	-0.4681266832453551	-0.9795175170009855	-1.1276625366350426	-0.7684022764832801	-0.5365057574078128	-0.8896976686903137	-0.6762740594955751	-0.6919065100367039	-0.6351268275437978	-0.505324004804807	-1.1162133188676233	-1.5511480530676753	-0.7942235449765899	-0.7603669147367522	-0.8308627584460965	-1.0431683037169612	-1.2399715153859134	-1.0724469396217384	-1.156537649095709	-1.038776871919577	-1.1228001089358322	-0.8338655808376544	-0.843870458856523	-1.2020310133149559	-0.46094658854455	-0.9191817618051131	-1.0260497305713998
-104	0.4168422807659643	0.25123137172211657	0.1830028439908202	0.022244997266396137	-0.4524152565500983	-0.01713641356075579	0.08754111059259764	0.061842162005929055	-0.40938883916490937	-0.4892438041732559	-0.0024176877862269056	0.1457744535103576	-0.35450819045207504	-0.1900550867289049	-0.2822190516022237	0.06597230566772931	0.0570447480728433	-0.44778028017477656	-1.11100017743944	-0.3782159378516304	-0.21588970666261065	-0.26023378902536115	-0.49181130404279594	-0.7782713751216931	-0.6951568705173891	-0.6852226836070456	-0.5696067795677405	-0.6934036595003922	-0.6564793570156446	-0.44801014548677254	-0.8437727072393382	-0.3798890104239291	-0.7170339804665797	-0.7979295233607878
-100	0.3980422903978566	0.6120231732175159	0.5644703493171894	0.29473709985705665	0.3077685825206885	0.734598157935357	0.6348184927171532	0.38682767651168104	-0.044811773932090106	0.2720705859944538	0.7795008997310156	0.7542955260306149	0.09896236633110718	0.026542510770303115	0.13970236444964598	0.8042002299985508	0.5081427680537632	0.23005729855627663	-0.5594359026135917	-0.007607507965878137	0.3480769089016926	0.27541443636023316	0.24881152745847357	-0.3094887427622409	-0.3703022589871043	-0.1523881103721311	-0.07544092814948816	-0.2135419840189638	-0.45632171515649217	-0.07064220291422066	-0.433528124191549	-0.3290430895127214	-0.48495501157391563	-0.5311423526705301
-96	0.16759934979085683	0.6240875705221087	0.6327220185517615	0.2678025358114429	0.8412187674264503	1.2386677233893884	0.9495218372213706	0.44767317062838563	-0.030428981331651037	0.9638762449724523	1.4010121786985021	1.180460450053071	0.3658654978574826	0.03500470510228018	0.5530402050360502	1.4254789316427108	0.795860407727279	0.7425623517362027	-0.10676240149007533	0.31867274561533526	0.8481074550196842	0.6909711343486052	0.9473718976897504	0.060654986496612544	-0.09154232568278395	0.3566384008463245	0.3701307764245184	0.20864686317217665	-0.2369710350014142	0.24519541797720878	-0.027995385158906	-0.26432037286781146	-0.24800473388999203	-0.2480293953117056
-92	-0.22682179453326415	0.29540374800486385	0.40797781841270403	0.015089582613756028	1.0183899376906533	1.404776808053011	1.0390964720240556	0.3190708152344627	-0.3159347466598457	1.4010335171612778	1.744798059826681	1.3894084656922152	0.4462440300642143	0.0018325598165691316	0.9107979513061081	1.8076713039535248	0.9398134923095111	0.9974266861528518	0.12542335657401488	0.6047636255254257	1.2191343276714934	0.956474182575064	1.3650124038565314	0.28648054527432576	0.166560843166396	0.7697738985653884	0.7200900894104324	0.4962199913847992	0.0013807695324130544	0.5030586706811929	0.333240537994174	-0.14495821260570302	-0.018548969132560215	0.041794802888014265
-88	-0.6195524319265336	-0.18400683952604324	0.058516826332886275	-0.2687555246720282	0.8733531214598513	1.2877887454897958	1.0066449616766053	0.1630604710038316	-0.6870996338662839	1.4842985830979043	1.8018608047769107	1.430492993557847	0.409598736920956	0.09016173310165962	1.1390248508305985	1.9098588180006408	1.012138840980972	0.988511619456305	0.15797735710789754	0.8331530073111637	1.432123180588338	1.0979286404546202	1.3560684885119862	0.38102507495047977	0.41713368787353544	1.046157953482057	0.9584887599587412	0.6200190170846573	0.25078710850340485	0.7332183104122905	0.6294751151404644	0.030503511351819043	0.19463309596512637	0.32714331067459185
-84	-0.7930771092418745	-0.5368672595774628	-0.18780158412724887	-0.3785726716497104	0.5843788370637089	1.0585644218421522	0.9935427879044484	0.13410814072605334	-0.8875400401595369	1.2468241421691493	1.667839165291369	1.4027309382309057	0.33785694752269513	0.3593918970094165	1.170346018697382	1.7839182570240546	1.0879371138761476	0.7779118399053156	0.1243705224831023	0.9673845147504294	1.49668430904167	1.1692209214254423	0.9421946382576313	0.39151340624190084	0.6478784067962711	1.179568049313747	1.0918700667470773	0.6015242322993515	0.4890058028272687	0.9581980681069054	0.850967464682721	0.2136058801980017	0.37689512872906483	0.581170676671418
-80	-0.5939078315998921	-0.5434891567813557	-0.1616384382935318	-0.21400713866561652	0.3822073330766147	0.9165082550751077	1.103137251929812	0.29529118463348974	-0.7597945313344193	0.8450089075688586	1.4926620684130922	1.398920055672168	0.28733956741265987	0.7287764530855534	0.995084402433027	1.5477071961427689	1.1995259493106605	0.4726285624492294	0.18012024416747063	0.9822329257961623	1.4538787566671385	1.217694875503802	0.3213330797188786	0.37093937303349983	0.8347848036670596	1.1944068640116952	1.1405857772640355	0.504862068808964	0.6861870867570766	1.1714284390437704	0.9945633982343607	0.33425268446454953	0.5111111389607281	0.7649940232989835
-76	-0.035359356463088645	-0.16089719493297652	0.1597025688430819	0.1652218099237364	0.43538474926697013	0.9905999873900277	1.3464549745897247	0.589499352874145	-0.32682883656955086	0.4971050905551567	1.4109307491919538	1.4601762257903381	0.2845697693792629	1.019015428831347	0.6969484669255244	1.3350161280304702	1.3224452700604996	0.20254640230062357	0.400208651009071	0.9002218819777991	1.3645757402300094	1.2646423546333179	-0.20648138172947045	0.3558598151759117	0.9696940755203552	1.1389906377645838	1.1355316610277115	0.41668537153898927	0.8201747515951818	1.3436242308071988	1.067781564877658	0.3502209773758173	0.5916149601304613	0.8499490597246598
-72	0.6871216279801505	0.45866882685253163	0.6495560987285283	0.5840494617975116	0.7780696133996378	1.2882605758566466	1.6505559641173537	0.8890470839942329	0.23452053904927286	0.4033157815287226	1.4953201971447845	1.575021978216445	0.3482923498896893	1.0554685566003348	0.45124235635316945	1.2531411616157857	1.4102239573159916	0.09495080238449788	0.7305845003756053	0.8121967891214278	1.3026573625100566	1.316963311685058	-0.36783844139688926	0.3628338864225708	1.085772750020528	1.0833456488914022	1.125105378171345	0.42200392378119167	0.8982914067476877	1.4559851848081826	1.1025375099955963	0.2885397367345046	0.6418027265557208	0.8497760274413138
-68	1.27907693063142	1.0514498922504345	1.106246707030604	0.8598443844067079	1.3048214879470974	1.7060784058411866	1.9118740510354089	1.0824912759153487	0.6987717730046002	0.6659045202608914	1.7405095056459192	1.7079441504272355	0.5010194765792857	0.7711351494393319	0.4575020659339991	1.3525555099670836	1.4426228963668826	0.23352038801362815	1.0169079278066997	0.8471224286626131	1.3387812342221361	1.3867772782598933	-0.045645072940978276	0.39349484344316654	1.2474980322812785	1.1054233284697554	1.1714643210398346	0.5728182778201303	0.9606655811850873	1.5264848432147828	1.155196067754492	0.24286116598324717	0.7126153093466018	0.8294879177131784
-64	1.4907023869071145	1.3807058299491115	1.360207673453318	0.9096057392043208	1.8314611865533732	2.092378849468838	2.0600578732931165	1.1430952520120332	0.9135771370710335	1.2443102566774493	2.0786540455789293	1.8346109343939316	0.7572485189392665	0.2541289919159116	0.8350568988697724	1.6169571835701635	1.4535540305632222	0.6157090648364753	1.091361758337716	1.10210311134557	1.5160938463080342	1.50027393915956	0.6569146497353403	0.4396280635224616	1.507432456979011	1.265130635882085	1.3300794329440573	0.8619915225200308	1.0592757436711058	1.6084830720345518	1.286183950037915	0.32242846407547276	0.8570731856641621	0.8782505370854565
-60	1.2427569596385244	1.350497003960318	1.3517618145192585	0.7875305990363041	2.1846041624226373	2.3240444601510286	2.0936627335140585	1.1358216972284563	0.8668688513803973	1.9674828002846587	2.41303729401753	1.957246417826067	1.095662829493849	-0.28899216578952996	1.5415093859853823	1.97393571832104	1.5151396951568787	1.130995985990335	0.8675563909561456	1.5751571615504543	1.8272070838572045	1.6850782590283622	1.4550983869054535	0.48664224024931274	1.8609650088055434	1.5755113323488155	1.6198539692989338	1.2181421487570674	1.2257651059674355	1.7598490670594937	1.526874776799919	0.5819559678643511	1.0947142811792885	1.0582137081131793
-56	0.6630659086652749	1.0356107924063913	1.1411551208294926	0.6360068305170399	2.2683656158397	2.353309386987542	2.0656654782594273	1.16033374970258	0.6641312224786559	2.592096083772359	2.649370902048164	2.088880772085092	1.4383031093523373	-0.633598445246326	2.3578684270456116	2.31720017801804	1.6838213162825122	1.5900551040558704	0.3922367384067464	2.139182562195519	2.203284258048082	1.9407491634960754	2.016254896795432	0.5177355395596952	2.2274804059056934	1.9835965583311335	1.9992326447555844	1.528961177780369	1.4447478019477604	1.9984490820973455	1.8510626507754295	0.9752542351895447	1.387387868239431	1.3582204546015237
-52	0.020485769905582405	0.6242832525704123	0.8584795572540868	0.5860248789296701	2.089225048512445	2.210542196414767	2.0342037626406184	1.2724481788933952	0.4482873368866006	2.8963959143944566	2.719246857453409	2.221575731390572	1.6667613941072617	-0.6397283657134849	2.967703096526435	2.5377132828537543	1.9447257469668706	1.8027145817065178	-0.16807787077906672	2.5841889316164193	2.5294010575329438	2.215511316427856	2.1216356700736827	0.5209619985778858	2.47673582405385	2.3780488907855544	2.367341989262294	1.6854679541949198	1.6518827635067042	2.275423521019024	2.1717560236458713	1.3644403184774216	1.6451437431761233	1.6827152924968525
-48	-0.409424572149362	0.3104441456109335	0.6269527061845831	0.6720017177781512	1.731832499900004	1.970453614982053	2.01615833727114	1.4375423156683451	0.3162859074236533	2.7680447031706605	2.5945997172651833	2.3080797137161158	1.6727378326145115	-0.3067353360061158	3.0984458845111607	2.5576598579681886	2.1973218862369635	1.666901345812841	-0.5971345290366612	2.713362210098882	2.6874427727558747	2.4136605201817276	1.7699941352025201	0.5017871844020545	2.4929501947404518	2.628725522080147	2.5993041926561378	1.6300574499936924	1.7634051993671047	2.4890911516288567	2.3733644425551943	1.5865877826687504	1.7658355191470405	1.8909884643495534
-44	-0.47888055322858014	0.19659624944165335	0.5028162585915034	0.8118871429926015	1.310411211520021	1.7085168318527915	1.974878663799006	1.5430932006023552	0.276125877398476	2.2485370579216224	2.2941346110596736	2.275337690330764	1.4164355957509314	0.24294455288107739	2.6545307569240526	2.3574833810413347	2.29780744926146	1.2270764081491834	-0.7212709766297409	2.4445636210711124	2.6088073187765537	2.4355399547120586	1.1697784632712638	0.4905499207509214	2.2430767956368243	2.6425037317316398	2.6014795237663684	1.3831459248907658	1.7227745012656468	2.5348675187007825	2.3654754102112205	1.5419168433360382	1.6882655577950343	1.8679084730671875
-40	-0.22695343139091825	0.26171481543267844	0.467140613807003	0.8674417712245319	0.9250647998342357	1.474893208594673	1.8539600325506462	1.4714256487889747	0.27193149855622156	1.516912575706602	1.8832452249663323	2.0695817418298623	0.9590716337785281	0.8413741567349874	1.7744048789047628	1.9872721383465728	2.141762012796306	0.6611624939438233	-0.4754051554121136	1.861795182295879	2.311246150857169	2.233712429129095	0.6245149358240693	0.5349666462743086	1.8078635885370846	2.409327977773233	2.360185855628628	1.0342577669734059	1.5372986754705007	2.3657207429284965	2.1318888610420585	1.2541336981580797	1.4313001596553574	1.5899053771885725
-36	0.1625635768839161	0.40141057866793217	0.4636376190400751	0.7432748656580488	0.6396502240243817	1.293409344268635	1.6314046341715045	1.1839216917664392	0.24688099262371757	0.819184599238673	1.462094541672946	1.7037008957763886	0.4441576588860865	1.3578308786442552	0.7773972134036242	1.5527914723292733	1.736115332034882	0.19694873640880387	0.07953060398287838	1.1834908693950905	1.8960841846278256	1.8496588421852238	0.3725536456238761	0.6760928017712707	1.351158853934233	2.010708326985217	1.9544103096255248	0.7003995162446617	1.2811325756152436	2.0244178720861017	1.7448055700119036	0.8643829800716711	1.0921239825331794	1.145908710447618
-32	0.47019883871573986	0.5042609559679219	0.4482977080947654	0.4569617796327967	0.48224741098718477	1.174661394968225	1.3536355461276868	0.760237274634693	0.19383212875065692	0.36855024006299986	1.1379152507662613	1.271610137589969	0.036308590231062546	1.7328878597377326	0.01968976664042312	1.1762198180065877	1.2120130031502885	0.003778724921640114	0.7846851329065558	0.659978388073705	1.502449985525526	1.4042069876503969	0.46840757013314993	0.9163359976521417	1.0423451635746912	1.5821100433459492	1.521477576229134	0.4730227577664562	1.0592840883213532	1.6258048970182841	1.3330105509481316	0.5594415054501863	0.8012883046900457	0.6975979191333573
-28	0.5543137178731059	0.5186143504400448	0.42198565495761414	0.13844744826171326	0.4566539812479537	1.1289854021178476	1.1250389785972328	0.36971995141144126	0.15914423723571927	0.2654671364280723	0.9898998712342636	0.9159915424108545	-0.14428448640634658	1.954005713297811	-0.2640894346722123	0.9483741497891182	0.7662067990031664	0.11412549735104005	1.4441606961982052	0.45479857806774737	1.2411960332050873	1.0425848934553728	0.773086963132219	1.200738307782331	0.9716750954891085	1.247946378418147	1.192933556405857	0.3818188896075942	0.9513947939694191	1.2991909947972506	1.0209910843820842	0.4739654648258437	0.6589761955789819	0.4012485732438417
-24	0.414704828407393	0.4750616836474626	0.427466778868031	-0.04104216013917445	0.550829409162268	1.1656322449818661	1.0519336435462103	0.18457251740585587	0.20257902094239455	0.4684531378839657	1.0377939913297123	0.7591925840283523	-0.06020520239769245	2.008789534265452	-0.060038760152867694	0.8914292432213119	0.5577864036782421	0.42174103749607356	1.8926243734259285	0.5697641954341949	1.1413205833229714	0.860805568905929	1.0543785068594345	1.4299415313857773	1.1058843107912846	1.0622409555319055	1.0327185366306124	0.3924793293103697	0.9676713919050092	1.1217448683073927	0.8700062610595184	0.6193435176471234	0.685217080770451	0.3320361665448832
-20	0.18127775146492509	0.45847114804863315	0.5180121051107548	0.03595078354937925	0.7392481546811243	1.2816423145360758	1.1785403460311246	0.2888776354648832	0.34553724440119243	0.8284612277095145	1.2335846392957766	0.8397808053748744	0.24409121213321014	1.8591779423503996	0.4375153470914096	0.9538359021900319	0.6239393337709266	0.7497860770368733	2.044172520244844	0.855370400176518	1.14139866540743	0.8578257539071962	1.1276464433809938	1.503520723361568	1.3106924262333612	0.9888716315098394	1.0121356223301623	0.435765503736834	1.0429753038776657	1.0820912095406263	0.8539863207236831	0.8805502630890191	0.8126035908209928	0.4521305847673698
-16	0.04023576890204413	0.552224575079003	0.7212078553110832	0.3711529960798355	0.9845187043128827	1.4530076943905903	1.454928275249694	0.6365132315777731	0.5479994998447668	1.1698199481039226	1.483275767396141	1.091878530606614	0.6787804348020523	1.465150591012154	0.9403256154161282	1.0405251953557144	0.8642120935555315	0.9447009539594639	1.9007515859298234	1.0985256405751833	1.130317923553082	0.9409219002809558	0.9539662575478266	1.369985696194744	1.4254206383002677	0.9311944222781715	1.0336379978785961	0.4472265232238889	1.0720720264070478	1.093970176795791	0.8809698797871784	1.0785723897405506	0.9229065752570126	0.6369889362465244
-12	0.13828086818114782	0.7879641632213056	1.0190865967770293	0.8546295144438304	1.2411426274435036	1.6378636318816375	1.7599261954696384	1.079947945729204	0.7286996823032765	1.3717924321826143	1.6901165204292161	1.3820104564106614	1.1496263713421624	0.8458213784797407	1.215147015364666	1.0645269128625598	1.1039506169103634	0.9483816003696963	1.536182280476676	1.1391832799760115	1.0168462966041576	0.9849814747737504	0.6516967399355871	1.060689804260187	1.3525128330415321	0.7973031977550693	0.9938145850839379	0.4015819718235511	0.9704651808078676	1.0539362403963177	0.8509426095459124	1.0668021413571815	0.9102367735769646	0.7469707708573052
-8	0.5204541670056817	1.1316080064813434	1.3587911094691625	1.3348493542348099	1.4653996192173968	1.7939647390848712	1.9697074840406386	1.4570493661333157	0.8224769809938188	1.4114012682566226	1.7990633203860855	1.5856769044895926	1.582391019640711	0.1385160234053542	1.1889152496838244	0.9934329961490493	1.2027331560286372	0.8099669197613656	1.069931862037146	0.9519068574713916	0.7888002375714591	0.9130671597316228	0.41594868793374773	0.6853622776847572	1.1113733025147918	0.5628582820986643	0.8490371682665434	0.322425245424663	0.725870309427577	0.908048925491363	0.7157362085391618	0.8082477429964494	0.7357276063463543	0.7009972912256048
-4	1.1218538255977673	1.5059977731828895	1.681968684718281	1.704734201895606	1.6298106867649453	1.9004816960989617	2.029405588748314	1.681436057613913	0.8309439399720755	1.3558294738870402	1.8190855933991936	1.6570509630328403	1.9297233771240716	-0.4104064096579457	0.964067933509566	0.865197537145115	1.1401624650779094	0.6422939284320747	0.6273038967507131	0.6514978392364738	0.5264747725545985	0.7479987721631509	0.4015429605836441	0.38297703765497837	0.8262118080260152	0.2937353543971682	0.6451298578186829	0.26529544524923027	0.4089670766995436	0.6863147599058631	0.5067027794442702	0.3921155919665463	0.4445295322639013	0.5126375543049272
0	1.7992337896697126	1.8268803311953707	1.9481192778039447	1.9442444990661691	1.7310508445903932	1.9670637796329455	1.9816328237093215	1.7817243292647011	0.8227334597796397	1.3118513789434478	1.8100455953675132	1.6490598875372686	2.1674349253291445	-0.53918057544	0.7430770974471834	0.7642499785201308	1.0254850361682233	0.5587658271987185	0.307856380162221	0.424588619590706	0.3624645760444749	0.6029841288601493	0.6418775899893697	0.25677952105541413	0.657312451133567	0.1158729714209918	0.49539241069650475	0.28737103866502184	0.14001555705482752	0.4873289453600363	0.3177956334673575	-0.013252197731355317	0.14045987987818387	0.27493020822730047
4	2.393959754621726	2.041624540896419	2.1477482264652745	2.1092572158965615	1.7902255013089725	2.0265924879405968	1.9390588949838026	1.8746161413546958	0.8931753612855984	1.3647828067654364	1.8448430253181103	1.6760096507672617	2.2982547225147254	-0.10819589319330425	0.71002703725841	0.7735711912651517	1.0290201876409264	0.6311250313083264	0.16743609266922924	0.42865431200521525	0.41138222709742234	0.6183955653790089	1.0492991182537896	0.32799675977865356	0.7179728728287113	0.14942838213863688	0.5205880390375093	0.42243462694325123	0.0299959237861288	0.4240933347961954	0.25564944679564827	-0.24301734505332556	-0.06504222734242174	0.10697815540245632
8	2.7869129110545416	2.1433145945794956	2.2929124774262846	2.272859090788682	1.839210505610346	2.110999340449658	2.0125167319031365	2.0836241192663323	1.1006725998745723	1.5371535977654835	1.965350265309269	1.8379847956982795	2.3569242894747533	0.7954531887952015	0.933150467900827	0.927176115556139	1.273138519887441	0.8772842265867975	0.21124149805618217	0.7109008413486111	0.7058810573875909	0.877943453956349	1.4832268915875486	0.5306540714217629	1.0180836890265705	0.44212573655082354	0.7821898440639788	0.6699376089347908	0.12698450652486917	0.5618028626562912	0.38457816742121487	-0.21030114538025738	-0.10164531294670506	0.09587141102189067
12	2.9256613180681272	2.158393854413861	2.395083659800773	2.4610960421414325	1.903086895906227	2.226222032648373	2.2388484421471335	2.4540023741753334	1.4173020088651989	1.7859007075042788	2.1571953242197432	2.1528963988308165	2.4004645286989312	1.8560236645568495	1.3389444317391193	1.1890876263160797	1.748680110331101	1.2693167892833812	0.3943022777615778	1.1881167858644293	1.1735763520174733	1.3518862690172353	1.8331559850186376	0.7496876697685976	1.4610006772347899	0.9375132298641468	1.2436469761920634	0.9959199403413789	0.39422085781702015	0.8812528826398575	0.6935754996908458	0.06169292315165917	0.03500620266897639	0.261674999530069
16	2.8217647004410367	2.119682068241457	2.4470987258162986	2.6282131605549512	1.98613166307632	2.342263931082812	2.5527722771089465	2.913774959837029	1.7318010286476422	2.0306122251741003	2.356307739030753	2.537112468035935	2.483111375261508	2.656925433126503	1.7610253051165217	1.4691514931779561	2.3077163638024825	1.747840280888336	0.6374426468014092	1.6928268628295997	1.6672624307499786	1.9020401191373244	2.06723188832017	0.8838953353500133	1.8941271257262116	1.4959077797314968	1.781846518786182	1.3444757427603102	0.731071112694323	1.2885016170395096	1.1027133436972396	0.46288877608733014	0.2918978028080271	0.5607118592410769
20	2.5271100934121407	2.039571041679802	2.4176793037409174	2.679493897348698	2.065976376085791	2.4029006897340404	2.8153476644007194	3.2988233482996896	1.9016163301140414	2.1902754251494074	2.4789717134830194	2.842144958949762	2.61452054317314	2.8896439002513477	2.0261604734763554	1.6627953010539207	2.7334377696642846	2.226887458900965	0.8556212761257441	2.0533769078864004	2.0288958498274816	2.343635076327763	2.220028156397531	0.8969371296171653	2.1807470266596702	1.9542936037313492	2.2396414223392234	1.6516988235733916	1.0224773858004508	1.6612919527071912	1.500518198993233	0.8538352825542036	0.5887920841610259	0.9156647897490207
24	2.1058011001826307	1.8993164252965449	2.2634174766615187	2.5276110108455687	2.1010136551263585	2.352010720990455	2.8849935458777125	3.4313423546942374	1.8229751540888364	2.211999410766557	2.4599351820827176	2.928353779075123	2.7283046176691883	2.5131478246180463	2.0348613210801205	1.6949995713354666	2.849143736321618	2.5934095317213135	0.9813963746088518	2.1687977259238482	2.1555433218893194	2.5316622193314338	2.336960786641245	0.8277965167126575	2.2587778511239165	2.195243353069604	2.493170731925564	1.8590453816207537	1.191208478781123	1.905651922183015	1.7918838217317266	1.126170513170792	0.8528315999433648	1.2519060341698685
28	1.6162124831402198	1.661050315477882	1.953857297732695	2.150138372714733	2.047305101947751	2.1626079027888414	2.692033999322042	3.2115442671754435	1.4817333184025376	2.080518240444218	2.279147619215188	2.735656016118645	2.697388880595143	1.779902334487807	1.7957682564219315	1.5469295939489924	2.60592221555813	2.7232851913360356	0.9867899989009592	2.0421581216751012	2.0355660863981653	2.42614054067329	2.4227888522967422	0.7612783889623562	2.1584882681709465	2.1911830846777556	2.5016033586285165	1.928457493681528	1.2274380891327672	1.9935628125402851	1.9344266604221334	1.2401418654602514	1.0429805490863928	1.52223777386668
32	1.1075136633567508	1.2967992988270318	1.4977363310192995	1.6121332604713807	1.8800942850328812	1.8535140705995627	2.2751975002066063	2.6744253567883747	0.9596859192460323	1.8161240770263607	1.9668570707253863	2.31273650539137	2.4024698673626914	1.1099276514640595	1.4087655508713095	1.2560750214335128	2.1014296955458405	2.527575963314529	0.8941545463874964	1.764476175621725	1.7418637231717968	2.103342289382564	2.434415811114433	0.7766882757604556	1.976687426344793	2.0053911158475186	2.3171710909514633	1.8568633747903251	1.1844935387269706	1.965617651745056	1.9480454872538993	1.225979086641639	1.1563043565166473	1.7122977928799277
36	0.6245472415414559	0.8166292289143141	0.9528876518986943	1.04118537639958	1.6098633963947753	1.484737511700922	1.7618690684658318	1.9791397998432403	0.3946308781673949	1.4679363928926328	1.5877549608197954	1.7911226704198666	1.8262627078677676	0.861700055807815	1.0135792468229774	0.8941523410156452	1.5234693250339197	2.01109718768675	0.7674388866122077	1.4651362858974442	1.3904893363178432	1.7105777220453422	2.3182039202335236	0.9033500529370033	1.8270227862960244	1.7536858275959895	2.0538270421626077	1.6834025340493777	1.1461024255426489	1.9015983295113648	1.89729117868148	1.1571648091664524	1.2192656963082467	1.8327785684088729
40	0.2210809284827331	0.28901487515913205	0.42181125176744166	0.5789515957520328	1.290595766623761	1.1386076183182243	1.3108724322601284	1.3459056581848616	-0.07422533612584672	1.1088020773549627	1.2185556857814748	1.326132771004864	1.1111906738836612	1.1347985238988252	0.7336501460625979	0.5392943607065889	1.0590876314126696	1.3040709462619806	0.6840773207559335	1.2566310135585739	1.0899133654733308	1.3949996197766095	2.0629281945596736	1.105928895065464	1.7913416578842185	1.5503181179959182	1.8340487433858295	1.4817999563952282	1.183928725114505	1.8789679956680492	1.858825559691377	1.1128003569164013	1.271689292558031	1.9081379127010305
44	-0.044562287516141705	-0.1716805990176132	0.0222745071534209	0.32749208725261447	1.0055727933290928	0.8892319179972148	1.043838140713256	0.9641132926441255	-0.3527694037590774	0.8225997069571015	0.9250289774428161	1.0318039629634879	0.5262129293507614	1.7100989775397148	0.6347826703257335	0.2526040070831835	0.8147813061170083	0.6323514564761284	0.693869112170268	1.1946663826343922	0.9027152038671035	1.241620060646949	1.7301678613849198	1.3024908271329745	1.8911651325162215	1.4629324637670829	1.7386540130587458	1.3364272083873203	1.3237999644235345	1.9386284302403214	1.8882993412026563	1.1448193759624532	1.34885835307029	1.9674748132622788
48	-0.12999962237438106	-0.4478430438655666	-0.1569358106465608	0.3138761512461131	0.837978420526062	0.7766979913175295	0.9992260311647884	0.9141366458701274	-0.41021233693504705	0.6834707242875859	0.7464312296141605	0.9412344670373687	0.3479261389531139	2.1748173181938064	0.7124742847574193	0.06660269183986287	0.7859114388650685	0.22902375401848082	0.7912557701160713	1.2685253588120518	0.8344662764461842	1.249872919741713	1.4387435876761154	1.4062019551059923	2.088154072257825	1.4957215748216885	1.7817783310727313	1.3114203181535204	1.5349738559115509	2.0735666699509046	2.0002534338994304	1.2622448174079257	1.467479344477649	2.038233513454419
52	-0.03751963740055134	-0.4728848326187942	-0.0952685025909292	0.4897980081589783	0.8335647561962325	0.7942286709760276	1.1297905416574408	1.1429431409589506	-0.2702174179884209	0.7245151382273852	0.6883045417573763	1.0091905568392459	0.7044981104230039	2.156516308108176	0.9037017203402902	-0.01564248274787721	0.8864082075627546	0.22417029681828649	0.9092999077727504	1.4174485170816868	0.8473206737106355	1.3549532856110542	1.303340550946747	1.3647527660245453	2.3067438544207826	1.6022106368620945	1.9174654435383818	1.4227987491925074	1.7454324916640684	2.239876503057624	2.1657009070077167	1.4332076274926435	1.6173632104093483	2.137162203161313
56	0.1606536652562003	-0.2765362851790408	0.13799415493934086	0.7519540171711703	0.9678864454628158	0.8879242516987891	1.3304856982018207	1.492868181274205	0.003249988650148254	0.9071353054985524	0.7177055459975685	1.1412234277522328	1.4656598530958291	1.5290733537215533	1.1077746124909187	-0.02056720475130118	1.005169746722139	0.5689005837382246	0.9441912746432763	1.5566170176305887	0.8819389917041347	1.469212051496895	1.3681071962147457	1.17918145358871	2.46270608280204	1.7116640762982755	2.066167826204326	1.628188963593991	1.8708832216711273	2.376512521465703	2.3237929285507115	1.5995281894353954	1.7596681073584126	2.257833236715901
60	0.3256553701284981	0.00792773997272215	0.39651116628673205	0.9746881102748973	1.137749549854204	0.9691724752752426	1.4794957600433187	1.7690517857710004	0.3158023349418115	1.1094548674228948	0.7620025257899042	1.230445858709829	2.2655174675009433	0.48448207852113934	1.205736514861997	-0.005888917002860004	1.0523681614055258	1.047392961718685	0.8094819167680527	1.5984837968522778	0.8743567444660454	1.5170181951368773	1.579087372607731	0.8976156688915752	2.4833199915176953	1.752995605811233	2.1455011313629155	1.842633004304708	1.8441798640420135	2.4233834682315205	2.401889318124045	1.6972465472285363	1.8344519092020724	2.3616497457006154
64	0.2927373342275688	0.18666589212972712	0.50603145233186	1.0467054817475814	1.1908640831444803	0.9391639208923889	1.476220246402602	1.818165178476896	0.5540508613903101	1.1569106549617718	0.7208994012751493	1.1888841360593303	2.6658806733535267	-0.5751510247968151	1.0883939238725528	-0.05434354380953875	0.978642342003958	1.382578131046069	0.48552369948828183	1.47244655714211	0.7672383765876896	1.4511092864592872	1.8099948122102927	0.5938684329297951	2.3221814573786324	1.6711707072980335	2.0951387829335495	1.9752110192974344	1.6390387970550622	2.335542434517751	2.3406319559129822	1.6801265435715038	1.7821371510333732	2.3845140873787285
68	-0.06362265332371272	0.08227518180101842	0.329687356116472	0.8993424750510033	0.9870964263789759	0.7190543991054301	1.26323890367098	1.5814095695623174	0.6007662400336566	0.8931205250125435	0.4948540615462526	0.9642415618393583	2.376804107387208	-1.2633001772456542	0.6939550620678171	-0.253752558782783	0.7666261176781026	1.3759386504720117	0.037583161050560324	1.14416837403386	0.5182302581100819	1.2492341963699127	1.9263176869394938	0.3418914071034209	1.9701845596162162	1.4357244932165747	1.8896933746311435	1.9698533962106803	1.2813887563778414	2.093934530693548	2.1172842925974864	1.539587493824097	1.5735368688909708	2.264190668111593
72	-0.7666455487922503	-0.38757184049982296	-0.17529261067956006	0.5265884386118982	0.4636294234014392	0.27527373959659607	0.8322699048964012	1.1065136166292342	0.3654551496815625	0.25500467355241835	0.022103464175089158	0.544704257066679	1.42298423884658	-1.416574355363618	0.03599943211526404	-0.6671482903802792	0.41392648115555863	1.0072991822560085	-0.4056093384515666	0.6269057973292633	0.10736508640361946	0.9038915611334205	1.851467485521722	0.19643598745341814	1.459170218598359	1.043939826236986	1.5398348530992902	1.83049714103121	0.844568846477593	1.7135698752055124	1.7590243771964635	1.3135728802895044	1.2350788085272335	1.97884428001519
76	-1.710892553778251	-1.1698662013081516	-0.938086209312926	-0.014509946071230288	-0.3266498438217423	-0.3673120429778844	0.21958811525694127	0.5149483667723901	-0.17412184134867653	-0.6796525103575592	-0.6886010748643852	-0.042504008752083676	0.1485709544245465	-1.1617498368495784	-0.786028323573178	-1.3010525670581756	-0.07334644328911079	0.4360664177852228	-0.7094645482270847	-0.015291456094519998	-0.45363965515998306	0.4204740513676043	1.5991970260298596	0.1829561735540789	0.8601499774196997	0.5242545591469655	1.0873575183118152	1.6189429719104866	0.43178346644105575	1.2482309309915862	1.3412367071621036	1.0795196267529295	0.855316994414934	1.5773322542421062
80	-2.693002932425064	-2.0966186470502968	-1.8027856304429106	-0.6228748544225704	-1.2290348975622685	-1.1312900753069142	-0.5045300113337586	-0.05583690092771282	-0.946156976218361	-1.7105604366984009	-1.548740859889854	-0.736049590636618	-0.9505450105510017	-0.8173045495379143	-1.6103912551275734	-2.08995365568834	-0.6718434078420275	-0.09693729107939551	-0.80163246190811	-0.6798993927955955	-1.1163474293180293	-0.17345368818359252	1.2607873646375576	0.29333573505728056	0.2712517075842745	-0.06253632142252097	0.597186683100708	1.4278591835211618	0.14845418892572632	0.7856636027527182	0.9686357354503954	0.9298539138205575	0.5628461823558054	1.179282662275283
84	-3.4912891299792874	-2.957557193918384	-2.592466824661926	-1.189043399669768	-2.0524396844543182	-1.9104930114194498	-1.2504752842802924	-0.507378159672515	-1.7921746923974962	-2.5976829463223403	-2.413590901956806	-1.4500874244318378	-1.483108755181902	-0.6871746761138666	-2.2704160156147966	-2.9087612555497606	-1.326534625518925	-0.4108035852074038	-0.7076436859384386	-1.254152414016492	-1.7998024179794343	-0.8158110359575481	0.9564890241315757	0.4889479863219825	-0.20494374581092067	-0.6284659489023202	0.14701335095004736	1.3421380485981216	0.0724025143345085	0.430550961599502	0.7438083272274417	0.9389241314070629	0.48113965866683095	0.9373202300248513
88	-3.9611470599300955	-3.592347612847919	-3.181358806207343	-1.6383951861024024	-2.652468436220031	-2.6010391646518793	-1.9269903849587304	-0.8115768412126843	-2.5181393559775143	-3.1629791179908078	-3.1290819565926253	-2.089578384845782	-1.3640717233550612	-0.8792068340038184	-2.655310624094325	-3.60900854153205	-1.9480572889735348	-0.4808608877439203	-0.5395001755444787	-1.6468428331758007	-2.403811687122487	-1.407971259377038	0.7842367271650427	0.7092406731818736	-0.4864575850602648	-1.0713404389989218	-0.1840172405365303	1.4100309574766963	0.23255440534051464	0.2777670614859004	0.7372663002473462	1.135747191422675	0.6813172680819327	0.9785817836850191
92	-4.090263356372296	-3.9488675494630514	-3.5340788275183486	-1.9523488233865278	-2.9886379166487504	-3.1249108235617746	-2.455367558955822	-1.002427217813658	-2.9676251336512656	-3.3652298365506086	-3.5814113526521414	-2.566889994816223	-0.8456452467548741	-1.250006434145673	-2.753204338751952	-4.065509309040996	-2.428527110644071	-0.43069875131584945	-0.4366024721566569	-1.8155237390456989	-2.8307337689456133	-1.8320718957422	0.7898972610557805	0.8858544208095447	-0.5354483114075224	-1.2974327769901053	-0.3298478118198022	1.6320148665231742	0.6004682168105321	0.38159516357399464	0.967827615678571	1.492103215265089	1.1519291371826008	1.3496124710340844
96	-3.9839627642181945	-4.078316678240838	-3.693327894422802	-2.1571702902690006	-3.117712728258293	-3.4336645516488233	-2.7760667730814372	-1.134069320676484	-3.0786056440827365	-3.2960019028417253	-3.7223780061200875	-2.814281933354826	-0.3557194164354977	-1.5079972705914766	-2.640604489335312	-4.208040226802478	-2.670366518907997	-0.42654579770160933	-0.4950652408021587	-1.769803638758299	-3.0043003483261255	-1.9824063727872634	0.9654968952598034	0.9605445837564986	-0.36619266775182874	-1.2442328898487263	-0.25107562478571166	1.9678415010360113	1.0998920174485645	0.7370947580801157	1.402335401809175	1.9344490717685126	1.8032991840609989	1.9946900555794314
100	-3.7872400188194857	-4.071403493138663	-3.723199834960176	-2.2824883403371246	-3.1259238641018197	-3.4931940944214994	-2.844088547201691	-1.2270495860591022	-2.8930950091751293	-3.0990614812808466	-3.558497658328279	-2.7854852606064857	-0.23131886066208504	-1.399323817534857	-2.422242158496243	-4.022882928228206	-2.610372536744404	-0.5455497489506832	-0.7148874980043477	-1.54845547285139	-2.878009312039145	-1.795916910405626	1.2677636114537456	0.9065997577665976	-0.031287938277405086	-0.8938903786025187	0.057686779502420446	2.3555536210669588	1.6328505236408155	1.2822585073522081	1.9732282111893422	2.374358409608959	2.5041587289528757	2.7778749395807782
104	-3.5889923481926935	-3.976274480317317	-3.6431915668058537	-2.3104469717820386	-3.0453271788957608	-3.2653834737350693	-2.618046038693414	-1.2306487529201322	-2.5098762448838747	-2.8647851871640855	-3.115557185890078	-2.448126309889632	-0.5043599592826438	-0.8593682625054441	-2.158118719374272	-3.529036274583082	-2.2253420296751307	-0.7003403884371938	-0.9949555371913479	-1.1856073111164316	-2.4338414607588277	-1.266167041442823	1.6409082371290775	0.7435596566500666	0.4064506282081248	-0.272295802144169	0.5699949250135379	2.7319519450830754	2.1128411239685674	1.9212766837249873	2.6044163638163265	2.7416956355491973	3.132497541148211	3.5387313276591903
108	-3.3636584196997177	-3.749600400994595	-3.3940720472474424	-2.152037138273904	-2.8038880754251356	-2.7023470333536213	-2.055667395170046	-1.0252790425163998	-2.0099897333896193	-2.55688261340228	-2.4038054882394464	-1.7781928732799648	-0.865945038993356	-0.05219879733258143	-1.814184780308845	-2.748082869267202	-1.5224366149611488	-0.6736257059256013	-1.1833236187622729	-0.684328315914449	-1.6782191949435068	-0.4377225328361258	2.030857796309955	0.5334157334211685	0.9014924145826235	0.5628662691210441	1.236528751112379	3.0454430503249115	2.490970366864591	2.558048718669722	3.231604567951823	3.004348270460404	3.6148624328899515	4.152261723525336
112	-2.975432865259971	-3.2657320416968356	-2.8531525063005105	-1.6683735805350761	-2.2439386787981004	-1.7619792178490985	-1.1228114338183108	-0.4679996955499817	-1.397939440058799	-2.0187025019223093	-1.407855864785044	-0.7643936257136769	-0.8316211679443037	0.7364086490158385	-1.2708649603228686	-1.689636345412118	-0.524862764940718	-0.24917226966890466	-1.1436438531611608	-0.014832910112840037	-0.64147949056792	0.6131541117446287	2.392191642443573	0.36091259030773165	1.4395559989823528	1.537748332909551	1.996529097284688	3.2599308408447834	2.7659392287039304	3.123810998659156	3.8085586928531856	3.1665103355569655	3.9359779258536265	4.562723148270271
116	-2.2526400032390224	-2.387952083280693	-1.9007320356063864	-0.7378267031161095	-1.2166695564069645	-0.4460521627131668	0.17841564073816532	0.5340576158391341	-0.6006488188837455	-1.0731689902867245	-0.11588729888744352	0.5711341485862537	-0.020368657954765335	1.2755277124625855	-0.3999016870892528	-0.36859977152268314	0.7292395215696443	0.6432285888644378	-0.8131438473198729	0.8529158809108645	0.6133130177271988	1.7966921284136175	2.6910488537556816	0.30049589200445864	2.027437204964221	2.5716273719710103	2.784915440203872	3.352929583667235	2.9713888093314607	3.5856199173998164	4.299530972115919	3.247803441430822	4.117688645457107	4.7778639672766525
120	-1.0902360650193301	-1.0612473461060083	-0.5027593957605313	0.6595410091914474	0.30490177792816453	1.1637278765861006	1.7756741002074057	1.9551589439620136	0.4665788698337356	0.34761315496418854	1.4309362136952777	2.145773405379562	1.61031233857809	1.5245896539342894	0.8371880033336911	1.1575823993066945	2.1704943125284517	1.85193657407492	-0.21932235304771996	1.9022921275747986	1.9798088023745102	3.0158095283660376	2.9052803443036663	0.3860897114065801	2.664082043597326	3.578537931944064	3.533366909642949	3.3116028225258476	3.147929660478755	3.9358308215906925	4.668187129632417	3.259604207392239	4.186132897298462	4.83529423446564
124	0.47737389682407416	0.6275339706789652	1.2379838196969621	2.3932466446534337	2.1601619665920135	2.8961434291198254	3.5103483111445466	3.6271886733983814	1.8124834253326716	2.1130902713830997	3.1026153486119616	3.804279794624853	3.7108969594724384	1.6597377019939523	2.323074573373692	2.759279959387858	3.6797325518210187	3.0537192744403687	0.5507723079127173	3.037933103520752	3.311015120729846	4.166161049814707	3.032055370305001	0.6003957375626682	3.3132119095121415	4.469917286077825	4.173146714164745	3.1353084961887214	3.3164126789284984	4.176925648633964	4.878724562725129	3.1957797923464706	4.153066147809193	4.770380961771864
128	2.2679617347677214	2.4544825491924316	3.0890126150342447	4.199462403185218	4.0232844251144	4.519542205843892	5.1559290755750595	5.275441156419561	3.309906235921244	3.899754275966445	4.68482254752865	5.335885988115097	5.692983136108777	1.9641804645538605	3.7894053363494193	4.236810196670026	5.085291849648665	3.90621136632795	1.3946336472586127	4.086834420376315	4.440260399098258	5.136241423036876	3.089496127911442	0.8817008115442136	3.889729251577693	5.160833345734797	4.640438068118004	2.8391301560246345	3.461427203022211	4.309688557234317	4.907577502257995	3.0407059115887027	4.019401540144956	4.602174747291759
132	4.013753880857457	4.131782521306533	4.758215892222499	5.765536293731994	5.520679459938577	5.809185967083704	6.478614313934819	6.607744200235995	4.708725440534707	5.310110078756347	5.938323482779391	6.529355509485421	7.010721665801826	2.646359198564557	4.912344920153673	5.372277723100121	6.1972145877776095	4.221403111290224	2.2226614895970593	4.850776660116248	5.226037965931499	5.824233040409971	3.109940997854941	1.146923300708423	4.281594265618236	5.589803681565813	4.892563330695561	2.458667510500835	3.539350500707554	4.337788570896281	4.76413820971243	2.7926440168445152	3.799318780843433	4.346582401745661
136	5.45478914791011	5.4074673516123495	5.99107359327243	6.844020826226368	6.3838662940019155	6.620449526284239	7.312983017577753	7.417642097818884	5.727910981021814	6.0431690063489105	6.6861138175002885	7.2428612526180745	7.414376240130597	3.6978714372732693	5.449946866580783	6.009907230462429	6.868512613121319	4.06320761608416	2.963084690242319	5.186239706296873	5.602853284041411	6.170963271773331	3.13230704470399	1.324723597996642	4.398323047977333	5.745916352070104	4.930374609896972	2.054949039993027	3.5065696150939063	4.285002697616466	4.5072693710970455	2.4866838392417465	3.5455341249595196	4.043853272718719
140	6.413794978160972	6.141328796140143	6.6491198371859745	7.338459473201907	6.560017092354785	6.932585698744462	7.617498855431971	7.655416946156549	6.179312213555231	6.033214553859394	6.884868604443549	7.455364208471937	7.042224389416138	4.866520392528891	5.35557221014181	6.124860748086018	7.0554661572660065	3.7082838918520826	3.5448613077309936	5.073047625131239	5.611474976677115	6.191316588982686	3.1892349639480777	1.3801236117804154	4.220550049616352	5.685268387745687	4.811083304656161	1.70927822158323	3.351171485069379	4.20683525930674	4.239562500740226	2.197059625800614	3.349915734416421	3.772139778150213
144	6.818095666837477	6.320849402681526	6.733162386107089	7.318783741592648	6.216618045370222	6.839114171880846	7.481826286499609	7.433106880494684	6.052669033027806	5.478338704582831	6.6408386062803695	7.272401314494176	6.312793238914024	5.758369908099453	4.806913363718203	5.841629490408774	6.843818170434643	3.494740000484491	3.8847887417940243	4.63686178944051	5.390397535066092	5.984109863431614	3.297761670369631	1.3225374188410899	3.8269219301878046	5.523872361541844	4.6414790036317335	1.5083416662281193	3.112360469589555	4.184179295466236	4.078269948199452	2.0146999308264575	3.3129506027501057	3.6325383094627557
148	6.677172167132239	6.023525699666327	6.348808272545019	6.960350972722213	5.643011078892415	6.489994986360919	7.075252038258532	6.9587316337370435	5.5214204648805545	4.741940963216959	6.156817420673792	6.874338132668378	5.683343396142881	6.024229988147215	4.126122464252952	5.382246480704347	6.415482028022436	3.6394731906555737	3.905498017941079	4.104294766554156	5.1222004761118765	5.702704415228521	3.4588177116805325	1.1986778944269374	3.3761031542416617	5.399041162211017	4.543793666811715	1.5209268293128	2.874282829657196	4.2944497953709355	4.1112356082114365	2.007911915477995	3.494724741695467	3.707432260689682
152	6.039513572703354	5.352846132115245	5.637917504381349	6.443221552793709	5.1023464074059	6.017291053838562	6.565716726892397	6.436318858108987	4.8551711913551525	4.17995022672081	5.63854359156849	6.435008032764397	5.4120974404068125	5.5318136075545095	3.6350374130025886	4.968846785397983	5.971353992644728	4.124992837028021	3.577833643463176	3.7112185861348346	4.95863293349506	5.4955067495834315	3.6594359782333465	1.074164149433382	3.0497531813870276	5.414888368286729	4.607889163781238	1.7734491780328472	2.7361619403422215	4.573629844562314	4.360958088354874	2.1900253240605614	3.8775532147737177	4.017265786518756
156	4.958286272881921	4.384252060311443	4.710964667823975	5.864416107630296	4.7038516879530174	5.477378831385791	6.046350940697566	5.976903423477885	4.283728111895808	3.967424859520569	5.202066885211991	6.046809181205442	5.452133164945624	4.439406383750073	3.503726711963877	4.72276257276245	5.6431007242779305	4.712910163424532	2.960835687791332	3.600102892369354	4.955572115784282	5.440389619443048	3.8758661649122548	1.0100045178662436	2.9776773377579664	5.594616875828564	4.849392401849479	2.2345459404795296	2.7693078447995516	4.988663660805714	4.774161803589711	2.5091698106357803	4.363130558442162	4.5021204834757675
160	3.498276701677954	3.161267272597181	3.6240262893731625	5.214663015551283	4.373105038092272	4.8472018119502245	5.512303815275886	5.568500027902559	3.892194499679379	4.027208318079347	4.836544501491291	5.695014462397594	5.523185239198608	3.1416382710293074	3.678686132679984	4.61760567452941	5.4435109954727645	5.075271593631483	2.2189824525122317	3.7631344700217038	5.054387556666389	5.51056479016431	4.077649583058196	1.0487904522165605	3.186089746060511	5.868398174728396	5.199177252040576	2.81999396565852	2.9871528073232763	5.4418306213314995	5.244932638277594	2.8715553211191605	4.813126075036745	5.043210016869169
164	1.7680034592813376	1.7317110256342587	2.4035243927353953	4.428092945363109	3.928249349212983	4.0716509716231455	4.898849951773439	5.117877947283678	3.5993964581212596	4.091309060257596	4.439197529075307	5.293378339754401	5.30894468874464	2.108186716479098	3.9251916309437256	4.510558116968869	5.280282960911731	4.973262297471796	1.5821363885988733	4.055960644972086	5.119437681624223	5.59260891456044	4.232755650324061	1.2082754343044393	3.5909774212772816	6.105896934352159	5.533060059882906	3.419146290729668	3.340661517291959	5.8090386244021905	5.660740361226804	3.1877837100607507	5.114055620633173	5.515158162497683
168	-0.050872709473676295	0.19671750018998158	1.0990895005133348	3.47011946755715	3.21899747035792	3.1360893170333073	4.157193173403022	4.537773120867443	3.232248059695193	3.865837325826247	3.9026853939705193	4.761248576541014	4.659625518478497	1.6893326001431093	3.9623358149624943	4.237820614605707	5.027401434603174	4.383563507456736	1.2568379608847116	4.278141964601562	5.0158457629404545	5.5520024159447	4.316515434811075	1.4818052016039553	4.0429921048131785	6.181430801043778	5.730939373805915	3.9348077674703505	3.743236770715862	5.996055111051602	5.9485759584920315	3.4185113820551236	5.23244331946147	5.841322884116823
172	-1.7167485909033584	-1.2723011938397502	-0.17834153726373542	2.405806296950215	2.2436213436701173	2.117359156031135	3.3208825504382093	3.827903261056909	2.6504442624885693	3.208518020158548	3.2040548243690354	4.096909989503708	3.691946020341818	1.973018522049552	3.6214618591428205	3.7228701020661106	4.613561141763743	3.514086952873999	1.3319455351579739	4.280928600947066	4.689209449373043	5.313740716869739	4.3274617085871485	1.8446180773892957	4.403232563345797	6.0412330474914935	5.738313660438909	4.321820725019848	4.114625920397701	5.984661564022262	6.099748119212654	3.5939853100636325	5.228832708508672	6.021202549037427
176	-2.9856235905607797	-2.466433042021146	-1.2626467911312762	1.40359627846157	1.181984063978973	1.183026310794884	2.5218062337148384	3.0997748296677172	1.8509253216742139	2.228324407673582	2.445727580571347	3.404425850855945	2.735778563267994	2.757320635509748	2.948104135699453	3.0391478461782078	4.077720154957432	2.703859799234201	1.730796809595002	4.048647870332346	4.206635941375115	4.914453970899081	4.299179543131211	2.2613477649815636	4.611330974380458	5.738520607765047	5.597812638454772	4.605129230316526	4.419700134562765	5.844138130691747	6.163829787904622	3.7972214126083723	5.224053846521225	6.118047698786813
180	-3.6859042551440595	-3.205807439339586	-1.9820134589698961	0.6707087142223032	0.3267195216513088	0.5355396853277323	1.943718547681999	2.531534903810515	0.9916047428844696	1.2533081738300247	1.8239567233765193	2.8570644783365324	2.1599049513643913	3.6538083461064415	2.193191522783036	2.3908164440827875	3.5606496244178167	2.260586732878993	2.2481529655916597	3.7110776807549413	3.73592900286627	4.4952225571626165	4.296402443528847	2.6966395310029188	4.709925162821717	5.415680871641662	5.4317316871834125	4.863056170583292	4.6829490543388	5.700143322858278	6.216828330556459	4.117956151102184	5.335283742785807	6.215054496332422
184	-3.788036098453096	-3.4185757550713185	-2.2368671837598018	0.3509478262146957	-0.05858698472490008	0.3241205505294068	1.7374439195635711	2.277139657947064	0.31514644543235903	0.6753302795525843	1.5389468631036685	2.6176154547406436	2.1807231848018205	4.2678489577305765	1.695327158462325	2.0205590673930858	3.239155999588641	2.320837253433052	2.650630705816956	3.4821906001865854	3.474611988831818	4.239590157295331	4.395499695170741	3.1231312672918534	4.818292128795675	5.24431179629918	5.387431607949557	5.187295423762468	4.974624144392186	5.679071888890482	6.326390250445857	4.603113162816733	5.620228276368149	6.371247752316245
188	-3.4199802789172598	-3.180818072871306	-2.058382029104843	0.4446589935520266	0.12770241466705384	0.5721813425876686	1.9443515490079153	2.3790748059288385	0.02081043081691882	0.7548648099914274	1.6950191216589037	2.758603804299233	2.749349348756192	4.3799157032056915	1.7136639313347304	2.092200989209277	3.2395038522946717	2.794386618234769	2.7968826223330816	3.555269232356816	3.5629348664927356	4.288481701513933	4.647548663803177	3.5262925535817082	5.067630278190571	5.3517169817274715	5.570911393405504	5.6339926577420885	5.373466954969677	5.85524509858973	6.529297812189424	5.228870855481231	6.056910976376471	6.599907381560713
192	-2.8220310139932208	-2.6948509148270148	-1.6129441220568579	0.7969423512365101	0.7695995549798605	1.1585563391998654	2.4706687864867702	2.736641876940741	0.15305577179889696	1.4848737679185346	2.243890279826665	3.225771419010251	3.5676329045820703	4.040898312856794	2.296243661805081	2.6092269354747133	3.5770311265279466	3.4172949704676188	2.7070667675335995	4.0071272748866384	4.023370732639817	4.676327693576709	5.046820627821968	3.9045925041799374	5.531108365399308	5.769476399160279	6.002638324841133	6.192257865530602	5.92570017272215	6.226943000330726	6.829532606048104	5.910273060181755	6.5670885873930835	6.878214341917626
196	-2.268598073953737	-2.220575327035188	-1.149349805791103	1.1601608962331678	1.5758305748254264	1.8577424240892533	3.123613826494737	3.148120872178712	0.5663009271629095	2.5780713493106977	2.99687718588454	3.859843482762767	4.228260029607873	3.5240902811721075	3.246933213619298	3.408530703521973	4.148374547021478	3.884136905400406	2.535239690101821	4.75714491596788	4.752546298425779	5.317921148225151	5.5249304631932254	4.258416641927975	6.184943660379392	6.425622923840338	6.615085108267998	6.78764579966582	6.618222696761053	6.728344900309925	7.210374337111717	6.540440542874182	7.0641922772390915	7.17570875263503
200	-1.9766861150426114	-1.981121058230572	-0.9035313106613077	1.3056861129220263	2.2074754182395266	2.42798542363372	3.69364761373657	3.407326451281971	0.9913366411929468	3.5940301327563904	3.704290380662214	4.467375267193862	4.402541626305305	3.1621866146358752	4.21181391606297	4.234567154683502	4.78132532819931	3.9837810892613774	2.467108243435457	5.6014432765681645	5.568367467172913	6.0515479888717	5.971024498169241	4.578446376685163	6.91744564217258	7.181162339199631	7.289047699645019	7.315649014122535	7.37918470426974	7.266522389185533	7.64733503318257	7.038223725668914	7.494663696440342	7.477548580364169
204	-2.0452020116668055	-2.088122124168306	-1.0088089679043573	1.1229596109648483	2.4248256622128648	2.7041430405054587	4.037687291441562	3.3977849397704167	1.1639885873016897	4.142748345406044	4.161206234916327	4.900583731676288	3.983689298108655	3.15203022161037	4.842819678477402	4.853767859602104	5.310347543660533	3.682114591838808	2.5967242652181937	6.304671271618856	6.28638075195068	6.711435301048419	6.278321727160236	4.8390173789874895	7.580503444606186	7.889414767373623	7.907412032190245	7.690914611472199	8.104964235823553	7.762662867974402	8.11369989253978	7.3796481899863435	7.851739863599114	7.788377742177056
208	-2.44307183602544	-2.5158946450609405	-1.4520304166373204	0.655959842933094	2.1825919096201005	2.6527831487436506	4.121950615966366	3.1370327393484305	0.9495307779180644	4.0610370533455	4.286841381693856	5.105103956684826	3.1254537026650184	3.4349648865759606	4.953561293493216	5.15023230206039	5.637232766223899	3.123680822115295	2.86771463623811	6.7020597288675	6.7873558826743645	7.190356713260889	6.3947086172777645	5.00489805865291	8.055921534226183	8.448021867403705	8.397258737343881	7.886405448075801	8.699457146615083	8.176047304491743	8.577653863231202	7.5994086073697344	8.158143022920735	8.115966776384154
212	-3.04267358011706	-3.1306447903746903	-2.0930175728406386	0.06396902336420862	1.633733626055578	2.369310134627808	4.010192860968987	2.75289963980863	0.4005982269663394	3.4774944694458783	4.142998684913469	5.118786798904919	2.1631991808635203	3.727357854969209	4.592862117615564	5.158320890754568	5.752675995607725	2.5490829880252437	3.1077747266506934	6.762257082078554	7.047842961637059	7.465039711224608	6.346637232969202	5.049076067574574	8.301003435157703	8.821932770390335	8.742055870872766	7.941597441649833	9.10726926411573	8.502061822406427	8.998103119066641	7.761685351802554	8.432681062388726	8.449132897979514
216	-3.679220190295823	-3.7574455643201246	-2.7368204524560373	-0.4672959137085732	1.0450648042996364	2.022752518315282	3.812573423296541	2.4050164161996457	-0.2814966135070475	2.7380905082237046	3.889668216421597	5.031772600821386	1.4628345929406088	3.6906862165730265	4.006185044664408	5.024421202371929	5.716943726410832	2.183932298868425	3.1410589138835534	6.587171061097263	7.128972989203222	7.580635051661518	6.229411586292511	4.975359427288279	8.357418039202281	9.0367078552973	8.968111015565704	7.94122932336463	9.32971379785587	8.755761124439239	9.332183814329126	7.921696166065313	8.670347191854594	8.753584839654694
220	-4.210647095539792	-4.252532948247762	-3.2208435454112427	-0.8128823617439035	0.66821282933328	1.7772501662205773	3.629201403038075	2.2037455979974787	-0.8530717470565585	2.2282419148454213	3.7044804002692784	4.937437521866444	1.2694442240135893	3.1504187504382912	3.5050067813118413	4.9248947972887365	5.621242032163929	2.152230495741067	2.914041273389213	6.353314383678661	7.1373643694920945	7.614523391572296	6.168226703329313	4.832395541388241	8.323621728862806	9.15526483131633	9.121535278178833	7.977811793212454	9.419524169028046	8.956626869476535	9.555718397810166	8.100157717281002	8.848887421201187	8.991550422855157
224	-4.561033237385865	-4.5521926764951	-3.4765777500115473	-0.9526722407130199	0.6302003844562603	1.7280093387844737	3.5180692583906783	2.1684238855927607	-1.1444587678624725	2.1868691389183836	3.7080814744789365	4.901006686234546	1.6163612563332037	2.2340376320701685	3.316848508089996	4.985930907058951	5.552702889728331	2.4420564112996104	2.5432310040159707	6.227936728965913	7.180613499631924	7.64330671288024	6.265428050434977	4.703374850796019	8.30682466317035	9.252796149734639	9.250692344197958	8.115565279497961	9.456471419300975	9.123510337683124	9.683793043482902	8.280659654691489	8.953456856056803	9.150861717008599
228	-4.730628478504309	-4.677491176239786	-3.538013210900749	-0.9551195478166739	0.8974541403046418	1.8803673935145526	3.496957293264537	2.2407848778417074	-1.1288751335252916	2.6107735567934403	3.9306654830874983	4.956397997740204	2.329651349861604	1.341209169816287	3.495168677088633	5.245188222993745	5.576836571918376	2.9342226908034696	2.2558798733022534	6.303684695541025	7.33723066384832	7.727048377555287	6.560374720222534	4.67490195047728	8.380354860128259	9.400137877573085	9.400655722725586	8.371094682539335	9.51644608955971	9.278802848277376	9.776302312963693	8.429390886005432	9.000102974103097	9.262653327444127
232	-4.774911391600513	-4.700766074710076	-3.4991357238162886	-0.914169607238605	1.3207678761514656	2.1745521967345147	3.570153704212547	2.3442132413806247	-0.9097994542993517	3.2886965191779187	4.3284067998323215	5.124931322510011	3.1222016732542834	0.9455668306319298	3.928382863616943	5.667212471958754	5.740231499484359	3.4738581092866023	2.2548623028092174	6.581405146194829	7.649085025548756	7.913418273019807	7.017551881238684	4.798927771849937	8.568788506808271	9.65771863406387	9.617089247264595	8.717445351525722	9.649225210623399	9.455349898307713	9.920923207984304	8.523536660609045	9.038810707159666	9.391598677765543
236	-4.765713202841998	-4.695662009781556	-3.4499816807427583	-0.8848433472227724	1.730475302141895	2.5346336300752745	3.7516765499761693	2.442010873351117	-0.6450915320321892	3.9407360454247433	4.828457820145742	5.429602132440254	3.723329773085458	1.3321920599681423	4.433923710118895	6.188669665924183	6.073752864761683	3.9378757377384837	2.5865602427981766	6.998081666444091	8.123720148556961	8.240588167365901	7.540210704839751	5.062369810674555	8.856309868387036	10.066391919470057	9.941313718491903	9.099254585180887	9.865928624993268	9.690102552744316	10.1923618059318	8.565815903971538	9.127187705837903	9.596864676087629
240	-4.755203711901736	-4.698307502328587	-3.429375163003037	-0.8594496228453571	2.024269098893118	2.907494537642192	4.059339036229425	2.5532431538014833	-0.4574023473635417	4.375116337220494	5.367486463346593	5.8839416355351	3.9826147455753573	2.4214646755117557	4.872573363399839	6.755791170229644	6.580560190752626	4.264171589575798	3.097619764136659	7.473865490163507	8.734091736676566	8.724063851264871	8.003307322322888	5.384222493882952	9.20593640864201	10.629921886308999	10.38987729310402	9.448875403389977	10.13873765292998	10.003502820507743	10.607203456800928	8.578942277229412	9.29132077732292	9.887659047912038
244	-4.751455295010564	-4.693847167562017	-3.4140384111038924	-0.7895311693284943	2.2058179322817972	3.27553104527317	4.488861549488247	2.7251703670362324	-0.37667283320693623	4.578176963691458	5.906472668040471	6.465624792941004	3.9107699295488625	3.786044826485467	5.219520078832477	7.335432510929276	7.218214016809942	4.444668758614716	3.514880409903246	7.952407339999006	9.41742608553725	9.334935164725012	8.29285047344733	5.647630677269423	9.580125784528327	11.299372644506494	10.931317301807816	9.700383161849219	10.414806339671939	10.379243824502936	11.10315606174994	8.586503960865107	9.501624083371546	10.204303715691688
248	-4.7188453555177015	-4.634620654802614	-3.347979537140426	-0.637719808398915	2.35822939277346	3.639787187923458	4.986730086134082	2.979193203080067	-0.3485844126483513	4.6916947246353224	6.417991621979723	7.093872052402195	3.644133081772349	4.858100878847756	5.553602681443589	7.897539118854576	7.886811236496407	4.496984947294886	3.601155987230587	8.411832788210406	10.076709721873208	9.983545278138697	8.341385820309654	5.749330982951376	9.948939298306636	11.970459907826811	11.475980729692926	9.801836942721001	10.635768863528124	10.756422969363639	11.556299180417875	8.5924987576029	9.680671667453185	10.439825031625373
252	-4.610271442217606	-4.481713760504829	-3.192808858439787	-0.4215575147952735	2.5673928195982785	3.9859366316295928	5.445813165266757	3.270909777966112	-0.29268360064043947	4.892314898536764	6.86107109244919	7.634230594433917	3.360658875563614	5.226046549000325	5.9707188455516045	8.388574579040611	8.4420604492669	4.437490452053249	3.3051109230518816	8.842483498182688	10.59434315867666	10.529915783045865	8.151488283557654	5.64733885292934	10.28364751126773	12.505249945539095	11.895596474177932	9.728322958226432	10.756960841676733	11.045353861578494	11.833185166046931	8.576695420545633	9.743198370176179	10.495805713857083
256	-4.413496959987363	-4.246858109242313	-2.9682307168406545	-0.222391753827324	2.8484551834669114	4.262197483745822	5.735827431502314	3.4938273341659944	-0.16792093174976935	5.254523264016319	7.170463543908038	7.939369658452333	3.19320081858284	4.848223197140516	6.483193857990639	8.726004578493859	8.738067604891626	4.27647065036628	2.8033316064629177	9.2159776454941	10.864171954382126	10.828847857791624	7.800803641651299	5.381518350365609	10.54905698020213	12.778550115747516	12.072020500221761	9.495343184339552	10.761017772208483	11.163879366345164	11.853033035869867	8.508300759768606	9.644985174623363	10.339155171039698
260	-4.17696284193221	-4.002121915249617	-2.7511472632566574	-0.14438953959249798	3.125369302488229	4.393244732255291	5.764905438173284	3.534962645188847	-0.004842546756260244	5.688154206219846	7.279520970085332	7.918608645473744	3.178764096817532	4.056303490887968	6.979117852710232	8.830502487775926	8.692221619594777	4.037697305021859	2.40603112566974	9.475810027040234	10.835834475815975	10.797441455283026	7.428274135908497	5.057165609943066	10.707257243779763	12.733782736099801	11.95715805849516	9.168243385055536	10.664946529164906	11.078223200484764	11.630328149042006	8.37238405021186	9.414078688695115	10.029087995003694
264	-3.998893012440997	-3.851115693859631	-2.6354942255237512	-0.25078493293387605	3.2787220395278087	4.325947273776519	5.536408887236511	3.347107163561696	0.11363404960552714	5.991828903329117	7.165746193913845	7.596229534044021	3.2620153344766054	3.3568887625817996	7.2717246825683945	8.678823449157413	8.335962274485945	3.777143945694341	2.383696788491632	9.558587050146672	10.547298404767115	10.466706249514049	7.193209629971216	4.801111209191836	10.731089564886584	12.41737648689865	11.608183831470962	8.851694084707285	10.51589009490989	10.824234935134813	11.271867723616465	8.189839342420788	9.142385459705782	9.6938075774542
268	-3.9761886496290573	-3.8721437356461403	-2.673311703608203	-0.5127763735222587	3.2327015318314993	4.080212582777067	5.167125212021402	2.9958245678604642	0.11310014100129957	5.988723262925581	6.889288884888932	7.12243745912939	3.350182763224341	3.153543225909529	7.211154442700567	8.342786767876918	7.82089708261009	3.583081236375953	2.812194101862905	9.434669470808656	10.12412640876521	9.984820340696514	7.214549523258402	4.710120666056087	10.621263477212208	11.969453781425543	11.173744173449164	8.655116059385726	10.375699017077803	10.495431873525996	10.928936930720075	8.015938738611798	8.940617538767443	9.468487715657355
272	-4.137231816336721	-4.062890042537599	-2.8316628861460265	-0.804467318411115	3.026332609165275	3.771259536758392	4.851465212970955	2.6491143636576986	-0.01233520541951063	5.661146626484567	6.595676405466659	6.72475622386635	3.378329983764848	3.5440452009367895	6.795848352440521	7.9842681683182235	7.370801907049694	3.544982185950293	3.5277666956525713	9.145563102520024	9.739977812017807	9.564381575278528	7.517883758637576	4.8179459450196935	10.419259998718312	11.572617501604704	10.835461589159202	8.650181748485098	10.302428219533303	10.205685589772672	10.731804820622083	7.918245772397267	8.885548569179916	9.432925200488352
276	-4.401036728237815	-4.321673382338335	-2.9948825760568125	-0.9551146006311699	2.8185129094488803	3.578509560133223	4.778747069691415	2.5060002740532066	-0.17940086081033152	5.1932968962204615	6.46599243438905	6.611199839112769	3.3453445350108484	4.304418552975161	6.2078795276310546	7.793684939734458	7.190268498386844	3.7053255941300596	4.219755162075635	8.80632112187018	9.547579741214502	9.390489554538362	8.013128260408445	5.0918435921858345	10.19984147357649	11.37631031978832	10.727092715836616	8.837195374111566	10.330571148539397	10.041808103003806	10.736177417351765	7.943585375757364	8.986677147110626	9.58034322227192
280	-4.597814071491	-4.487217891808071	-3.0204842014346793	-0.8382068851289093	2.8090772557861796	3.6628580000905515	5.037621962226296	2.6922428539968077	-0.2578147345232594	4.8834280844417695	6.627857191518222	6.86615274603133	3.301655284175108	5.0558028093483625	5.736308560193727	7.89341972265526	7.366496544359148	4.0235781568031115	4.604619968232851	8.55965326055448	9.607202505651372	9.529205298206694	8.520895936433583	5.454818711813844	10.040005658550347	11.42865178083781	10.868920298791524	9.138286567504217	10.455088589020919	10.026086781937542	10.90439316857501	8.090136507589506	9.187356925656692	9.831158613179198
284	-4.558768737727276	-4.428359497333871	-2.8254578042219958	-0.4500530052743241	3.112017385255094	4.069979180550706	5.557846055303725	3.180651179866356	-0.15423011740845793	4.9654297703309265	7.07276867034488	7.394999008581619	3.304025164845394	5.491468415700805	5.621473775022231	8.257870653284181	7.816276530558768	4.37928675499561	4.575541484724724	8.50183580159401	9.851004575653507	9.88783643133444	8.844803787788646	5.819198593706373	9.981287931037464	11.652979821348097	11.156215639557873	9.429477667843248	10.628653499471381	10.109567616687709	11.131506891756487	8.303685167328668	9.399879431833993	10.083070729547577
288	-4.227705467994283	-4.134661664060494	-2.4534461436316937	0.06632335467282825	3.657116880720281	4.674987304328384	6.12168548945756	3.780015697472369	0.11637492448511985	5.445426927169588	7.628119926266971	7.94784925361525	3.364080897420819	5.521556840307456	5.906179890026073	8.697595574354159	8.306732156761893	4.616386401918963	4.240433682226063	8.619227387601336	10.102506612066865	10.249215100160818	8.858994461580943	6.113140090766977	10.00308225013527	11.879826515721653	11.406430215647333	9.596017813296799	10.773218127707466	10.194713566790119	11.296650858014344	8.498916604518861	9.548701262207764	10.262525532561293
292	-3.7270374203997054	-3.7514619732555197	-2.0796623177474043	0.47000026584217197	4.18743943110864	5.210183607298432	6.448227866105044	4.20408629309664	0.41544371738448554	6.059905990559583	8.01078985099052	8.218539217226258	3.4254588994326025	5.263738142075329	6.383842452144066	8.926918007246854	8.545416810395112	4.6124477270021496	3.8372158907331038	8.77512643505929	10.146624539506748	10.365444157179379	8.568147637669265	6.292909606304313	10.02309796663747	11.919425934261811	11.441653222760552	9.584044432284548	10.80298325672167	10.174582455695926	11.312247247745473	8.594425179717177	9.596870398133513	10.34728905926379
296	-3.331481686763988	-3.531830540323097	-1.94294929013847	0.5262061940259187	4.365042198604572	5.3731622560263546	6.317334635997285	4.1970176590812835	0.5352292047338812	6.388724787794581	7.946964720689016	7.979273299098656	3.385905018840938	4.896914469753178	6.682966692264094	8.690594651215097	8.306130388269759	4.334071625257472	3.5761659055065715	8.763052918244071	9.82252499961457	10.069830869046337	8.104516962570289	6.340208514418538	9.931788419443688	11.643418282675949	11.168183298524239	9.421401000077996	10.654997798721276	9.972702001188535	11.15117737815702	8.545632340790075	9.546069121101128	10.353882763470775
300	-3.343519679211012	-3.715308418430417	-2.2285044137003496	0.11715885967238773	3.9442365069942746	4.971991049611236	5.675223336196341	3.656467666931026	0.3040639154386723	6.079265579133752	7.305517178210615	7.187409859630634	3.1523139397187845	4.498269546595842	6.459737284563534	7.891029814824379	7.532398681696633	3.844587316343155	3.505184641571402	8.409041383493333	9.096846557538042	9.352452254524534	7.658749561046817	6.250264628842402	9.644762968508202	11.037583323268034	10.612689945129361	9.193334556256834	10.312619183252691	9.56662652461368	10.841245623873602	8.357561090349382	9.413787818029345	10.300759289483805
304	-3.9220907589117595	-4.387269009003777	-2.956757776424675	-0.6925591808953465	2.921481363549872	4.035625924411854	4.671971309310363	2.69503759657398	-0.31111308853755876	5.059200750929138	6.178711875574568	6.014623149945152	2.698925726752152	3.9921250242531285	5.5969543315721735	6.652057630910247	6.371639235622141	3.2654139913131175	3.486270180483292	7.671260814372163	8.084446886632191	8.364979722837976	7.378168087451018	6.024554714251131	9.148011184484059	10.204281781182466	9.90144059542363	8.988985038950503	9.813085531254615	8.990486122320736	10.438155147901563	8.074100473999621	9.208633399601998	10.178071950010846
308	-4.964926230293136	-5.401411996555617	-3.943592299995169	-1.671018238617083	1.57267415126467	2.827869884980676	3.611166944923207	1.6076620776594883	-1.1711913317674525	3.612490644871037	4.865410315627397	4.7842321275083775	2.0976893848863387	3.2313697256520006	4.298046101209024	5.284127698908616	5.122815119207249	2.7201232841479737	3.2908615982892737	6.684637529662219	7.007591229866127	7.354604225663587	7.292733650868623	5.673083767872885	8.516374566510917	9.317625022251626	9.199109054228096	8.852164246144087	9.23853108934585	8.320337274525395	9.997350667508138	7.752706508136258	8.923352218986814	9.948972676907626
312	-6.12230203990156	-6.419086916929349	-4.8620972510605664	-2.510828250267824	0.3421174875204832	1.7432481006478548	2.8253829407883466	0.7545078973794135	-2.0175836035334105	2.25955271150404	3.7519519234343366	3.8390555284848067	1.5024052820420575	2.166924471152577	3.01064156725848	4.157814969055749	4.116473664381073	2.2890930117987205	2.758270733545069	5.715699181431063	6.107209190208221	6.5577788187398305	7.306857090621784	5.2226467000709205	7.8879895011113526	8.551347710953868	8.636755921492627	8.760457016761366	8.688406922338784	7.648961047887937	9.556692099284758	7.438313465411959	8.548235871667291	9.578947043076226
316	-6.946221334086012	-7.055007439920972	-5.382151113272947	-2.9571728631698426	-0.3614160409385559	1.1336091728199797	2.536136620794136	0.4097082604554542	-2.5864734584356026	1.5026395282954332	3.1478829304373694	3.4023134622504383	1.0872225733963843	0.9825350617397659	2.2156658116667236	3.5474309831700626	3.583246460450853	1.9991857955049093	1.9257439326303345	5.049345480568278	5.550391183191199	6.108358844593746	7.266240101588589	4.729973781087749	7.410887699489991	8.016835192466957	8.267988184081391	8.64934060774015	8.248946169053784	7.063457471180156	9.138318038756578	7.153934460697817	8.097477892458665	9.076060272190132
320	-7.103014928050498	-7.056720715826071	-5.318260656280935	-2.9067728446050736	-0.35516881853077514	1.1523861855975845	2.7657689978388817	0.6489224417515209	-2.7261607578113196	1.5723857839939748	3.156841746943071	3.496687403433676	0.974046525880155	0.07499042879483256	2.189301246837658	3.5204806238936235	3.5712416081862406	1.851456518267111	1.0458013984979109	4.861191737299425	5.374421582957989	6.000731453050293	7.064943295761366	4.286512364055526	7.185794812179878	7.735991935271965	8.069819430004083	8.464736917105157	7.97159765138244	6.629094107103478	8.761423088841447	6.910605413155426	7.628153304867961	8.51335809465574
324	-6.545694334669999	-6.433439238517869	-4.718242156514098	-2.4393379626675578	0.23501866996556434	1.6895749526281543	3.3363301669763565	1.3242565360013612	-2.4607710776189373	2.308026307954532	3.640715828286714	3.9516336818108035	1.1861032217597107	-0.13092273440684812	2.8595306801125324	3.921946515671767	3.9432032008750575	1.8559101773134838	0.476149557818834	5.136266218569039	5.487493977997216	6.116777404600567	6.724854929157848	4.003665437126824	7.228538971770446	7.654276351677007	7.978282431486412	8.209158876673769	7.866497496771083	6.379882796392344	8.452532746908918	6.725437147326544	7.235388737530739	8.015114764004503
328	-5.5366721013471745	-5.453829274713071	-3.838299264753806	-1.766225571941466	1.051042673318357	2.4355068145296475	3.95790623619255	2.136919254629822	-1.9623919675872457	3.2459514059130368	4.296634663224306	4.49292897043745	1.6434518057338008	0.5789796099350065	3.841665496663642	4.460479725066496	4.45192526646993	2.039124483682272	0.5029413091359265	5.680317387544563	5.723380074356006	6.297487719848663	6.397710307181074	3.9814922709077814	7.470699768278188	7.6818189427024395	7.933577040669106	7.950613955451532	7.910492877061617	6.31522034004315	8.243016222169341	6.630414946028366	7.020169240393452	7.7090072437202215
332	-4.502732742385355	-4.506798732823087	-3.012779466651886	-1.1231024236933695	1.696426148899919	3.041380874584435	4.365614880030128	2.7760660578257017	-1.4508433305349708	3.8701023957770264	4.807500827095626	4.870929228882506	2.1986775342743123	2.0571832604921467	4.635758388259214	4.851295458943063	4.856060969490113	2.4200766025477307	1.1924513548308415	6.217369063892495	5.9210033267257085	6.420251830103899	6.285098536835509	4.2695588957755755	7.795086364138879	7.738626460564386	7.908753375112884	7.786185244929174	8.061632136018405	6.401665671398383	8.154302576458264	6.662754042016053	7.044364911413907	7.669098834702329
336	-3.8105471037978726	-3.908087482122163	-2.493043416404645	-0.6662031991351067	1.933666224366009	3.28585194711784	4.433694351446379	3.0552925986398876	-1.0805871459381615	3.8791899583151177	4.984473692707161	4.961920725692569	2.6931118897154387	3.8259789847098387	4.8762507315546175	4.940422522469259	5.018144594874348	2.965474121236042	2.3474519193509638	6.518915159932923	5.98811815657335	6.442056162782002	6.511914713631017	4.833738314822351	8.0837526117316	7.780709723855352	7.907196978632438	7.778681735426635	8.270521143059371	6.578855974753511	8.178745249126044	6.837764722726538	7.295099716841653	7.878390769140958
340	-3.5825209527164787	-3.7523522282276374	-2.3376309812654075	-0.4200530637626186	1.7843892529258805	3.1659662643608297	4.215377320137224	2.9796521588436784	-0.8763605930136901	3.334317198918084	4.8351158973689214	4.800144183437442	3.0137352867330907	5.285108076103406	4.511757839255879	4.755136954699756	4.943018423951963	3.562784901206859	3.585761776454024	6.505045397547287	5.924638733210671	6.394059641907089	7.029608231916252	5.546944604220409	8.259169557699847	7.800461272572575	7.937369326578721	7.905490378447538	8.485939958128284	6.771017534326943	8.270402887444435	7.120226365232385	7.678234557793276	8.231611231048234
344	-3.6544263270619126	-3.8866276642899917	-2.406275981549859	-0.29325625226367324	1.4840983114919646	2.871081344985103	3.898536910704626	2.7196106842042	-0.7444755416193729	2.6061847144130583	4.52987765122185	4.5360493545448906	3.1243896405491745	5.9913682786354565	3.8165869616470034	4.462155330836191	4.748759734562048	4.03920983248386	4.503007877424944	6.265497668659899	5.800502285617591	6.341505988322733	7.6118345068439766	6.216596110861	8.301914194127573	7.808007220582087	7.987053374152255	8.055250147509128	8.656434990961985	6.902420026518377	8.353709199795142	7.4141254237860155	8.045783022594065	8.575159051225782
348	-3.702291240881495	-4.020172585827823	-2.4595866141209513	-0.15089598259975243	1.3212670054455546	2.657099717107386	3.6996612455420657	2.5098402436785214	-0.5497481809087722	2.1541547720881375	4.289889324801395	4.344925869462245	3.0652806681489717	5.848584637180765	3.228054515317963	4.260632027359393	4.588298309185924	4.2312998664837425	4.839750754534954	5.991125568522544	5.70263765802654	6.333417876465711	7.952003935764185	6.645901663213387	8.239482858835977	7.806801776249193	8.01436994436527	8.078498819935783	8.733746506574898	6.912981015871596	8.34802530088371	7.585777263562597	8.247801759876985	8.764869667812238
352	-3.4554231079598554	-3.9017164608674966	-2.302932971862045	0.10207420561768413	1.4643586837036675	2.699385874608656	3.7534067536003413	2.5273332532016166	-0.20811247773079208	2.269466155998054	4.263714779579393	4.337264050023582	2.929342262501583	5.114063250027685	3.10642146279913	4.273382652937553	4.567810047061139	4.070066441750437	4.577063072092709	5.861337170107552	5.6841816758648855	6.373378737570875	7.81940648965731	6.709839803921099	8.120428064825038	7.782849769015964	7.9653301037908415	7.869280318419331	8.685000397689182	6.773866159502856	8.201088884628714	7.518948536009155	8.190587976757277	8.718868233602208
356	-2.8685762809808075	-3.4606797607786146	-1.89085232734123	0.4742382454819696	1.8736069155119068	3.004434577985821	4.055806149733218	2.815497868105174	0.2632146769076972	2.920104496259037	4.457317341041278	4.515755165143004	2.8294715809910365	4.237176407606602	3.542675486203309	4.490891445265593	4.70309971575643	3.6351497081530617	3.923287381757249	5.946756824738079	5.740573868563085	6.425076945295574	7.192452889403058	6.410377963093916	7.987895468571517	7.7120575710135455	7.807381610232104	7.432817917177542	8.50801084277715	6.496626837540465	7.914231757209648	7.175494652751538	7.8749880591886114	8.442504861497223
360	-2.147408241572334	-2.831974260809547	-1.336984034977406	0.8953360892578958	2.3429365098927595	3.424103012976675	4.4830722695651195	3.2840948021942977	0.7614564876404954	3.7809934520627957	4.749239432741989	4.792501437485058	2.8611671852353537	3.626661768339897	4.318188179557828	4.791899192155768	4.928319441750305	3.1379184643675564	3.2070512690636184	6.179979308737872	5.82143972834427	6.443255408231855	6.29245088895928	5.883398518013278	7.866653422521422	7.57952545159718	7.556866149896577	6.898280603158467	8.243164041688011	6.132863982929093	7.546594123860499	6.6287903618344695	7.398995857631587	8.020733813062582
364	-1.6152317483175618	-2.2601764145053953	-0.8333562591493346	1.2642817465333371	2.6344575815444347	3.751156559056462	4.863132941365569	3.7727858924979465	1.1627113789766674	4.420672405525886	4.969859110682292	5.044320093770664	3.0663790625401197	3.476820936961617	5.02798842114344	5.017894255366923	5.140604006186262	2.826750748173199	2.73228167797714	6.400967581800536	5.863170608976214	6.4039482908689385	5.490315900292337	5.346871362538045	7.760825137571327	7.394511204170009	7.278400879603541	6.462593062296802	7.965843180571773	5.759704575301894	7.192481022795321	6.046343311303054	6.921563131023268	7.5825047301541115
368	-1.510646935463632	-1.9507124374729958	-0.5358058796706272	1.503951188105049	2.616961949416976	3.833703269816069	5.0572991243470256	4.136239041375848	1.389885183639925	4.5322232131971285	4.992984759122441	5.1712775099845505	3.4145777139284585	3.72675704015139	5.295267568570432	5.054617392176062	5.250209795094104	2.8676106857378842	2.6582162313104996	6.447274191791045	5.820874676313226	6.313936694416508	5.129788862628362	5.006393419977259	7.657859782911856	7.189123135535732	7.053256970717628	6.2902803262206195	7.756654719796212	5.453392968714416	6.940376264215516	5.623221383202633	6.600278837706015	7.252166252899757
372	-1.8388457251852417	-1.9573125789816006	-0.4851941156058284	1.5924410779802052	2.3256239832335885	3.6434464362662697	5.012404429178392	4.303685177427696	1.4426434003646336	4.0786309139273005	4.78999518138787	5.131322370925272	3.805657854008581	4.151705731400275	4.960874544970113	4.878457057080053	5.213433729360538	3.259650460596468	2.9552504941714	6.239696486931828	5.68422220702323	6.197315677254894	5.35658930379769	4.963297354564826	7.537378292127176	7.001559716667243	6.934678060189375	6.423751337999116	7.664220313749069	5.261338220664152	6.833782655628437	5.495952592325225	6.529143316950556	7.107912522490037
376	-2.366142743812441	-2.1681578104591552	-0.605520306488939	1.5574176272171905	1.918186540529054	3.266417495110022	4.762365329162707	4.286277760174283	1.3767468894531254	3.286653033541598	4.42348288372924	4.938322531629835	4.096953858522153	4.517623889961284	4.154716958046725	4.54826449199574	5.0351614824961795	3.8259665869437565	3.4490730675400965	5.819178089708623	5.470651612774846	6.068623527463843	6.038181289686698	5.172302233034943	7.379243355240051	6.851829511509387	6.913433534333588	6.750456792954293	7.678824405356484	5.181011186870376	6.849356634013189	5.676974282236842	6.699964029562488	7.156643849423887
380	-2.761176817598401	-2.392621034303451	-0.7716592530795187	1.4475318156889003	1.5632230003943668	2.832501165868031	4.387957085021327	4.1397414102940076	1.2554818360102058	2.5008230146210875	3.9931533235821974	4.633627879841741	4.157652844422369	4.697391974987149	3.2135879912303422	4.155363072394459	4.74776314490392	4.296890724777614	3.915976514466137	5.317013250278224	5.204280363294782	5.913377746910976	6.824325544293671	5.470270143049247	7.16892192937946	6.725314123340039	6.915623170558529	7.049926740013146	7.732664565590424	5.157381998392436	6.904575330468013	6.044961914059227	7.0050701918170715	7.332988720499655
384	-2.7958223749144935	-2.4883909162638034	-0.8979120231846502	1.302541133453038	1.338310119111021	2.4367246566286234	3.9695827860745685	3.9165575405419406	1.1081454725897748	1.9937083670824591	3.5764708428684724	4.258710373616687	3.930671205133382	4.692584025933126	2.5026364263291554	3.7704117202932474	4.389325607661915	4.43895386528808	4.183183659482422	4.884554373806601	4.8999380941657105	5.694116578030965	7.3166208082485	5.664025292401371	6.9058313195395495	6.578717215140824	6.8393516367850316	7.100751858903379	7.733830909276445	5.105092512593058	6.894861680742783	6.400975211195048	7.283372860639571	7.52513883598132
388	-2.479997151789146	-2.4460573134654124	-0.987039503943359	1.1415287227420015	1.2010188072399357	2.0996978229916192	3.5589325338154625	3.6408669856654825	0.9209422445887543	1.8410897208460801	3.1983642497374065	3.8438451193082854	3.4681837471183115	4.56906508245836	2.2401940766041855	3.416217556911379	3.9924447435668964	4.161858071309945	4.184242714808117	4.620744693533936	4.560159671714243	5.376287446753327	7.257955532822884	5.627006039717736	6.607571585185161	6.362693293719679	6.607642633921554	6.78916977121959	7.612768153997381	4.943681227600192	6.739197237166071	6.559280378947221	7.3865070156526205	7.615334014739195
392	-2.0452511258939765	-2.3773410260259893	-1.1069889040654732	0.975836095730373	1.0442222330432187	1.7856037571647576	3.1797077575512334	3.321354857642217	0.669225214222234	1.919701690595419	2.8426413464301983	3.415350190122797	2.9234580919842124	4.374352444094982	2.412030929197683	3.078236095286062	3.5875773339292985	3.556176415048007	3.954237451106598	4.534734714503044	4.186565388599861	4.959658133382608	6.65130232085356	5.354121671510218	6.308292372989109	6.050962909680063	6.210912688786726	6.1655187451147135	7.357880096932171	4.633446204884925	6.4143428640543645	6.428882582645585	7.237698059882087	7.522289257131092
396	-1.7950327351072601	-2.4251983104510595	-1.3198653426225553	0.8275319316951676	0.7889828662025898	1.4554163180798827	2.8463570999761147	2.983201257803224	0.36433270481630864	2.0155124613419844	2.48929094639764	3.0081560535776215	2.4944910940132945	4.101422776357549	2.811081640775626	2.7390179564940684	3.209975234510338	2.8469264435415718	3.5787601380592258	4.5584907416647455	3.795848598433371	4.493962753393825	5.751576409123685	4.948872076891285	6.049253925309378	5.660044178977585	5.716660485139574	5.42151449742039	7.02060983792652	4.196451176538768	5.96295402928703	6.045839294428106	6.858416063159018	7.231292706352116
400	-1.9231293152892186	-2.6642594270197293	-1.6222466189434666	0.7278726082544614	0.4454592157084382	1.1081147165931484	2.5741295749523636	2.681490652943632	0.06773635727946736	1.9608548830116586	2.141984934167203	2.6637535027961534	2.333051437209587	3.714939108052321	3.164077512381956	2.404413932451777	2.8950405047756864	2.284227127030122	3.1315445820899477	4.5911517027334074	3.422452679576301	4.06112765240533	4.930038916538444	4.55072592540017	5.858369335642389	5.243039117927149	5.235379682674271	4.794569480234964	6.682798368747673	3.7072424795011965	5.468607888719948	5.539398656210896	6.348316653436153	6.795286638269576
404	-2.4062583385750504	-3.052590362471173	-1.9355286310919586	0.6986973268034637	0.10508324924402486	0.7839588503118013	2.3748533665779243	2.486191266458566	-0.1338892426686684	1.721808309976277	1.8293495132036022	2.4150769649565937	2.4689950880657032	3.2152719416502853	3.2729697144843484	2.1066970772006326	2.6658689908431805	2.029953474641706	2.648200266827731	4.550971496536024	3.107640020153841	3.73750375757726	4.48632191479007	4.253316868533868	5.733136639425368	4.8653330680079625	4.866094576947691	4.452706802570252	6.411584837938281	3.2618927873272567	5.016383158416393	5.059056269270568	5.836422428654342	6.3114781220350205
408	-3.023470394130387	-3.4557130249513106	-2.148282045662535	0.7349047642273075	-0.12517155675279695	0.5342951403479643	2.2464373055007765	2.4478216109463093	-0.17354582206302147	1.395668860726458	1.584021087461913	2.2708291950113364	2.791101448641623	2.6955900124203636	3.096704952050956	1.8854567957004946	2.5243215497180094	2.1001717991256763	2.148802751837978	4.408167827920739	2.8819537090018423	3.559013834550731	4.510937202508684	4.065698136555167	5.638327107499212	4.576417434582131	4.652655112917482	4.422142494480916	6.228165610801272	2.940176956382919	4.6603579403516475	4.70408486132279	5.428374753598138	5.8840389103151285
412	-3.492911806824556	-3.731117000696412	-2.189603800013774	0.7950600961639004	-0.19857844660213797	0.38010629915590916	2.164259428282108	2.5601394111845845	-0.04669559735191162	1.1303080291820742	1.415362235310526	2.207919353632693	3.0958850305594963	2.3366386831416923	2.740948670142758	1.7593914225980638	2.4498443541663	2.3758413731672268	1.6822471576179685	4.1866226090587	2.7508628298925077	3.5074534327644042	4.8596606131883	3.9345662494503304	5.522523389224693	4.392407883044758	4.572044837852449	4.590088355873299	6.108980640246473	2.778213970799405	4.412198055571697	4.492105472667313	5.1734366286314435	5.587296471794311
416	-3.632289877303959	-3.808999290386253	-2.0758004136128676	0.8215940573929901	-0.15999861021177264	0.29529032036614267	2.091569418394832	2.7565672328016895	0.18327026022892984	1.0235104535010895	1.3007557359279436	2.184802526679949	3.1882529178232377	2.329060071786925	2.3748235642556117	1.711770649402865	2.414131158455686	2.672107451368201	1.3566136325917255	3.941034068647868	2.694509737841182	3.528516760500531	5.2479905949654295	3.80840705863726	5.348081575242509	4.298800934428553	4.560494411398456	4.77720020995411	6.016321167061226	2.7647333075338794	4.2547159087525035	4.3797459491778	5.0652103296188	5.447202668742253
420	-3.4461755665555907	-3.7185826207689523	-1.8990719270442935	0.7798536400179058	-0.11260829837501603	0.2266216570377749	2.0019705245017847	2.942987673004851	0.4226689924059164	1.0659764978198374	1.2017182081399644	2.1654641573592666	2.9849815293288806	2.7652394701760343	2.1297538226715944	1.6983786778485417	2.398890489243677	2.829680674084381	1.315802213207765	3.725253334176793	2.6798701218655703	3.566675892407973	5.413417325657386	3.693920603008952	5.115945803123518	4.266966332152971	4.556806552826224	4.836534964748152	5.933801636019568	2.856930725513994	4.1655678643914	4.3118834386679845	5.064911352721361	5.443348870839385
424	-3.088798038313595	-3.5452310949462467	-1.7616879895554614	0.6910848004059049	-0.14001099729951372	0.13936564291099873	1.9030437421435187	3.0512344760152454	0.6060913189844455	1.1608580321567006	1.0972489090873179	2.142378086403149	2.563099139418079	3.566654434735908	2.0426237531589106	1.6760754542949277	2.4076261459599024	2.7819511820173863	1.6628133016565974	3.574010124719778	2.6805884770425896	3.597501984096502	5.2555041180482664	3.662128200821764	4.8749413367214975	4.274204720196219	4.537456500995195	4.725559222688251	5.882556900431175	3.0054860039170044	4.135033597042954	4.265105236729203	5.129684912128137	5.5269927838972475
428	-2.7470335891032254	-3.3609063540480966	-1.7065098242589818	0.6311562641421098	-0.2458837920179818	0.048704303678093176	1.8360493136780198	3.074903241977216	0.732567189274408	1.194989439808259	1.0049973700898838	2.1367671435767392	2.1250100082151877	4.487050998803121	2.062509054698671	1.6282799202816887	2.456745141502393	2.5708210403385245	2.3646397530935794	3.4981672675504227	2.68751978195673	3.632159700760098	4.876571166124121	3.792989959677161	4.700967299990329	4.309879768934273	4.518769252812396	4.509223926603585	5.901796326041779	3.170466176611431	4.163066853502938	4.254297245728659	5.225836740651245	5.641447529854615
432	-2.527805083568467	-3.1815061488888556	-1.694175119891015	0.6842986924060704	-0.3531465223456191	0.011776274040411466	1.8459222270136888	3.0600094717969237	0.854282675016758	1.1121250362928012	0.972297606397571	2.173238987204139	1.8945770215838404	5.202318655230886	2.105610842156988	1.5709650476846955	2.549409621477788	2.312304014089972	3.2045755305444783	3.4913668544358787	2.7043967178729824	3.6932222749925265	4.510363090571657	4.095920075565778	4.657118785544151	4.366506565513717	4.5286149864301155	4.301250446904058	6.00733135614032	3.3229107772855055	4.240935314915226	4.302274693117293	5.32350681868224	5.735678658309331
436	-2.420343392937072	-2.9802522584057622	-1.6420364338425377	0.8792311526988253	-0.36475735810693877	0.08390334227359228	1.942708248955607	3.0601406020150987	1.0248584721439264	0.9442024803164658	1.0430468294512156	2.2502448501994152	1.996969575608466	5.452266202512427	2.117305273432394	1.5383723935387736	2.6552102498727765	2.133098358490787	3.841452112035885	3.540247192981291	2.735764734990441	3.7829310798502624	4.38294791068705	4.467759597942403	4.7574996828126865	4.4274010546483025	4.57184599675798	4.184012879298444	6.1601238095204245	3.437839976214087	4.335389126322261	4.40030812106192	5.386216150036366	5.770378098224165
440	-2.349028342992003	-2.744546883329474	-1.5000194273270118	1.1467057437555421	-0.24377036033119429	0.2663399868439594	2.0772218651778824	3.0843048017831913	1.2429723708241989	0.785683510704023	1.2192494838449088	2.3249063433123047	2.387785428694322	5.164232717827044	2.1013576931351334	1.5565713604728062	2.7105743816604857	2.1081731266201236	3.9602639575153327	3.6286282447753617	2.7746720243972143	3.86567949272728	4.5787796858579055	4.722175109385027	4.953097330939456	4.46163128680065	4.612799155986858	4.152725686079096	6.269247992899698	3.4886891753807494	4.389120090847248	4.490871418104999	5.369929776939057	5.719855770928626
444	-2.2721555175635295	-2.53152298288159	-1.3121514287244895	1.3284765448408045	-0.0550426615875054	0.484549670188144	2.152834648418985	3.0745501440624583	1.4262970649948323	0.7320361118908002	1.4455085956317526	2.3281536043514692	2.8682207988802646	4.496418464752371	2.10591244165879	1.6249189335805796	2.647702448835824	2.224226469146331	3.446388474346191	3.739806881045566	2.803290360048837	3.882053842280055	4.988455282968105	4.687393176642033	5.154113756518363	4.437281597378484	4.592238891451365	4.119831074803504	6.237809642301582	3.455852022982576	4.346267689222041	4.494085300543174	5.24228094684752	5.578556046706516
448	-2.2465012016798145	-2.4720551905207455	-1.2151637046651609	1.2487044302884864	0.0605243517420462	0.6155083759980232	2.0743157811245503	2.936322443224316	1.4426902496153087	0.8160511234660972	1.6284282166375152	2.205836290512342	3.1822748103859384	3.7705378437212738	2.173613065953805	1.7154816345772115	2.4387283263623343	2.3870232044988584	2.4829878744378453	3.853525867269684	2.805459730694605	3.788287153216256	5.364427552984442	4.31513213021862	5.273192392387153	4.345136631485639	4.468968856972554	3.974961986042677	6.023829444935336	3.344528905053801	4.188971508894078	4.362070072604996	5.010794626936362	5.369569288048365
452	-2.406272405271182	-2.7094113758345646	-1.3686281408087673	0.8102382997083427	-0.03220535806631044	0.5510137067234482	1.8039545967332942	2.600350850215751	1.1841546267176335	0.9860635970969156	1.6830277400439764	1.9593732307555727	3.140771619496461	3.317158213823467	2.29961418524933	1.7914984180995819	2.126910919541565	2.4612765250053568	1.4929790459132075	3.9474460978980366	2.7833497453988647	3.595113029939936	5.450318322726085	3.72718452466264	5.269325243043889	4.216916550480018	4.2578563582685005	3.6600696948149984	5.6787733888302	3.198472014934888	3.9602424998432677	4.124651898460766	4.738923537687468	5.147618757602877
456	-2.868365995794571	-3.306820145841145	-1.856402273259507	0.06272661670106655	-0.37526222968724327	0.26045277648971304	1.3913090193907247	2.0794768280933313	0.6378114207377035	1.136907217016365	1.5796176155263142	1.6584055381865856	2.7090294292718085	3.3039648449450336	2.428226226398005	1.831947798872091	1.819840665037302	2.3301117361366868	0.9371698475064627	4.004316319846128	2.764971726112379	3.3771819983093727	5.115175711114964	3.165043107624879	5.166687475511276	4.121404160584445	4.036730756104621	3.2156143107290105	5.335347162127688	3.0946180742333493	3.754635086116771	3.890293111515845	4.531515110018985	4.988088595194373
460	-3.6277794746359033	-4.182700623442382	-2.6203157835607302	-0.8007634261894788	-0.8810062982250443	-0.18604738963361564	0.9548940634460579	1.48022651298642	-0.08638469853048816	1.1720269888850936	1.3618419135996436	1.41120624185941	2.019704575207743	3.6419677642424153	2.488520854389086	1.8439167691406393	1.6401689011171503	1.9528281639386014	1.0699084970164532	4.0192842382043334	2.792496435744424	3.240219346448749	4.421168316169166	2.8640298771073986	5.035974013011706	4.132616986331282	3.910741557738021	2.767991058990498	5.142596708665361	3.112903587111377	3.674770822783863	3.7922634982684724	4.488174903982168	4.959086882468523
464	-4.518222797430474	-5.120894419138856	-3.469702473463354	-1.523186918227687	-1.3727798427254703	-0.649555502682082	0.6237358435141771	0.9570968722974604	-0.7892740348915824	1.0590194436992189	1.1257761688419536	1.3082979884494896	1.3042072024795932	4.033042420695232	2.4451343951480404	1.856646175465312	1.6613551336304937	1.3924508059631595	1.7905189945791056	4.004389752768306	2.8985886500609177	3.2641823209365883	3.595496407014163	2.9244236872271356	4.953745352635818	4.287833679817571	3.9547974963474934	2.467630141703793	5.187149511592427	3.2959537422888685	3.777494659423314	3.909801473282997	4.649313914958388	5.089299665953244
468	-5.271950708430326	-5.858795628060746	-4.165482510540296	-1.9020450067181838	-1.6780019956184937	-0.9904366110591108	0.4717431652556488	0.636140762153512	-1.2666774956193907	0.8498377182485005	0.9712561344420401	1.3707247937880929	0.7815262655553697	4.131000985206211	2.329373115380495	1.901000137297909	1.8632811260863777	0.7987686971524618	2.68055342951155	3.984080781414552	3.0825917642966716	3.4527728470412535	2.9202017710390646	3.2540645517208002	4.95992802321347	4.557864654477606	4.165444840404893	2.411332839599836	5.443104730215001	3.6182930378159823	4.037704457579213	4.209831227164167	4.964475619179771	5.347024427265442
472	-5.649789319079159	-6.207560523573021	-4.532049644471981	-1.8834345293176609	-1.717526789143581	-1.131752845767782	0.48617169138232147	0.5535718784661043	-1.400255795758212	0.6556959731713395	0.9546567773558061	1.5374118050859986	0.561871050369742	3.7471072579192244	2.2287955227846976	1.9894957492189493	2.1384959166894397	0.34842958958393816	3.226687184770268	3.984315862132952	3.3038530266317174	3.7235181237624726	2.599662774198201	3.6246580986061865	5.038196074163323	4.851871955065874	4.4547991640151645	2.594206326610659	5.78350590199351	3.9886441130070343	4.3550224194245475	4.5508398894806925	5.308192239710896	5.648184762045856
476	-5.568012700328105	-6.140694125884177	-4.536787498463926	-1.5821495016206908	-1.5424829682506855	-1.0863304110756387	0.5845240935826597	0.6440647228192359	-1.2059946029732227	0.5848733768001616	1.0664757463232157	1.6988333420777404	0.6135336145169555	2.9915449543763963	2.2339641991479904	2.1082374996363185	2.3475549161768754	0.1673098053284302	3.108456365366624	4.018551339494025	3.497976771106202	3.947534312772081	2.6752819947409234	3.8086979293030296	5.1303715576342155	5.058333384140557	4.693090426993859	2.9177622721438565	6.048345550525294	4.289137829441964	4.602221000495987	4.752939212243146	5.539283738456059	5.892770275496941
480	-5.1427073348857855	-5.798182472848789	-4.292433727871143	-1.2179781167750596	-1.296937343183983	-0.9337285137443992	0.6701933724648763	0.786190567415847	-0.821318207097666	0.6834324581057367	1.2449873654403882	1.7596129134574898	0.8024207333332742	2.2483174744108245	2.3784861504585226	2.226202482324936	2.3938577114701283	0.27421361138729755	2.386993879013703	4.080403794477023	3.60888146442971	4.018157472002344	3.025072805396483	3.715158214725962	5.175010191249541	5.1019706597261845	4.777339923241111	3.245542994888067	6.130837425011846	4.432599533333908	4.6893019557815006	4.6969632983830065	5.5723862507321025	6.012631401140366
484	-4.618900764247821	-5.400271878913232	-3.981827010591995	-0.9995886062180416	-1.1306250066821895	-0.7645129542122159	0.6931763869904374	0.8777229167712368	-0.43686610349983285	0.9100856161981958	1.415316816571322	1.6945071177615758	0.9743217801290327	1.9876779267671791	2.6107220583804844	2.3149633349145566	2.2764871062977106	0.570914803494034	1.4823481999164883	4.147310723324213	3.618618002338477	3.9097669025891144	3.438167801759524	3.4438319119289393	5.145045744303709	4.9838256710108	4.685844886393256	3.4705142887231455	6.031424507172019	4.40601300080826	4.6069035413777195	4.395400989879242	5.421187387130689	6.003986820321127
488	-4.234097470083857	-5.1275267471555575	-3.7569038773097736	-1.0225639317444462	-1.1176472874080092	-0.6308754070566372	0.6747542006622846	0.8880653358926162	-0.21142223423984605	1.1561957568541408	1.5280148944423042	1.5610381325409963	1.0267848942582032	2.5026988919967224	2.8155810761890705	2.3643653333097263	2.087240690683593	0.8857545830297979	0.9375182962589399	4.191071022896346	3.5559742360934394	3.691029777744644	3.7258593942033387	3.2213685431210988	5.060371862986728	4.780261027664888	4.486850250360025	3.558362951831427	5.847925171392635	4.275109280283047	4.424965370450351	3.991296281274264	5.1881613600395795	5.925598129570552
492	-4.100112904687273	-5.0387697092631925	-3.673347225451642	-1.2374536959876683	-1.2283531396370488	-0.5328468070882239	0.6804777962670356	0.8560574629151092	-0.21418203359410715	1.3020583358315763	1.5752544363304821	1.4595826827391634	0.9474491453091843	3.705717554273113	2.878683559779142	2.384610646903021	1.9511665056557483	1.061573621930685	1.0998743744737556	4.191446770576062	3.4786412628084618	3.483130446223031	3.8126220606865546	3.257297984482412	4.970497118798358	4.600209224530608	4.296703804612071	3.5484459310587355	5.709671959766593	4.145810116791137	4.248089302781685	3.6824085619460982	5.004697310209813	5.861878380280746
496	-4.159755696284736	-5.060100065807239	-3.684796085591193	-1.4952342472472353	-1.3577728237203908	-0.4366096545163342	0.7671266774836625	0.8452774860975384	-0.41210454598330926	1.2853906122179575	1.5846893747374473	1.4704005681107155	0.8031617978798957	5.128835665151521	2.761069529238076	2.3987843929762445	1.9509990166043523	1.0396864387965528	1.9149324845604019	4.149740208639124	3.442236176383042	3.3907146368250105	3.755577077920423	3.6115918068300936	4.922323691338197	4.526321876542107	4.213013161512823	3.5146081358865993	5.698946938431367	4.106153477792139	4.155683506963962	3.6154012588773603	4.958009707330862	5.8728566021463395
500	-4.24494217754549	-5.0499839655215	-3.693245878431798	-1.6367754894893654	-1.3946845496251223	-0.3105983130242558	0.9396185851215876	0.8918495751752067	-0.6989552361007557	1.136008617394	1.5968536098217867	1.6053739745616276	0.6963873488010256	6.139045222995274	2.528382294947015	2.429749721114617	2.080414766781149	0.8928785301553663	2.950927250087467	4.088509072471696	3.4721286209181663	3.445354452971238	3.695019474237257	4.150263299000352	4.93062113470714	4.572659957784977	4.2626047026778995	3.516582241716576	5.8045148702937395	4.17983435529166	4.16206549547324	3.8076734446712166	5.045320498126048	5.95945166036887
504	-4.19344281091526	-4.896010863340665	-3.618150225087461	-1.577327843498404	-1.2841405836108841	-0.15122324190106545	1.1448806495371275	0.9793226694177067	-0.9458671188315501	0.9616652702847361	1.6423059660455317	1.8023229791913322	0.718151031111495	6.26867721882277	2.317554229607112	2.489752047928458	2.2516574802770255	0.7866173962760059	3.649138202990791	4.039390076929206	3.553455105393012	3.5931320099711823	3.7648737335518585	4.616057861117791	4.970012652246846	4.682269084552918	4.392202366230091	3.5680193810978182	5.932836040776644	4.317305553980223	4.215925206030617	4.1392278566759195	5.178499685564461	6.062542900037789
508	-3.948486794993187	-4.582089412564637	-3.4384727391214254	-1.33927321095887	-1.0456994745556023	0.021046213752538925	1.31140768196886	1.058884021946631	-1.0488728258354323	0.8937198497142469	1.7345122055130506	1.9693993280279278	0.9164477563608134	5.488492475003973	2.2611455860269962	2.5808968478844965	2.356505149613751	0.8848766662191178	3.651630630810426	4.028001298271437	3.6463882831063765	3.735524406538556	4.012226094606431	4.774499881134023	4.994869219566902	4.767057883624736	4.507574070040368	3.637116661425684	5.970418438142695	4.430687416334342	4.238976467874274	4.42054795102791	5.237226949820486	6.098892673352997
512	-3.5898258595431285	-4.195694912807768	-3.191597692061009	-1.023685333528419	-0.7506896834493868	0.18500862968941514	1.405024405746783	1.099492904748156	-0.9601404046612972	1.0163637374012744	1.8765143108674203	2.0500976987577166	1.283409473039915	4.2512783896876964	2.4108769832777446	2.7035951546120667	2.3428921640371585	1.242738720617269	3.011748306299875	4.064609040488581	3.716875782165473	3.7973499202221834	4.367765892445352	4.5498661880061	4.976165282083607	4.766583907490679	4.536643016805355	3.6749567892750927	5.859168991554677	4.450593460290431	4.179260720191789	4.49730204400429	5.139458643335149	6.012240871508784
516	-3.272038928353886	-3.8686256311018	-2.9342784807508386	-0.7419968824726463	-0.47405263661860764	0.34220486792950333	1.4590885602352228	1.1249067754954547	-0.6923857909841327	1.3207116093669398	2.069923872490009	2.063290113961836	1.7563137963775015	3.270635596600837	2.707223885376831	2.8612351345302263	2.2546040954887023	1.7518809989567474	2.167646641026852	4.142477978738026	3.7593548202967493	3.77539299965384	4.678662288297376	4.0699853794337475	4.92486237236206	4.685306060405847	4.472604263457516	3.645388594006728	5.634744153101519	4.368463505206042	4.041324128437995	4.329670418298369	4.885755526605083	5.805975899342785
520	-3.1228263299299526	-3.6998014356662234	-2.7048506668464456	-0.5567156658422002	-0.2571219199364619	0.5177469836514632	1.5553151329826915	1.2032960622924749	-0.30884548943744894	1.7074040131376444	2.3146181048128893	2.0922615475282162	2.2260138932293425	3.142329684906956	3.0130507869942185	3.055929891500217	2.2088460866473207	2.174108499759927	1.6834206538613437	4.24379347683428	3.798224916405277	3.73854779253251	4.785137164432362	3.5943946747629165	4.888076769885355	4.58749817643648	4.373858917637488	3.5406248480096343	5.407802091296563	4.241530884524318	3.879535188416785	4.007189740554205	4.557986724789798	5.543110356640978
524	-3.1664616981669518	-3.707422485527964	-2.512263291691813	-0.46317332866076943	-0.10294569257732543	0.7352592330488918	1.7641237929627025	1.395268436723868	0.09545832103231779	2.0358848520376194	2.597220891117208	2.2275690976168954	2.554194205511118	4.008354653728754	3.1927559295153602	3.277322045634859	2.323328489159794	2.2543060722655777	1.9101164292747097	4.349170673833853	3.867964257965042	3.7797424697814086	4.602898109258926	3.369129887657705	4.9196410054929185	4.55409144205427	4.322934139781442	3.378576508575017	5.300051675766605	4.158315648070598	3.761702289620657	3.694874038904372	4.2763519179141865	5.31381367295476
528	-3.3175272857829845	-3.8340985678192214	-2.355342620624987	-0.4176537980025324	-0.000806884721678296	0.9811604594254264	2.0790700859984113	1.690924878619619	0.41661363734918316	2.191396707724091	2.874207966223547	2.494098418614506	2.607174866769567	5.459406838938491	3.1847748676000855	3.4887416274680194	2.6306130819661284	1.8573747826412068	2.773739330918124	4.439309108970044	3.980607737981548	3.944986810260813	4.167481888739594	3.4929866702582046	5.036388861338295	4.623716342696356	4.366576183738639	3.1847076335609485	5.369492994103245	4.18259762661647	3.722456445832414	3.5406684786094997	4.136875142143285	5.185100542328802
532	-3.447045317529957	-3.996630181712457	-2.252665037189765	-0.38749521872915765	0.04604801523980378	1.1886625259906147	2.3935875832206883	1.9829970548154963	0.565786777498375	2.141051525432377	3.0705566328725897	2.8136212754738037	2.3014495314666203	6.73665331093348	3.032340280506308	3.6284582523288917	3.03719615169461	1.0540339920135027	3.8089103602564727	4.495240200137426	4.106965054633352	4.188870896253952	3.620897045530355	3.8685204885086817	5.1950054037539894	4.760167109868941	4.479986656322177	2.9773199483087955	5.574592576257538	4.314381111696346	3.741307010741486	3.6014768986372476	4.169544209443616	5.168584333721819
536	-3.4731142433216835	-4.1433243646917	-2.2524111214036626	-0.38272970818210733	0.009708875765725825	1.2573651043617742	2.5423102314658053	2.1073393768511104	0.49511644119189147	1.9404605578068017	3.100659362593951	3.0302078647402078	1.657374973881021	7.13603971586995	2.8468465733177744	3.6280836967420687	3.3554861460844863	0.1111866530949063	4.419968593882156	4.4949779397010765	4.183150280881432	4.386015880955183	3.1510965744569654	4.261162270277977	5.302800641976706	4.8659353133372525	4.576909053690997	2.76705002086116	5.795517906815478	4.48782347499746	3.7568352127591655	3.8219838045899204	4.3331160435948455	5.220867143801
540	-3.4149298581689025	-4.278738011047811	-2.4075498520147827	-0.4476190496110662	-0.14416320585569606	1.1059224577638445	2.392480844179293	1.9360655497307397	0.21779327039567387	1.6941643910549826	2.9094803259825155	2.9924220963266963	0.8250173309477321	6.391253932075305	2.7311808994002074	3.4458696755193756	3.3991615686426733	-0.6168699248951899	4.221878994772909	4.416151512440377	4.144058217076322	4.3980941661419735	2.9132513926386436	4.43333338571853	5.264121995986713	4.838088977042812	4.562218177721008	2.5677797729511833	5.90127514302918	4.608709800528433	3.707920780357028	4.074014176573233	4.544022071809918	5.274052129781222
