time	FP1	FPZ	FP2	F7	F3	FZ	F4	F8	FT7	FC3	FCZ	FC4	FT8	T7	C3	CZ	C4	T8	TP7	CP3	CPZ	CP4	TP8	P7	P3	PZ	P4	P8	PO3	POZ	PO4	O1	OZ	O2
-200	-0.4610985803883435	-0.6623411161866362	-0.47661930202312286	-0.25148567493840873	-0.060074243542870956	0.7111113053487815	0.6737816316759401	0.03754030158578473	0.49037167306117063	0.6004250034431791	1.9651020715690508	1.1594721049598824	0.38862717053522916	3.3734035406773106	1.5261650046917257	2.2228701058532465	1.5000730715071742	1.5959562022923142	2.0967593140116114	2.1153740829465475	2.4394931731621607	1.7835382178099262	1.915284271172978	1.9807003686488094	2.243850225505477	2.12085270346189	1.8723941994123685	2.200974220440999	2.2664275112150762	1.6435940224158758	1.78246020820724	1.2178626029737765	1.4478942119282199	1.6720789628728279
-196	0.21393655186521948	0.06246925874673737	0.13401159610292215	0.42876770984161416	0.826986191568982	1.4407073222979274	1.1715176075921292	0.4756858634859746	1.0577175590513217	1.6088572699935069	2.703975670663352	1.6856769280789747	1.1216539116196953	2.993113748622924	2.2723064365237198	2.7512030532040264	1.885534758575664	1.8813295316880878	1.687678928882636	2.566957705692517	2.7745408941790397	2.0540049024221685	1.8276863051999888	1.842822904702483	2.4167761741655607	2.2505621853273983	1.954250926805798	2.0204317518721666	2.30585598363445	1.8072484686045556	1.7880814030325256	1.160894033362054	1.5027378759590644	1.6734244781205905
-192	0.8667665698102209	0.6784121973075596	0.6355020983863562	0.9914813016654516	1.5663188656361844	1.9557263801788427	1.4939278326463468	0.8633418061393633	1.3412828411570434	2.5030128892646064	3.147015086811631	2.0183825441899628	1.694475765718503	2.2289833966245554	2.830111734874308	2.9951455517488976	2.101085895955644	1.9304863165752704	1.1064422102649736	2.7854440141924055	2.873668663398981	2.0870702213999657	1.4428786002923235	1.6028591353956136	2.361893409487842	2.151431078247358	1.8482359601087381	1.6655024248034944	2.297074312132574	1.7268120006832486	1.6158639151784535	0.9662796234530177	1.3674557174489954	1.5709722002420505
-188	1.255782601046983	0.9646722053967732	0.8525284507208025	1.2061858146731794	1.8277502013790268	2.0268361517278235	1.4921944103713651	1.025828478130552	1.194651123845368	2.846750013793482	3.0950543802320034	1.9968584725508853	1.894236559853743	1.462002392892356	2.8889429496305588	2.821949951676531	2.0118453451860816	1.8050051881994529	0.642016588020635	2.620687001287454	2.644237988471646	1.8279881431203693	1.0105226014373232	1.311420556572099	2.052217955176314	1.8149236394836152	1.5607719381981016	1.2897144523483373	2.1884999219953207	1.3931531870954192	1.3077380624178834	0.7068194133079208	1.0867632600049049	1.3863187993334387
-184	1.2307597367684238	0.8068597296370693	0.7012033444820731	0.9795600747172477	1.4498813115707248	1.5821549852479964	1.1355253429353813	0.8953247643754171	0.6750413758400874	2.398700708055191	2.5211682255987733	1.6013842780690148	1.6589564043122091	1.0258073780863548	2.3258640707421376	2.241009229724076	1.6145936209922076	1.6078548390802052	0.5279542790434779	2.065317387134818	2.1102197116979644	1.3495914901991763	0.7641642670411601	1.0657353374276852	1.5626329144125803	1.3305897679113357	1.1797476977126464	1.0654066774172235	1.9758697698298289	0.9274456477591329	0.9836971734960176	0.5040485250144786	0.7866724709676394	1.1912487715208895
-180	0.8032496551260728	0.25566732818903576	0.22861035110452363	0.40555184977182585	0.5314075337344663	0.7502734046113264	0.5272512422601272	0.5336723314162788	0.014492035806843077	1.2510278193359652	1.5893940885469802	0.9609685515937156	1.1063730688772087	1.0425347063445984	1.28091704522028	1.4072489702934734	1.037758586170805	1.418775674098905	0.8177086690284712	1.2681672541071454	1.4102902376808144	0.8158613422776115	0.7914107421920961	0.9615150665802814	1.0361285183496032	0.8455642440428288	0.8300008156801757	1.0840467187214802	1.6964645342910576	0.5176120387360325	0.777802286568495	0.4604601550397662	0.601722000510217	1.063750145133808
-176	0.1398717459485088	-0.48873320098507667	-0.4037070562183628	-0.27810734440206397	-0.6015692934106879	-0.19063799035101414	-0.13977475429054292	0.08928476996529341	-0.502533792180626	-0.19601444850546967	0.587422786660058	0.29105049298236174	0.4684330511187271	1.373175736775069	0.10158842031341059	0.5599476680923411	0.47534376262815	1.2504590718169544	1.3574072088302616	0.47173219800103783	0.7425290327398574	0.40054210919342503	0.9933554505063924	1.036414382225224	0.6173386558205202	0.4957254218460241	0.6098160132270557	1.2981108394273582	1.4014278614901161	0.31607147971461524	0.7621948699781088	0.5940452203057525	0.5948578700305684	1.038136121989859
-172	-0.5208179937564721	-1.1654359072824718	-0.9887913440535296	-0.8083182552910407	-1.5403809508533437	-0.9358749366019867	-0.6687429530425739	-0.28682318257395206	-0.6919124108965217	-1.4158468210713264	-0.19643737326140567	-0.20786170608969395	-0.032075952657539486	1.701889629835527	-0.8164556601891664	-0.07599566112643155	0.08932337142326861	1.0513917181172807	1.8608113480317003	-0.09578593051091798	0.2797736220448755	0.2029320145490244	1.1580938071575761	1.2351126639653804	0.38731160662139064	0.34385180386513403	0.5426951037056628	1.5414913853827055	1.1245949239947772	0.3563653817716201	0.9029896236509565	0.8163895586382774	0.718150554274338	1.0792033645085497
-168	-0.9836775039632915	-1.5712612827684813	-1.3637236322304518	-1.026005027087931	-1.9804495523042278	-1.2899016109324595	-0.942617056374088	-0.5158399926513341	-0.5678924903836836	-2.0046408125809805	-0.5946588501221659	-0.43919974454618704	-0.28805124686948125	1.7055157379959276	-1.21333646467954	-0.3825201978562508	-0.06812933815205993	0.7530820946753412	2.0432648607164965	-0.32173335470985714	0.09362886077368447	0.20283579775143865	1.0962185832003317	1.4239176475814062	0.3307637563937531	0.35323467761501937	0.5677436575860553	1.6168425042339052	0.8658947326732925	0.5331881628879906	1.0722990008937794	0.9703835224447315	0.8363113978251927	1.0950823994644918
-164	-1.1738967865869767	-1.641431446699595	-1.46910798178738	-0.9418542957368231	-1.850499744511592	-1.2422147957910163	-0.9613112186956642	-0.6124585851465008	-0.32413449801624905	-1.8639343929914667	-0.6183103903418399	-0.4391627598641973	-0.34065386566939637	1.229764816040345	-1.0778664323296132	-0.38846045634421333	-0.06741737557317662	0.33063915288416473	1.7547575191063454	-0.25287994678547443	0.1268300857918072	0.2800665490708846	0.7510762195697793	1.4568759166174572	0.35095372707451356	0.41025757686031733	0.5735007510010854	1.3979377711287495	0.5970994219009772	0.6575627310363469	1.1111812563498105	0.9129503942328026	0.8013547638688026	0.9832147931070683
-160	-1.1395490140754299	-1.456044551034229	-1.352928873461014	-0.7048550230350179	-1.3220685687064704	-0.9481686329744515	-0.8178418854092078	-0.6467749460103303	-0.2120086694371493	-1.2220681874892205	-0.4255681623204717	-0.3348953119405729	-0.3213604680530837	0.3780579259387297	-0.6300151928254107	-0.23795582293990686	-0.0457370429076345	-0.15674534400466195	1.0429960462939953	-0.05760120213390024	0.23013494850706173	0.2870272092725031	0.22934618534357923	1.2535343138517316	0.3245906523615634	0.3856045295993334	0.45899560931668765	0.8946744777025594	0.28753575610044274	0.5590499029350008	0.9124152041287156	0.5980911835828909	0.5363889919089926	0.6866676194020426
-156	-0.9884988044577107	-1.1726392477946805	-1.121061560661413	-0.4942539619841691	-0.6993408781514788	-0.6296477897959428	-0.6314043982776834	-0.6741802079345468	-0.3819489767444881	-0.4895006107846223	-0.22299927416766332	-0.2597678893206506	-0.343690036859622	-0.5282154665962242	-0.18924082767868408	-0.10738064321586656	-0.11683246463842177	-0.5755162224544319	0.12475992707701739	0.06964309495985686	0.24331037638746275	0.1333496567220403	-0.2672142379689951	0.8463755228608184	0.16593359368868582	0.20070265182844144	0.18846191418272584	0.2454577976228476	-0.06775482726872051	0.17821614399260577	0.4781491744367103	0.11105082156038672	0.08040820786917431	0.23052567185373912
-152	-0.8051262477574432	-0.9274938679166344	-0.8675285555871057	-0.40583637254294286	-0.2548135214571063	-0.45395165567227214	-0.47968476889618167	-0.6841482502830372	-0.7859780172531146	-0.03423592067061789	-0.15558913310822806	-0.27640533377479987	-0.4213624883980608	-1.1033520670690402	-0.003950281990031742	-0.11534111172642322	-0.30046436114745206	-0.7807710747079722	-0.7096375805104308	0.009471991075502732	0.07771194706608334	-0.16459627407955918	-0.5637343511653612	0.371708839193285	-0.1302780654717463	-0.13409198786736	-0.18914440226484217	-0.35782733469265743	-0.43265563140352964	-0.3996191014690861	-0.07825422267230013	-0.3670697798998065	-0.42859035622153274	-0.2815604202791185
-148	-0.6049940570815456	-0.7687177638672796	-0.6305936559014954	-0.4043221463485695	-0.1061044705215445	-0.46207019570037405	-0.37362211848342214	-0.6082108005426624	-1.2024286955038932	-0.007378287594763491	-0.24810348388497436	-0.3562300494259993	-0.460839478998159	-1.0911571951973633	-0.13672231103233468	-0.27557262708706765	-0.518352447631563	-0.6917626244245794	-1.210042831226857	-0.2304171914005218	-0.24510826108560602	-0.49912080042708173	-0.605033396146998	0.004256740667354541	-0.48925897355531295	-0.5299628959626925	-0.5669128284446288	-0.7650336603876591	-0.7383638601734691	-0.9881241296615985	-0.5880513772422722	-0.6500267966071311	-0.824315784280497	-0.7121111732623643
-144	-0.3495801976437773	-0.6524596197821412	-0.3938238908838183	-0.36425191072051954	-0.19061018478429662	-0.5774569496834188	-0.2809323661387059	-0.3770549883859488	-1.3620002235357673	-0.3042438022561502	-0.42202129853509984	-0.419545858039183	-0.3280701628985091	-0.4922996746985301	-0.46023610118062114	-0.5120853172724775	-0.6532818062500971	-0.3382087937399159	-1.2471967904073442	-0.5359982834634763	-0.6157301648806724	-0.7381719928224216	-0.46991750479311034	-0.1294674870083311	-0.7970261553668528	-0.869330344389472	-0.8357126095652909	-0.9309421158174743	-0.9115076042050122	-1.3934099639044635	-0.9078468061414399	-0.6411616189981354	-0.9934107040119596	-0.9495817994938633
-140	-0.0038283984080156788	-0.49673703187459795	-0.12549217013623432	-0.16936339395201433	-0.33902332101103755	-0.6800126416203829	-0.17564381614685112	0.010868465500451875	-1.106376525946597	-0.6664994938235371	-0.5685945138880758	-0.40483355419945116	0.04496816161842469	0.43129086385555326	-0.7551571111686679	-0.7206760030670952	-0.6318231209061732	0.14148864114324855	-0.8381044247447991	-0.7624723892034823	-0.9041787363112234	-0.8033972958308087	-0.3111465267431934	-0.009728669164354154	-0.9568055843991785	-1.066013929536662	-0.9381678080714174	-0.916766581604912	-0.907320973966559	-1.5064519605749314	-0.9838742588951982	-0.38085472487614175	-0.923813698343559	-0.956511852710467
-136	0.41287544265456544	-0.24982970889911732	0.17867839291283305	0.19954726049587115	-0.39154904981938654	-0.6909881812769679	-0.07323137652266241	0.4618736493847234	-0.48351174470896824	-0.8507210590818416	-0.6262170656606226	-0.31834074774477455	0.5917079433760761	1.2816921440189823	-0.8442068674707859	-0.8354135134585632	-0.47637578724750784	0.561549125684123	-0.1169634085920821	-0.8170005658503273	-1.031606910008358	-0.7129459959149808	-0.25649073655220644	0.27587538887943985	-0.9318917966202829	-1.1031768294138429	-0.8914648271941529	-0.833233056348895	-0.7319186311362444	-1.3470442261064866	-0.8674714543375551	-0.02056889603309241	-0.6976146084338524	-0.782701967170596
-132	0.8186749795271301	0.06925061327616304	0.4780352401585098	0.644268093866696	-0.28719392346351896	-0.6165411456754389	-0.0254572890056175	0.8244382718252012	0.275991290110913	-0.7620802502464951	-0.6145286544543237	-0.23111498297514554	1.1256530256461585	1.719736094901248	-0.6865264756035708	-0.8607259967053548	-0.29204183743176315	0.7747210244646107	0.7200775128304165	-0.7029360515013191	-1.0050467227356332	-0.563671766288505	-0.33537122522558044	0.5879862889703418	-0.7546830158253215	-1.0293732855556843	-0.7672463040054247	-0.765378175233591	-0.4425837684424436	-1.0371443007033008	-0.674690423692536	0.2631791227371784	-0.4353100944495774	-0.5351713882285951
-128	1.106531140394754	0.378346382616392	0.7028527242081335	1.003600714057033	-0.07977087775594195	-0.5293838368401615	-0.08114123323935195	0.9682922338834221	0.8825276471744503	-0.47993796942654826	-0.6087246521839738	-0.2287737572377628	1.425619717813315	1.620737429341564	-0.38175299667296136	-0.8539468624489414	-0.19929932007539272	0.7317733746172936	1.466597434155779	-0.5037561642325935	-0.8991540051646993	-0.46725761772440166	-0.4755523788843371	0.8072506765011641	-0.5024431335161516	-0.9200133658069197	-0.6447443945818937	-0.725324628906036	-0.12860959735824487	-0.7271175962209978	-0.5190578686006987	0.3616392901349985	-0.23208223224695732	-0.32652911461405454
-124	1.2035697668205925	0.5802022204055526	0.7934085706706335	1.1465674609800123	0.11525386542785351	-0.5077889548832698	-0.24118606685303118	0.8587381222024696	1.1319122285875087	-0.18154226197660925	-0.6773422939365425	-0.3484667828821841	1.35107350008313	1.1147308321465128	-0.09736717467759147	-0.8763601161765331	-0.25664627487235514	0.4917104231817683	1.9501051853535574	-0.3255400649434712	-0.8026600459814432	-0.4824358808734887	-0.5618587122083046	0.8846776463107152	-0.25776129895935324	-0.831375298785226	-0.566896258353423	-0.6586853249132123	0.11858221113544985	-0.5197483288040335	-0.45601791028283906	0.28303256559438666	-0.1206095439130767	-0.2259038979072018
-120	1.1093244524604555	0.6162577255902475	0.7336084228113605	1.0433226797465398	0.19913718054085183	-0.5787089452437648	-0.44533941037274216	0.575773476100633	0.9913015936619074	-0.02399558195373926	-0.8294793346443524	-0.5493863211112544	0.9183514095008436	0.5003741370919319	0.030035182757840024	-0.9491052603600872	-0.4259732354853425	0.1819325978930966	2.067010874297901	-0.23707216918218152	-0.7658087591863613	-0.586039839695471	-0.5111885653940959	0.8447146990429901	-0.07536879162833086	-0.7754659037084881	-0.5252401815504829	-0.4960150110119342	0.23278707207080795	-0.4328942287959632	-0.46744394184349913	0.13143400814727937	-0.07671526800098802	-0.23509117901575052
-116	0.8888879991977291	0.49412435168443225	0.5589950666619459	0.7731905560045771	0.14608162604643204	-0.7002028209173995	-0.6013968571737881	0.2673262350962453	0.5887562617696064	-0.056649591630721925	-1.0046651338007446	-0.7353917341738929	0.2977499358289116	0.07854995111660658	-0.035903867243478875	-1.0404129002052411	-0.5999887570491693	-0.06579244865257367	1.8041131450879966	-0.2393316471494612	-0.7788526396160751	-0.6966700536304815	-0.31844425121016573	0.7457656841522788	0.03091243832949392	-0.7266571503412704	-0.47893339274604013	-0.2141285384255563	0.19024665605672933	-0.4147405315895233	-0.49041640634696165	0.030787076723331735	-0.057761125120719146	-0.29935690685032135
-112	0.629555104573551	0.2772920124682399	0.3369392446117278	0.4712944316885902	0.0052532162384678225	-0.7929080108650736	-0.6398512704907015	0.06577549113117788	0.12389761923264833	-0.2143941665243272	-1.1128402920283	-0.8158087113764078	-0.26496243409971093	-0.0005104788566158374	-0.22962260188302722	-1.092126724346832	-0.6739942414433171	-0.16819441276046956	1.2463051049237557	-0.28206643390966163	-0.79304444589662	-0.734482942157297	-0.05149267973416165	0.6297304614380376	0.07663263361179616	-0.6533678753569354	-0.3936587860182073	0.13308031823414151	0.011998174681769403	-0.39482977886650816	-0.46798917533020545	0.04292379681359629	-0.04217905540545957	-0.34240266594269103
-108	0.39204460283479803	0.048378772911474265	0.1342447992750171	0.25402098829985126	-0.1402703967129213	-0.7943836430520523	-0.5565171227709548	0.021278003176969162	-0.23847293793551136	-0.37873342537626375	-1.094299909689856	-0.7616181950413629	-0.5644515738541326	0.20393556304941274	-0.43777274974922226	-1.0629041168080022	-0.6115707739648129	-0.11333298654552676	0.5586591944894845	-0.30885955613358046	-0.7637721876888176	-0.6750531179550785	0.19254027258421794	0.4973288463910786	0.08406581708425918	-0.5494189844565088	-0.2722803347388888	0.4319949735225072	-0.24625678298288328	-0.3341686717179507	-0.3876394023645053	0.13192135062289373	-0.04117102910614378	-0.305044322435785
-104	0.19331844102211834	-0.12627238003321314	-0.006009032003311337	0.17113895671074555	-0.2212636316196696	-0.6964088064730906	-0.4135421802093396	0.09020679421299604	-0.42712312828944615	-0.4537774014937112	-0.9578466987268417	-0.6201269610960731	-0.5215356336777559	0.47552806018933014	-0.5661010131848375	-0.9560387110414345	-0.4624950874095827	0.055386643716926004	-0.061885077350058985	-0.29564204737407423	-0.6835839135077286	-0.5617144093636678	0.3434108785065213	0.32214581885066146	0.0660395397068662	-0.44175493605661204	-0.15562447866249063	0.5681560025175704	-0.5102068172924791	-0.24296966133762563	-0.28431653904657406	0.19427061031884002	-0.0778670830548808	-0.1693665678993406
-100	0.02721192122085968	-0.21207901781896785	-0.06837608647964588	0.20453070052483124	-0.20777021296019474	-0.5412452803298066	-0.2958169274014037	0.18165728403957418	-0.4546244430984757	-0.4077506055073939	-0.7718079666678578	-0.4771786916129276	-0.20992442912506684	0.5733013734648151	-0.578583060234317	-0.8123500922674031	-0.3200643352533929	0.26612043313548356	-0.4519196737323646	-0.25847968393869486	-0.5822061881624865	-0.4687202262965299	0.3829684247838301	0.09108793712506658	0.025885421717377604	-0.3689098348840219	-0.09338560676838965	0.48918601747029206	-0.7047100645392901	-0.15941561718269645	-0.2094065094667599	0.13478198613469905	-0.1521370854112933	0.03917655338886642
-96	-0.10085353229808842	-0.20294883795996976	-0.056558884537473694	0.30311489028695454	-0.10514819595492428	-0.3843789388965561	-0.2523478859252302	0.22618611099833957	-0.3666624119561176	-0.2636799507636392	-0.616153715485377	-0.3938766707966337	0.1852324600311428	0.36427438167154313	-0.4940362262173543	-0.6754968149296663	-0.24897520181261357	0.43898114451202525	-0.5470743761555437	-0.23018766881523245	-0.49649748080785044	-0.44197746999731913	0.33055344140519416	-0.16183391172557918	-0.031821191230541786	-0.3460526159609416	-0.10506714108881499	0.23513644874334316	-0.770848153075463	-0.10940644117389431	-0.18881243419660376	-0.060363042947239764	-0.2201707506581497	0.267258673231563
-92	-0.15745305975261573	-0.11018050434189619	0.015362544877783489	0.41944306982952734	0.0668812019924533	-0.2538911395815359	-0.2645344131466595	0.21647694652261634	-0.1972919697548764	-0.058034721615418325	-0.5292325602521036	-0.3642876735072945	0.46005201223569714	-0.11473860562681296	-0.35239738136965104	-0.556637524153097	-0.23772573411049358	0.5055344092003329	-0.4111392487636089	-0.2255284333495484	-0.4351946700552613	-0.46069571259532377	0.21701905076547984	-0.35942548422666265	-0.09143790579598168	-0.34298643383214733	-0.1584476079516657	-0.07871866951379795	-0.6815766674953403	-0.07807423899727466	-0.198837220166777	-0.30107903404514635	-0.20745941944195934	0.45797634009127947
-88	-0.10211419288364687	0.04270151991791916	0.12313138662483404	0.5203945623610567	0.28654244469776874	-0.1376246210438276	-0.26347589426276585	0.19533380816733675	0.03753821914851315	0.1884829993257619	-0.4868434059249218	-0.3235860160764107	0.4768656480193576	-0.6902019364097208	-0.18370287073961739	-0.42682060491565244	-0.20846338517486004	0.418441711799829	-0.20684933610190115	-0.2240407312220331	-0.3677870621932226	-0.4478127349037748	0.061747371994524014	-0.4225773502648056	-0.1270316537987675	-0.29562959000334765	-0.1845175023188671	-0.32051440992495556	-0.4537228334415571	-0.016649747225328883	-0.18016588642409215	-0.44044342525860797	-0.055019747326937415	0.566696046352128
-84	0.07124254834546326	0.22157335225430178	0.23193862975689478	0.5790063128157985	0.5290318118090069	-0.0010961276684221498	-0.1806581015794046	0.2093041831931001	0.3153093151237966	0.4708106207881699	-0.42301911008844306	-0.19798499295793012	0.21745283846789873	-1.1465015382430572	0.0032579433090686046	-0.2410452359789437	-0.07602045665859551	0.16485837060313602	-0.1175461557519992	-0.18044103636484185	-0.24547223684800798	-0.32203641452545245	-0.1259701099791591	-0.32557123817261	-0.11326041044011535	-0.1448075171629301	-0.11922532289921083	-0.40640890495688736	-0.14712962471054938	0.12149212478719879	-0.07918201366937022	-0.36433294323488713	0.23260995686930505	0.568426846022746
-80	0.30665141266648394	0.38662549755711334	0.30488341969762006	0.5671538100228473	0.7594404797453473	0.17911156966764455	0.002601922948794765	0.26625353030693094	0.5864756688569682	0.7749249319538725	-0.2778390042919627	0.0375821142439891	-0.2106928522035711	-1.3197990622577325	0.20747969992229295	0.021220711937613764	0.184301644098358	-0.21616017763875728	-0.2522563033887641	-0.05806312322858209	-0.04177946586789422	-0.057759798917376245	-0.3293184927732108	-0.1262506541402474	-0.042671725046187284	0.12022459476634734	0.05305933938935348	-0.33707460675967094	0.14987368843862955	0.3410907081098523	0.11053275289046821	-0.06853483600002373	0.5709459767231728	0.4595433163961459
-76	0.4934883403239622	0.5004187213661113	0.31696277776801374	0.46169704082269986	0.9303546524400512	0.389514206856537	0.2381727242416969	0.32557225145156865	0.7777679542931911	1.052667495930832	-0.04256116215569838	0.33116903817488014	-0.6250511988117595	-1.1564415664085739	0.41280197993006523	0.32579675234554833	0.5044352995534497	-0.6311886890687858	-0.584739683582268	0.13648711110464481	0.2140917325575004	0.28443834113786504	-0.5131826983846666	0.052765522018965304	0.062289785436481504	0.4404544521178636	0.28069963980376794	-0.1894643748983498	0.3466171613525064	0.5875795468754215	0.33256092583616087	0.3227586738066947	0.8251081684261405	0.25627162987856533
-72	0.5137847052953781	0.5397303090773754	0.2688204937346694	0.26429745488195316	0.9960374807005792	0.5820521101561311	0.4382301855943961	0.32724985397685885	0.824143705671465	1.2261632649935297	0.22794246616034045	0.5753069505471539	-0.850127635239956	-0.7245714050119111	0.5792137369790932	0.5876077994769737	0.7502272110117422	-0.955876705617344	-0.9658228134566124	0.3433173290167825	0.4375898528971907	0.5788888320612429	-0.6297724231078534	0.08339519777700383	0.15233328900023735	0.7053766232801304	0.4651267218767391	-0.06993135792242405	0.38024487995466205	0.7676956634212518	0.49123456950140537	0.6141450985661624	0.8752578474834847	-0.006692643726111074
-68	0.30941480320058373	0.5077130185660177	0.19278535198175437	0.021199112704517815	0.9394477582100926	0.7032690626508384	0.528882442569577	0.23920197724507972	0.7140670400710859	1.2276315658092196	0.4433387804759073	0.6661319119801353	-0.7939599136334139	-0.17858403876039183	0.6586686356127174	0.7099627834515043	0.7936973551738412	-1.082978126652645	-1.2030483453894139	0.4732237744304537	0.5271267281575057	0.6976281982928269	-0.6424849017134528	-0.09918126438849213	0.16978903071928075	0.8034272769670551	0.5097532259468835	-0.058011423649950565	0.23830324351226426	0.7967534641176939	0.5007951246969176	0.637989936648355	0.6793797595037556	-0.2823163859868962
-64	-0.08401871451384436	0.4254323829400161	0.13118201461096643	-0.1914346958333929	0.7831618766085218	0.7215839606186664	0.48728105302808017	0.07710219900215115	0.49740245812719036	1.0385663483147616	0.5218272792039056	0.557132183098839	-0.4958635854122646	0.28841650413174263	0.6176588519714451	0.632450042558338	0.5816783890343329	-0.9799071525628985	-1.1659674615032367	0.448596983015427	0.41671508445433475	0.5744377360145889	-0.5578826055746666	-0.457963703906619	0.07246231269422844	0.6763982159703288	0.36826613452439527	-0.17349830226009427	-0.03823978816748999	0.6443572028104103	0.33187058484211523	0.3429888478202547	0.29931604786643096	-0.5217713104426028
-60	-0.553237913642271	0.3105285457877224	0.1015938964901355	-0.31266206423974846	0.5748063311369493	0.6355482323812959	0.34155827674461237	-0.11374954105506847	0.2523637705630228	0.700997410434894	0.4245601881752199	0.27743515302230665	-0.11922535270153314	0.49416935319112404	0.45229372267970813	0.3606194844677887	0.16229377646002147	-0.7197128516146014	-0.8623803832215636	0.2400737696785247	0.11292151333193931	0.2365424329030777	-0.43383633980890435	-0.8700007774322128	-0.14760071001934233	0.34927412779362843	0.06753605587120538	-0.3780795326224063	-0.3723812093869763	0.3534966698304681	0.02944190979021119	-0.17451924041555192	-0.12592153219378982	-0.6882950050142363
-56	-0.9622854566120582	0.15943506319800532	0.0743613390237196	-0.34358382138290045	0.3533343663831545	0.4597218621091198	0.13706307078565524	-0.3009438805134594	0.0325530692113104	0.2904139153777678	0.16331225592388834	-0.09511198079414421	0.11581325501765824	0.31375175635278096	0.18571828258831924	-0.039967015284720735	-0.3468495300595766	-0.453202514696304	-0.4397991586548574	-0.12068311839628555	-0.3068080536725582	-0.2136831427185967	-0.3472762695127686	-1.1908851831886775	-0.4587092388015873	-0.08175222555024067	-0.30731797140732425	-0.6051183923702331	-0.6809562427494397	0.020094625601102343	-0.309114753419542	-0.7174887639050678	-0.44828358179398925	-0.7703160028082519
-52	-1.2157126634421562	-0.0518989412666347	-0.018390120891989704	-0.3608628800341145	0.11982848464991196	0.20439316280735928	-0.10102932129624842	-0.4941082286280612	-0.16693016844565303	-0.13141332533559452	-0.21539376621700912	-0.4807639109871155	0.0348798706246939	-0.2777049534462013	-0.14824268184427483	-0.47774842260857475	-0.8212186077364978	-0.337071656329762	-0.1062371281087378	-0.5559880719452641	-0.731597719729584	-0.6507775767108264	-0.3515663436119683	-1.3269883360738097	-0.7977157215005183	-0.4943669723903779	-0.6547421200434073	-0.7979315499187051	-0.9031128264513961	-0.25457775528529253	-0.5822446927629141	-1.0853481265322202	-0.5824017510015007	-0.7858942727274166
-48	-1.2844796148295106	-0.3351483038546833	-0.23150804580412446	-0.46882885576135874	-0.15748850961500638	-0.1250599917592203	-0.37143796588578715	-0.7254731636804413	-0.3869856586222593	-0.5447696433618325	-0.6484361274560263	-0.825669346155284	-0.3946136822274206	-1.1684826582971184	-0.5179612623488897	-0.8707611538836928	-1.1769989699211245	-0.4502519953804044	-0.021791286711511374	-0.9727775429960908	-1.0651303502847425	-0.9758489107289674	-0.4448435295317853	-1.279504057514802	-1.0899651023048653	-0.7912032584241567	-0.8987179971892681	-0.9318868494347791	-1.016975757892283	-0.4098158468390022	-0.7296952586824463	-1.1670483321288647	-0.5408301339799941	-0.7727061490577105
-44	-1.1874004572453272	-0.6469652040359729	-0.5451574311797621	-0.716472683528147	-0.5011933433276565	-0.5041922914173139	-0.6651766879453767	-0.9972036455726654	-0.6436840875586612	-0.9555087065414298	-1.062695500551815	-1.0971589060739342	-1.025765893253696	-2.1130776351984393	-0.8900324083745272	-1.1630914181907959	-1.3816153968260876	-0.7406732421294611	-0.22025790754975247	-1.289974924645348	-1.2563954560030162	-1.1401362390342744	-0.5638452754090081	-1.136702415457434	-1.270659562717491	-0.9304566955916491	-1.0090763543401444	-1.0080664132416202	-1.0366557810359551	-0.44530853516682645	-0.7510695438495812	-0.9832535361260745	-0.4153745759967207	-0.767445681541695
-40	-0.9571436023388463	-0.8772070385720083	-0.8436286428132798	-1.0404174301582327	-0.875952360802654	-0.8634248354093258	-0.9289218163879132	-1.2409619061610009	-0.8833996631253126	-1.347944494658901	-1.3751940692513573	-1.2605496613147935	-1.5895993669430684	-2.805485003063926	-1.2158827750979158	-1.3209609952000503	-1.432550188262431	-1.0500314209176511	-0.6049130543695004	-1.4550896846273382	-1.3020850387123681	-1.1406201095393396	-0.6203267558648558	-1.0232455704603765	-1.3039901223638692	-0.9268186068976788	-0.9974746678917747	-1.033416030182013	-0.9971746777153777	-0.4100920845645163	-0.6930567604686753	-0.6619786603426722	-0.3202788225670756	-0.7868601659935631
-36	-0.6137535556556214	-0.8825391508708629	-0.9539999937766843	-1.2741256920117185	-1.1695394486463178	-1.0852049561758312	-1.057219621850125	-1.3261860575571587	-0.9861485933201507	-1.6456953245574821	-1.4979166946739344	-1.2640322414909373	-1.8150041057538588	-3.000496618324743	-1.4246116840634186	-1.319637056833642	-1.3298937048714061	-1.199957606147034	-1.0125315163797608	-1.448669310726922	-1.2260758845845097	-0.9998209451227895	-0.5562838897965374	-1.0348803970911578	-1.1942217319854904	-0.8281352499080609	-0.8976520277247964	-1.0046440337565474	-0.9357681250788188	-0.36892101075488903	-0.6163247212108058	-0.3658550670446733	-0.3302175394304105	-0.8201287368095315
-32	-0.1738311196945186	-0.5618110880972494	-0.7381799202401567	-1.2357917992862366	-1.231814500559706	-1.04336714481143	-0.9348439550639097	-1.129808780678696	-0.8352047183884421	-1.721344347422517	-1.3605242933255655	-1.0545459959108305	-1.5641287525740868	-2.628639452973309	-1.4387433492575368	-1.1398351163696294	-1.0702264281908824	-1.0938706370392675	-1.3013862338587858	-1.2815147605965787	-1.0545315715868313	-0.7495272140652673	-0.382123707760206	-1.1892296045795763	-0.983113942048363	-0.6847081763146435	-0.7446597795759085	-0.9082067585903296	-0.8770087935239859	-0.36645576265320307	-0.562499521742667	-0.21169912761645102	-0.44622373468271953	-0.8370311835136831
-28	0.312198846744046	0.06459633244656342	-0.1903041596376312	-0.8510935285061026	-0.9626628732218231	-0.6745849830761945	-0.5133299814615347	-0.6314785464555966	-0.41252189770497283	-1.4659203253928401	-0.950039026722781	-0.622772751666328	-0.9169729328846035	-1.8429816914757637	-1.214461323532901	-0.7842820862996022	-0.6696931106825394	-0.7796931247099309	-1.415556904079871	-0.9926053856584326	-0.8068701604498787	-0.42964440475707955	-0.1753610219104283	-1.422057386622663	-0.7359939198985384	-0.5302312360727939	-0.5662490115174412	-0.738775132221381	-0.8286304452956046	-0.40885797039755767	-0.5400792942716542	-0.2263548070437892	-0.6067912563262757	-0.8073669055581827
-24	0.735321639111814	0.8257591703547337	0.5250581489657985	-0.2302245491890941	-0.3953997184784115	-0.038497727267104265	0.12795047429682152	0.03147763005892384	0.15057049653661697	-0.8776754118694707	-0.34273481282486334	-0.04488385084860277	-0.1444871570992324	-0.9631640886784739	-0.7824138979231239	-0.30171483678936023	-0.19403365205413373	-0.4275732923679757	-1.3912785018126768	-0.6452313645284792	-0.5044126497884922	-0.09480592584515649	-0.038443684480880924	-1.625648852058656	-0.5184109793925846	-0.37951600455786644	-0.3854573061271099	-0.5204676972600115	-0.7851258496489123	-0.46832886219992276	-0.5324637876418642	-0.3553597322075087	-0.7326803188899061	-0.7196521144817286
-20	0.9474353170316313	1.4534018003008502	1.1301110954362334	0.36225548295113075	0.2827879779351684	0.6795778257378442	0.7881635407575759	0.6023339017919362	0.6154881104188508	-0.10766403349873567	0.30148330254731476	0.5207334147657494	0.4200159896736619	-0.3313997379519008	-0.2575204067881017	0.20700548536965724	0.24090544818613713	-0.23445419907980536	-1.3103444543180411	-0.31421342412772313	-0.1821785415579801	0.18988734435776927	-0.04210881133176912	-1.703781242837343	-0.3701397767258568	-0.23506639838474774	-0.22325099948307545	-0.3122052244410209	-0.7327155452348795	-0.5013010489204938	-0.5161054717384934	-0.5080100285101836	-0.7734583596728768	-0.5866724237888751
-16	0.8310447314261362	1.7043834881666329	1.3688657249222422	0.641209660341703	0.8010235408586219	1.2402691809811701	1.2313692538643581	0.8308261015896521	0.7587499599373678	0.5809583053226195	0.793507335566777	0.8954589344304676	0.5478042350289756	-0.15132407805860962	0.1980780060058673	0.6159147604650758	0.5125675784521376	-0.31124824206924573	-1.2419900862807804	-0.06393450482439021	0.11128256441868835	0.37114417459243104	-0.18648825538758373	-1.6192643601543042	-0.2896566085654861	-0.0940526572475481	-0.09436811482922541	-0.1870779688403414	-0.6541287286455724	-0.4694438266822762	-0.47583803414370196	-0.6096796378001539	-0.7303371411004119	-0.436855821698635
-12	0.3868247856864167	1.4918096027856669	1.149006721456642	0.4665506172321834	0.9423227286389302	1.4675602875850497	1.3109177317900433	0.6175642594004254	0.5072807656831979	0.9369539594836312	1.0004256938471539	0.972885069774994	0.2295222574638012	-0.402697174724483	0.4502275276737859	0.8290058353474522	0.5583761320321609	-0.6148104652141102	-1.2113829820566033	0.07794287036052136	0.33292049085486064	0.4377795446787095	-0.394897102312612	-1.4124518597227813	-0.23622098505461558	0.05070029931380847	0.0032129019883368384	-0.1908582891175478	-0.533552645289872	-0.3536581090104347	-0.4080659140774597	-0.6323973520524896	-0.6452351792257351	-0.2979471377956531
-8	-0.2235866928416029	0.9470434760978672	0.6064128264375522	-0.06195506810400978	0.6722293479159738	1.3481761183079135	1.0612373325257114	0.08935181773991585	-0.0041656745492546976	0.8621005394150496	0.9171632505148908	0.7889139632334035	-0.3265972725251831	-0.8775734283225176	0.4660648989831351	0.8341605642239031	0.4245404590378491	-0.9683495139469066	-1.2064899175700556	0.13623127306875357	0.47165211916098426	0.4371752131868576	-0.548945425554964	-1.1821624010756906	-0.1510010804893873	0.21227084046653194	0.09486257260929187	-0.3069181434511804	-0.36222678331474384	-0.15766577382812086	-0.3140503458200294	-0.5906390532840178	-0.5665743932724485	-0.1835343982115851
-4	-0.7209283691324371	0.3691173484542835	0.0471336430611309	-0.6452166421812567	0.17857924058649954	1.0504243347350184	0.6949725729562088	-0.45100417619324834	-0.4986144291686708	0.4817366885897163	0.6787289363890964	0.5192930685283885	-0.8128850439529116	-1.314433094520731	0.33762249265306304	0.7189798336950043	0.2572149925890437	-1.1596387595462536	-1.2108371227211283	0.17834959879192094	0.5606852755695743	0.4590677905413284	-0.5464335070165367	-1.0414322588376164	0.009904498209384759	0.4058350910430834	0.22125089112688104	-0.4513316739131399	-0.1444371488023921	0.09569886302628215	-0.1924893255142248	-0.5130982386032331	-0.5159494267788653	-0.08989348239852524
0	-0.8319013097740408	0.07797273973805902	-0.21073800272187446	-0.9480274891759797	-0.21192794984716604	0.8418079593385674	0.49543207758750263	-0.6847319585678489	-0.7150981408184521	0.09241342521223517	0.4971962260567882	0.39349758525681927	-0.9935658549019183	-1.550904985326895	0.23580677747795598	0.631272075966616	0.2289550596655506	-1.0605035993503789	-1.228055474041792	0.2794984870052869	0.6622142775028743	0.5876273498004106	-0.3494408717869666	-1.0657392713342304	0.2484332614825228	0.6374339445232939	0.4152538169867106	-0.5062044846152061	0.09885816996172227	0.3716571321640729	-0.03873670836443752	-0.41396260157020137	-0.4765497434028456	-0.0032594911671837076
4	-0.4340350318917615	0.24720099505954754	-0.009513071714165301	-0.7921270112065535	-0.20566518552829935	0.9440069174774515	0.6590760333587286	-0.4583392727724005	-0.5641263113084145	0.0027061945224773846	0.5498753176157571	0.5669229612342149	-0.8277665951810558	-1.5985566337280095	0.3125439874387465	0.6986933332922738	0.43774187454330654	-0.6995847207526392	-1.2739332882188694	0.4768225538612938	0.827367244062069	0.8463988282768667	-0.0043015847805316304	-1.2544949023045067	0.5180711733135781	0.8894581176235663	0.6743658764025534	-0.3808231046121683	0.33256304180104507	0.6304885133083771	0.14668138288180896	-0.2827064387813215	-0.40909123317429724	0.08785024263136414
8	0.3621148755944606	0.8097326735079897	0.5598103389911253	-0.2620000832618532	0.2909370951459629	1.4056838715349127	1.1798168391004114	0.12325930564277966	-0.1789061124576225	0.35506936818121854	0.8802573658653323	1.0262205574828946	-0.4752248513621233	-1.6024639566017504	0.6071887000966346	0.9528417563223331	0.8414144494747539	-0.24774832960997686	-1.3454672064190007	0.7401124220281853	1.0568772527713997	1.17342590989444	0.3726131906638564	-1.5236934384977094	0.7439681868843256	1.1158907385309134	0.9487975811845335	-0.06704914552926454	0.517815648202071	0.8356402495267163	0.3486781707543463	-0.0976716948069801	-0.28351625728551777	0.1840945030571253
12	1.2442550627765268	1.489013310487734	1.2026369541322126	0.33923548374357987	1.1032081814569157	2.064854378255372	1.842805738564831	0.7481726985161664	0.16892744558122777	1.0311200592710617	1.3665966953106614	1.5842522342737682	-0.18514230800614764	-1.7193391279680459	1.0128157113253324	1.3020607200173613	1.2691893545531732	0.07015754264761441	-1.3995369637440358	0.9785237883657991	1.288215395536021	1.4445835315471742	0.6306645258239544	-1.735288854032513	0.8594565965887782	1.254525181463976	1.1556266517072622	0.34091028485057273	0.6264379604736025	0.9619139408621112	0.5350913391908638	0.1461467292195236	-0.10666394206773556	0.27423402597808155
16	1.83826124204005	1.9431054543073871	1.5774756630170736	0.6610278470516157	1.8640799475336407	2.625386946725417	2.3340544641693346	1.0665719482196403	0.23651187062154627	1.7014219717938	1.7785072281757166	1.9714252898987283	-0.14472508393941386	-2.005924935044779	1.3257549967672313	1.5717005689993668	1.5078366956788571	0.08561245330414734	-1.370791193362205	1.0822613211963859	1.4205843174354031	1.5350223740922755	0.6360595210228882	-1.7567841962328812	0.8376950600455152	1.2526667086445715	1.214771982940686	0.6770837885928044	0.6516280157803345	1.0004127000346255	0.6638435108590515	0.4149553765310737	0.07102252525041101	0.34022152337960965
20	1.8823970508733199	1.9396319340372263	1.4734501801483042	0.5031911718061941	2.196496481118198	2.80652832276344	2.4043190418575344	0.8801979996392859	-0.03733612960091241	1.9980647513488041	1.8928743553054854	1.9739732692471537	-0.3754507591781919	-2.3899221359948353	1.3557927574259514	1.5932862718409864	1.4146963322207766	-0.23778991341159345	-1.225496289020177	0.979959843068747	1.3672425712398169	1.3858886922178253	0.32235649146708817	-1.5299669465537697	0.7012026292263377	1.0936323376700572	1.0884532900985993	0.7761420587971131	0.6064721926635986	0.9567347740813641	0.6962919217649811	0.6328913553471408	0.17102833049032173	0.3602825990163688
24	1.343994614068898	1.4656175337981456	0.9100236869724306	-0.07870342562593513	1.9043043803773354	2.4835586485147734	1.9945716807552063	0.24204704104347677	-0.49949595206035086	1.7144185261356817	1.6061503846625114	1.5422664841814078	-0.7410126905805998	-2.7362348964272423	1.033031818642761	1.293383595062157	0.9917273496384631	-0.8028866032356625	-1.0144810650961522	0.6781474334761358	1.104640957904409	1.0349271271325435	-0.2805455915997349	-1.1152330608821222	0.5021281825739535	0.8074859360334986	0.8005244711691776	0.5484362826805781	0.5095049726020208	0.8425822236722449	0.6096597894534939	0.7052486521081207	0.11780271649420652	0.3096163861087051
28	0.4197953034769382	0.7162106615103759	0.10895474227576564	-0.8209226706759352	1.0667365762480943	1.7425587133281233	1.2536621062098074	-0.5903447851535046	-0.8931460358004429	0.9146804190430404	0.9816971992502737	0.8084064105604409	-1.0593672964052496	-2.958957187811334	0.44648340231702793	0.7316218596106571	0.3766854395892744	-1.438689466658796	-0.8745516516539689	0.2579196983024439	0.6886669976013403	0.5928454384140979	-1.0386387083533364	-0.6826353055885233	0.2861653857158716	0.45890161279211417	0.42549562346796316	0.024713814196179056	0.3669666042599608	0.6663364155158434	0.4038096954164069	0.5587094412049033	-0.12864431706373886	0.1642292733814425
32	-0.5768287167290723	-0.0258369147125238	-0.6389656646808647	-1.4160220587265238	-0.01080993373943022	0.8252717235709912	0.44475686437850065	-1.31208622124327	-1.0315390799227748	-0.10511004153178376	0.21165974384751512	0.009215464792230586	-1.236784574247109	-3.0858199518495564	-0.20431537874612377	0.07040582579479944	-0.237747042770947	-1.9824534604565172	-0.959974226912083	-0.16646428364210364	0.22989965917240493	0.18282522214983798	-1.74223506010781	-0.44765165335167606	0.06569945795637823	0.11999414085848573	0.054233968120976445	-0.6536862833685216	0.16509897965232562	0.43107402215840784	0.10126046065752321	0.17803811982027234	-0.5531461224895486	-0.08946441091361229
36	-1.3758970464300635	-0.546070216707548	-1.130191561706477	-1.6902294116261356	-0.9556323265743819	0.0034954147325122254	-0.19687357495193186	-1.7381691888793669	-0.9242742634325756	-0.9776966547123394	-0.47783821700570217	-0.6336910708640731	-1.3276357617237255	-3.227355233627224	-0.715894280056707	-0.5017892705646163	-0.7028719765083473	-2.3335409105512466	-1.3389801945258941	-0.5025023209282641	-0.1555162664301741	-0.11810146987422769	-2.168521637209946	-0.5730193242864501	-0.17981494917770188	-0.15472306272066705	-0.24214458404440542	-1.292179581240734	-0.1188460808972043	0.14437663518693666	-0.25522026355202665	-0.3762251725234809	-1.0839592191031708	-0.43836948164888445
40	-1.8655058098423578	-0.7963290194433199	-1.3343695368455792	-1.6844661193280646	-1.5043371877836398	-0.5414462075868371	-0.567010043620012	-1.8777923536574677	-0.768547056165074	-1.4510461055359847	-0.922245619352767	-1.0039498780652458	-1.4796898327662176	-3.4736354263342837	-0.9810346936252679	-0.8483691790142321	-0.968694267211417	-2.4627337393571462	-1.9220393847576076	-0.7153986078320063	-0.3902433504742334	-0.2987625293341218	-2.1661751215603524	-1.0834156247441917	-0.475211946956562	-0.337616860014146	-0.4305763531781122	-1.7213164524488325	-0.4920293378328338	-0.16617272752292092	-0.606720982450263	-0.9802664493606974	-1.6108589131693003	-0.8298783877401161
44	-2.0996625370420015	-0.8813184477489449	-1.3661346401055292	-1.5928419788199524	-1.6013058383566885	-0.7702352981194297	-0.7032402736074846	-1.879419322037149	-0.8063501099255265	-1.4939691982697163	-1.0654824945251864	-1.1059361668321082	-1.7969994499613036	-3.7946958446063257	-1.0245726082683053	-0.9235234833288803	-1.0680339309429998	-2.3861441551999305	-2.4779062208557048	-0.8256998041286873	-0.4527816164982853	-0.3876901259170811	-1.7293797687736894	-1.8404307318951072	-0.8111646154904584	-0.4196486164465163	-0.5105928765757145	-1.860484356951288	-0.9222372150978749	-0.4441030610316101	-0.8857260920096672	-1.487512942373236	-2.01746773210426	-1.1755317419890379
48	-2.2109768334833717	-0.95578437802282	-1.3763143981517272	-1.6100648600936074	-1.377433415749915	-0.7538352589648214	-0.7120094877386343	-1.8963819694323716	-1.1461968392997346	-1.2687460152064531	-0.9449297165855343	-1.0121793721393169	-2.2224705163156813	-4.032426347088389	-0.9608877276956043	-0.7612416128966227	-1.0536582443337872	-2.137082094518937	-2.748222344135624	-0.8774949290055466	-0.36542820838219203	-0.4073171605316816	-1.0242403719791662	-2.5986421042636443	-1.1280591459403766	-0.39798140425337225	-0.4967568206166134	-1.739840503114649	-1.3342264856984796	-0.6159450992291898	-1.0315375302020147	-1.7834817126068216	-2.219730371592985	-1.378933307027256
52	-2.2940688075320077	-1.1031094761654168	-1.4388008081349553	-1.7935460760610258	-1.0409841511193263	-0.5938108548430874	-0.6704217178584343	-1.96802603701577	-1.6717197852843182	-1.0047943566702915	-0.6392998083186319	-0.7891020754918396	-2.5289094384240776	-3.997720469871936	-0.9075184441542012	-0.43400907406902733	-0.9392914152272415	-1.7606167748822625	-2.6005728179123344	-0.9012818909778084	-0.16889463322436177	-0.3447030773996669	-0.3455521753646709	-3.1168312947735797	-1.3356901373518888	-0.27268829872902395	-0.40484291212865725	-1.4750810824345306	-1.633147712398915	-0.623337803697372	-1.011662599870419	-1.8276570989241225	-2.196092838464798	-1.3797123397325035
56	-2.339759582334252	-1.2786222664022213	-1.5100583992026058	-2.0330622144867623	-0.7558036427489142	-0.3574989727054188	-0.5787425622633333	-2.002568478296662	-2.102787966187553	-0.8574444033908861	-0.2240134322947949	-0.46268126251706854	-2.444669478919966	-3.618106356069017	-0.9135562158407701	-0.0178878306890905	-0.6961875540322429	-1.329585310440117	-2.129021877635601	-0.8998094774416394	0.09225254482581198	-0.16759084122783663	-0.0060751400734583615	-3.271949998224106	-1.3650945390568245	-0.06117738767913722	-0.25601798231336403	-1.2130601375470589	-1.748663421030606	-0.4636461127019342	-0.8446437695158865	-1.666616912448691	-2.000105852799339	-1.1940219372167076
60	-2.2605531158594245	-1.3519086803636142	-1.483663793632649	-2.144865745851214	-0.5777196869569253	-0.06716086698503335	-0.390432356802339	-1.8691379976765101	-2.177062267528959	-0.8375718572450755	0.24029144584069487	-0.04205486912838358	-1.8485248042165905	-3.03254341313519	-0.9456676220859905	0.4176408935969711	-0.3052733532827562	-0.9585589742301093	-1.6245869357100189	-0.8628090002210612	0.36761775520016554	0.1276269551869587	-0.20001174459027188	-3.109741679923315	-1.219291564724014	0.1842036689637558	-0.08960559196498696	-1.0719644996281446	-1.6718097882977017	-0.2094775134996693	-0.6057436450923485	-1.4059696162012445	-1.7421323017004768	-0.9213642454726986
64	-1.9863742539799432	-1.215961691647399	-1.2961635556874624	-2.0240321108260892	-0.4760632502934172	0.2606530480956527	-0.09118682123049929	-1.5322068890987737	-1.8367025805831088	-0.8478180744700303	0.6886240822572104	0.423799901130707	-0.9065613723754592	-2.5502633984073952	-0.9353293156850903	0.7981704453343617	0.1752548064337067	-0.7829300741455755	-1.4209983312969676	-0.79563140668263	0.5913145527215518	0.4734367418256985	-0.9000930167361201	-2.805864803859476	-0.9879173611493947	0.37446436191429433	0.03193696207685479	-1.0993114682099179	-1.4627987109445446	0.011468147830023027	-0.40478089349592505	-1.1547769278934896	-1.5446431597811812	-0.7063249331761126
68	-1.56572842202653	-0.894308266765984	-1.0131105158976472	-1.7527756646725672	-0.41228148237087825	0.5616723284845626	0.23274557233698787	-1.1331518859864176	-1.3017195430315283	-0.7925593832986625	1.0264384720636432	0.8051725009616723	-0.04789084556528452	-2.4881675180557496	-0.854349909055895	1.0307921145163355	0.5811721667875336	-0.904675839047395	-1.7005127625446916	-0.7405896764176969	0.6804867369637294	0.7287520747859019	-1.8479849053455781	-2.560120099279726	-0.81326031479547	0.40795913235661413	0.036839447822543385	-1.2629436222615082	-1.22228753258144	0.07132418435685764	-0.3423811784683038	-0.9718294119140424	-1.4897412024078935	-0.6708984954107889
72	-1.1910527914493627	-0.5656477198624652	-0.8264579752083161	-1.580227371040827	-0.40643906490706755	0.7117943149715383	0.4011399437790128	-0.9461435055686758	-0.9661710833951557	-0.6747202260148485	1.1368128032592792	0.9174538231574372	0.23072573484342263	-2.981146089656557	-0.7568877916299966	1.0194441054354895	0.6952467543214834	-1.3256325688271717	-2.374891036713327	-0.7641999106186459	0.5609984979770781	0.7372749429208167	-2.6473276548304225	-2.4810986456218145	-0.8147790411405125	0.22084531132253088	-0.11792906343965016	-1.4679425917756739	-1.034747836361512	-0.08725156613017103	-0.4561000752854545	-0.8358235934135825	-1.577131267380431	-0.84486329342204
76	-1.128985640536426	-0.4905315923226993	-0.9646900271855161	-1.7870182945909958	-0.5454072938500297	0.5721339568951918	0.22446605506491527	-1.2312033145337224	-1.182273265714693	-0.6125977023870554	0.9241890883954066	0.6077588781271164	-0.36786550190554895	-3.891628493974021	-0.7574180345485797	0.7074183207771119	0.3577257385758943	-1.919038052482165	-3.124003879289162	-0.9168900228239302	0.2090508187499608	0.4141915132078833	-2.9333062097877174	-2.53101133661213	-1.0168544028358266	-0.16629955130552157	-0.4093587686216961	-1.5946884115011426	-0.9192879772818346	-0.4078465093805954	-0.6889892203101826	-0.6596944911513566	-1.7184652046685556	-1.1378202409627292
80	-1.5806194503931696	-0.8711819626747446	-1.559538122054366	-2.505363458030034	-0.9233037806087929	0.07205416989015942	-0.37595048451872703	-2.062692398585537	-2.048703426910651	-0.7637680749683384	0.3760886778872899	-0.14049392903142585	-1.746672029853688	-4.877232539260879	-0.9553837156016515	0.12679050830777627	-0.42251777542250296	-2.465968125793072	-3.574260702645781	-1.187605139594969	-0.31312164585212876	-0.1852829749674624	-2.5413985188216226	-2.561391585558865	-1.3196587529242854	-0.6331470592725816	-0.7349412422698179	-1.5408301314552368	-0.813098070952801	-0.729778109138475	-0.8999790526555973	-0.3419341138312947	-1.77321671991881	-1.3718225921327944
84	-2.5533361370470984	-1.7271385149265037	-2.552367919199811	-3.6108436493307616	-1.557608242870701	-0.7250547390751745	-1.292631980493437	-3.2473041929274435	-3.3326766406794284	-1.206513997846484	-0.3999963094625948	-1.1574760646206836	-3.4162695321614915	-5.585783944332309	-1.353712436119253	-0.5834448918870812	-1.432527300078895	-2.7492451598373875	-3.51506089276717	-1.4855227432892106	-0.8570782520589553	-0.864851293764489	-1.589324827949926	-2.419098371120147	-1.5354536733007813	-0.994125244491723	-0.9411580538829596	-1.254459854773467	-0.6007369145485012	-0.852243778938074	-0.9178471542073169	0.17098481909974556	-1.6115274388634133	-1.3605492080670187
88	-3.8298945330245378	-2.8672432827084164	-3.704923620406709	-4.764482486139784	-2.346277707851853	-1.6255891282047419	-2.259902948395856	-4.395296085704702	-4.582665431850292	-1.8649281216266531	-1.2003446787092282	-2.1372816508691415	-4.716652381432662	-5.855828747269897	-1.8334665252171334	-1.2176870076907116	-2.3322606027847037	-2.6643111638512638	-3.0235526485399693	-1.6715596872088556	-1.2386368481834726	-1.36734854829796	-0.4311850060066994	-2.0552632756794895	-1.4781053028935092	-1.075821039344665	-0.8894379712536831	-0.7516636829472023	-0.17960280134632067	-0.6285168512688298	-0.6195055826758584	0.8428887107549062	-1.177733656770771	-0.9995824073350006
92	-5.060117231944891	-3.974964847065619	-4.708742129835202	-5.581502900336771	-3.0965194623968837	-2.382133954709567	-2.973055355195173	-5.10729931495565	-5.359785543261055	-2.526910298643358	-1.8021478607454242	-2.7677485872961642	-5.1422662605155605	-5.792258248010231	-2.202622884911324	-1.5867584903709562	-2.806394093103745	-2.2831211032444623	-2.4193696914624794	-1.624171372127694	-1.3163773980283953	-1.493209358260038	0.49645298594063797	-1.5698182543221124	-1.0581210824954321	-0.7973007539646397	-0.5249694572545966	-0.11409757257503328	0.4750669884608342	-0.0398872679955029	0.007718628718587831	1.5523934325124682	-0.5211465941622891	-0.3187929383812214
96	-5.920874103856161	-4.753366458335817	-5.325727449322385	-5.82474325616796	-3.6067843346132276	-2.799288981045878	-3.2307493605107447	-5.169677244485661	-5.454003320275375	-2.9442267343573136	-2.0537795968654864	-2.8702745365154603	-4.591223228306958	-5.670268521297962	-2.2918074073149386	-1.6000308950081619	-2.7087874344146314	-1.8273332072852309	-2.0735151715379487	-1.302904364157382	-1.0565469238308884	-1.1929901808182506	0.8665820934351068	-1.1626900405138918	-0.33295038258414	-0.2098739588922307	0.0901089084853608	0.5332499132998221	1.2811511722643667	0.7891254405125326	0.8518323280762283	2.1427419131539396	0.22142487708454114	0.5289976583476368
100	-6.258100970680527	-5.050499903325374	-5.483365521891917	-5.516178594013661	-3.756730785421783	-2.813260548164534	-3.0237474365186037	-4.6519327046246275	-4.967248904084879	-2.9586305543587894	-1.933010573275135	-2.476921075289344	-3.405598870262163	-5.729393467742924	-2.0451703019958654	-1.3041988578293457	-2.125284427999041	-1.5547518690909863	-2.1899604742072096	-0.7764229754872302	-0.5509165511527095	-0.5870581850488874	0.6012960657197274	-1.0221605275096248	0.5109943138572632	0.5230866657401851	0.796702740565118	1.057088730050529	2.069721455116863	1.639651055964649	1.7155221657355564	2.4886045393101393	0.8798612333971553	1.3326287235946643
104	-6.131485446708208	-4.8993062849326865	-5.274284349476681	-4.901883589766268	-3.55419754084646	-2.5021438535459755	-2.5204577382348448	-3.8514900110278756	-4.224954117598397	-2.581905835308707	-1.5430412253522423	-1.8016623213103098	-2.1784384195640585	-5.9960384217511065	-1.5541210135322763	-0.8555025436736513	-1.3205407824554447	-1.6181925494346592	-2.6908535889398904	-0.199055075142881	0.023519422799572642	0.09705121790701543	-0.10883423658549524	-1.2189745872238986	1.2335520951598113	1.1954767673827122	1.4023518526910914	1.350088592935348	2.6438980035787054	2.28455638308703	2.387881511381457	2.5435421402609126	1.3127618994947379	1.9030702066057321
108	-5.734882340257142	-4.451031196800557	-4.861537444238249	-4.2915930639633535	-3.109580270545671	-2.020080561306037	-1.956246609517129	-3.1152717988516136	-3.572162380736406	-1.9797198722447298	-1.0467991802489318	-1.1181104154967447	-1.4356718027107263	-6.245389445749241	-1.009656903578791	-0.4356961537328129	-0.5953247532119154	-1.9731596658480237	-3.264666549069521	0.25619292194533816	0.4864154743788373	0.6375486834641968	-0.9069582797040164	-1.6663371282468216	1.6376578766483925	1.6439130264739081	1.7592109397341396	1.3569133247448995	2.8511190342444874	2.5714209014820293	2.7172965934812825	2.3461070001496473	1.449425693667212	2.1316554492537074
112	-5.25442455872482	-3.859759559423135	-4.362598885012108	-3.8771359822613434	-2.56472300835624	-1.5044015607998347	-1.5014327726603576	-2.6521582536494033	-3.1842036166860006	-1.3781006301418461	-0.5829998836103116	-0.6200146063409552	-1.367623921756127	-6.144738658649844	-0.6046707614891002	-0.16159738559454642	-0.14051932061003605	-2.38919042937742	-3.5557577520241614	0.4705379891436556	0.7319992166157774	0.9161006785151626	-1.4408619367460844	-2.172684425590549	1.6388145643819834	1.804802890035596	1.815133924669852	1.0818634005888699	2.6343390875109205	2.464502805209613	2.6529445581212947	1.9838709781149866	1.2955032554343078	2.003307337471432
116	-4.7481093286799005	-3.1895887771185714	-3.7816166782269938	-3.634769430520355	-2.018788809447726	-1.009572980239159	-1.1830742329291624	-2.441591018234379	-2.9965772553127876	-0.9455918049780276	-0.20781658537371292	-0.3397007575995219	-1.7540051892818898	-5.481475816238729	-0.4376248110212632	-0.03473693123630281	0.036195635704208064	-2.5610852176854926	-3.372073403427861	0.4252334226362582	0.7662897090638396	0.9535163616901978	-1.5139598808211734	-2.5505032474973657	1.2822051015906242	1.7215663151191	1.6184624392655207	0.579453705278353	2.0461394735174663	2.0362448640911537	2.244160884913262	1.5408945044714317	0.9082626677469878	1.5714026649855315
120	-4.1179976359348425	-2.3966956078100092	-3.0261988563427367	-3.3613359843265527	-1.4915932379256784	-0.5003311025385127	-0.8973385072940694	-2.279208892789862	-2.7766945291986267	-0.7163392287288318	0.11273495824484395	-0.16009129543416434	-2.1160850471476333	-4.318439949576724	-0.46719199301066966	0.04695787641471264	0.08302164801855898	-2.267164463041219	-2.7796029974377436	0.2026806915649635	0.691313443822686	0.8757218696418896	-1.1528485984305847	-2.713646166625875	0.7105765920818515	1.5079946479871131	1.282011744123461	-0.06672821177086233	1.225803014521417	1.4248666727331238	1.6089497764019647	1.061624643506484	0.36447685864933393	0.9217219925497372
124	-3.1951103129780436	-1.3945866787986483	-1.9964827248711698	-2.8153340745417452	-0.9395886635899859	0.09974443142264995	-0.4960965501657811	-1.9234646510198783	-2.2846536578670578	-0.5901504144073828	0.46441370131541365	0.09654501801195786	-2.0003635832826974	-2.983322851278259	-0.5378264771234114	0.2279821330513383	0.20319597371774578	-1.4884185753436667	-2.0417561479517508	-0.05116543160871948	0.6513529999500353	0.8392926433353965	-0.5631655440417057	-2.7090060642511156	0.10611378374726713	1.2950051990238223	0.9325445270835702	-0.7667280416204112	0.3541777124999523	0.7860803584279356	0.8940863586740454	0.552419720685505	-0.25881901318054445	0.1512321080919534
128	-1.8825008821642564	-0.15547391733016813	-0.6865000111413574	-1.8746986341828566	-0.3049721710134666	0.8420843460756932	0.11329598696237585	-1.2476888863533673	-1.4225330316867697	-0.39890187878031463	0.9297857261071065	0.5626924619773178	-1.2237874238587811	-1.8955202054803848	-0.4576611805328253	0.6225439890402575	0.5458194599676109	-0.42241129172488057	-1.4533926211855779	-0.18073703303004912	0.7727930526295735	0.9620320772677577	-0.010780079263053721	-2.6690974168146435	-0.36408078578580144	1.1902298897256713	0.6738697869453404	-1.439068432989321	-0.3923708488571524	0.2609305971233486	0.24502086577542476	0.016352927270967734	-0.8835613109215353	-0.6307598932553542
132	-0.25732654268145916	1.2300261228023806	0.7751731852987352	-0.611117719061019	0.4441092599146511	1.7174764828235176	0.9199240780492717	-0.3045307092130522	-0.2847546033822448	0.00970151459211465	1.5518090685765655	1.266700979849373	0.04888851928288702	-1.3280730213966938	-0.0826372800171147	1.2708783117632645	1.150341984705529	0.6108775719478252	-1.1721013754815854	-0.06578379852852247	1.1271392078552358	1.2924842801840566	0.3034170560328805	-2.718518011858936	-0.5798374995850928	1.2632738319927301	0.5754721150174095	-2.0163202234859408	-0.8766388870994437	-0.037698928171583046	-0.21132694131425198	-0.5076971637305475	-1.421747680889192	-1.2957265344330728
136	1.4317822420210837	2.5733735496399412	2.1694092695776996	0.7529096584384413	1.3001927104548168	2.6652359895172637	1.8321045590874543	0.7240228634674282	0.9020146108741823	0.7101801019858067	2.325411075442988	2.142719740226139	1.4218583071096158	-1.2679207292969767	0.6285824163779172	2.135504001947848	1.9598339746585234	1.3193024363587178	-1.15734636491398	0.35014307410529255	1.7210451321065	1.818062062441695	0.31331610600521753	-2.8974080012601875	-0.4826964723797888	1.5454732140622276	0.6757618767843133	-2.4475350318149527	-1.0249539587846155	-0.0358040182878613	-0.3827299466006859	-0.9337254739075234	-1.7804450943817614	-1.7097318129288255
140	2.8707728313445244	3.6732211020236156	3.2859206116684474	1.966422195238203	2.2259213868208847	3.6092080978822545	2.741880171528956	1.646690722122718	1.904005999526343	1.6791850286050087	3.2069678225611438	3.0855495851815378	2.499269002326427	-1.457126256124882	1.6060624082070452	3.125153772093266	2.8753511833074525	1.5667123754999979	-1.2500125138194247	1.0479648086792164	2.5040116246899413	2.4902825292656194	0.07925250361221975	-3.147739640871691	-0.08166831711176997	2.029372686984481	0.9839385127021039	-2.7009031704422277	-0.8401767590291177	0.2846249334778633	-0.2330626839475535	-1.1587945193597866	-1.8878849697132238	-1.7743151143099578
144	3.8247966669790587	4.408013332681871	4.013287057280754	2.8691646980325447	3.1654927650639295	4.484508503082001	3.57496642163814	2.3635933339525446	2.5853114062839953	2.8077709603945804	4.120723713961407	3.9988899129994766	3.088286392044135	-1.5890228708202563	2.6951689652107333	4.119840611546644	3.799047222082522	1.4151058161293497	-1.321915265560495	1.930509085549517	3.377206078585801	3.2376518167768866	-0.27318879892993925	-3.3645360384871745	0.5425127730977551	2.657880776370551	1.4689546786414047	-2.7688047815989174	-0.4038112153348448	0.8638666250352856	0.19480997274805079	-1.1202305527060525	-1.7317081646113166	-1.4796982966257541
148	4.233620156089701	4.776255595546094	4.365351665919465	3.43308352557302	4.041146745015591	5.233620153564944	4.292117584836053	2.88486050831091	2.9323427603120003	3.927127351382564	4.955681788330391	4.805629241254404	3.2559447206308483	-1.531176801630366	3.700471630290386	4.983767973714803	4.640321719851697	1.0647006007969968	-1.3854041064570248	2.8322527337092347	4.2006783379355666	3.961100568307288	-0.6253246649212986	-3.470335236370692	1.242923852643474	3.3143567955260966	2.044982189737429	-2.672533028530823	0.13993847334816636	1.5574493368881308	0.7722700218729901	-0.8439257123620902	-1.3845653498978632	-0.9353620386349893
152	4.202688206552319	4.860961424952594	4.432428825631702	3.710458269287999	4.736928451022583	5.778133854582757	4.847108828704609	3.2631320870982976	3.0025145931731636	4.8330807563828495	5.563170418998778	5.421735749861238	3.222694865673292	-1.4201049768833296	4.428638447070716	5.570895180942166	5.292796121585705	0.7335736136988995	-1.5780707557890088	3.547494640930522	4.808022486945383	4.528262603771093	-0.9058722234743061	-3.460810175741054	1.8341304017489657	3.8342671297542203	2.5737626487600527	-2.459786408889734	0.6220011695416585	2.1653752272294864	1.312364455724379	-0.4500675190052903	-0.9922960375528294	-0.3465992203544743
156	3.9088778397098896	4.75089977972266	4.298974503153701	3.7425107861443303	5.100380884644749	6.00387667093786	5.148143755312733	3.50109790871734	2.8500316071079506	5.320278154292199	5.779257759761804	5.732808098624195	3.180849067286511	-1.5580295284989096	4.729345309714824	5.743862614434908	5.621318802946206	0.5495907054376732	-2.0318348356446463	3.883506526678853	5.041804300930336	4.791485297503493	-1.0864152880895845	-3.394089690222251	2.145549530334351	4.050745953823142	2.898932449651114	-2.1904568616876454	0.9010571218629279	2.4984688695769823	1.6316583115390282	-0.10554125133332262	-0.7221462112314131	0.06213253348279985
160	3.489447346460378	4.479728687420241	3.990672578272909	3.504688015672387	4.986453043745866	5.793422207510466	5.072798239298129	3.5126473814970183	2.487673753179677	5.238703237658555	5.484992967108755	5.6161813594166965	3.1568443695474344	-2.172673935173095	4.537331092822905	5.420689092301624	5.4966964582901445	0.5082365261597582	-2.717934363178769	3.7336146737247744	4.812389838466339	4.642486560544473	-1.1549611062453804	-3.3326918994684522	2.090666527238054	3.866977443468632	2.9099135325396492	-1.9158648204116246	0.91723489529773	2.4607005057197013	1.6267933804447434	0.05774840325438202	-0.6894676667925866	0.14588166736487665
164	2.9850811882946933	4.025777806608349	3.48578905179188	2.933411113962257	4.334162224317302	5.099759565829179	4.5409994010717	3.1730031887052457	1.911290521564531	4.5603713874119505	4.681618678670771	5.010169970260693	3.0053372307240203	-3.1973936477043345	3.9035377403886553	4.6325983884197806	4.8718829031965045	0.5126531707218189	-3.380906811761272	3.136964790053558	4.15557431125501	4.081083764262904	-1.0937869521182142	-3.283637276942157	1.7165223316723623	3.3193733608363067	2.605088465789117	-1.6607701736481448	0.7214977126978941	2.105480904031706	1.328430530055154	0.015532449779931921	-0.9002188421409232	-0.09007191635279047
168	2.3704707562679443	3.3716316138019016	2.7796316076671634	2.0167646357162643	3.2378702081947925	4.019462098463895	3.6039211659040253	2.4292855201422783	1.1591399878800324	3.4268364819791732	3.536514034879144	3.9914996523217243	2.542082064886181	-4.23218535308429	3.0016698761495393	3.556468954643826	3.853848447606394	0.46614521624176714	-3.632519951232211	2.291740173275802	3.2523286260507445	3.253609649073023	-0.8813306070964484	-3.1786777892921148	1.2040303915142536	2.5897390777053118	2.114976877594767	-1.416323777437615	0.4635361719349235	1.628063436212411	0.8987955428319252	-0.1261699047479418	-1.2419813840026652	-0.48818713303334565
172	1.6384247500061364	2.5737793380605476	1.9482672165319037	0.8794594980923834	1.9576296756910052	2.8069751191795485	2.481612437658481	1.393409367858017	0.3522535553621711	2.136214966148934	2.3563828408829806	2.8005864549500727	1.7190272764673684	-4.729769217947396	2.090113396135935	2.4845638212417276	2.7129383018663096	0.3506003013342102	-3.164468995687852	1.4989716968837952	2.383718246163697	2.424820417004138	-0.5195497261281434	-2.911970131197787	0.8060178140317426	1.9466803024734103	1.6624239641179075	-1.1500897378494763	0.3375845840990816	1.2880473104381787	0.5660107121482308	-0.17399184361874961	-1.5316653212977118	-0.8116406181824328
176	0.8618001320061401	1.7781636670040986	1.152155396413597	-0.2146800005976259	0.8394680598045277	1.7948824121935163	1.499204035788543	0.33751875076909343	-0.3245905331522742	1.052785870755057	1.4768098555472313	1.7709873870005495	0.7156652194074135	-4.313322533207808	1.4291900360263465	1.7220557884607597	1.7951196386791233	0.23745347499500818	-1.960488076028637	1.046763536671446	1.8249521209417552	1.877719516781736	-0.06430734677768014	-2.4160804687534987	0.7402578573610701	1.6319935280603985	1.4671542607458647	-0.8321574309319939	0.5027926551522319	1.2930591073768192	0.5212109075738395	0.0614271199642447	-1.5996745784425943	-0.8578227140703203
180	0.1727848644662565	1.1525951594816395	0.5601121769115057	-0.969737169678419	0.16596476691782464	1.243374702175417	0.9390364861621808	-0.42180210245449173	-0.7100763302995148	0.4597935068919589	1.110854622897266	1.1846214502943357	-0.12027025192413	-3.0470900458651866	1.1791864603788584	1.4519799911079676	1.3690347636943985	0.2316359871738118	-0.3767768135094844	1.0842878791136326	1.7237302021375627	1.7847623780012323	0.3731349399205805	-1.7242115692475533	1.0884695025619373	1.7470291808842804	1.6414924818556909	-0.458265392815388	1.0151753399967431	1.7016400055838379	0.8303893187538408	0.67246115037892	-1.3669604028521625	-0.5529510364876914
184	-0.3338648370419753	0.7722679357104282	0.2358713740115682	-1.224422570951904	0.009496916061504235	1.1956900328011801	0.8844563938698675	-0.6934016925471196	-0.7713822106913021	0.4218057979424585	1.2330162494046335	1.1236736746074547	-0.455436645788457	-1.4797885380577163	1.322981831071413	1.635113711997223	1.4835008345342446	0.39002680680031115	0.9783891414735915	1.5460931023663267	2.0233101793703927	2.115444416427205	0.6646584851650078	-0.9797351931631557	1.7520809129348194	2.1974995080779456	2.130350107536422	-0.057327557210427316	1.8013442709265912	2.393925183927844	1.404334899217762	1.6034166772414349	-0.8793346859665389	0.017843222200524193
188	-0.7018291932506346	0.5375795946853751	0.06622077507942879	-1.072188970719802	0.17791436567686988	1.4313327037913226	1.1538501948788615	-0.5318844304961101	-0.65552985502677	0.7381897550065198	1.5731421669342647	1.4109759295125794	-0.17664121046768197	-0.40934121505385407	1.6615943866740182	2.0103681036736982	1.9247450779957105	0.6620335562203716	1.5187811813155927	2.173416132207964	2.480058663782399	2.6386692457336305	0.7211923581034807	-0.38231849573884014	2.49231170978723	2.7326281001717003	2.731943362014249	0.3190861932327759	2.6876339844558315	3.1295583169124677	2.0443706460835775	2.6692817143758236	-0.2815429859205657	0.6597026569876702
192	-1.1292086811166124	0.19814267704528532	-0.20398713596817444	-0.8434956052464769	0.3034802667585052	1.5649476011819439	1.38152920850996	-0.22332739773632343	-0.6363745911743754	1.034608599911668	1.7423707202789764	1.6898882346403028	0.51363265384694	-0.48298507806906255	1.9020144891401358	2.213850254191449	2.313815826296238	0.9002301074187573	0.9695013140996382	2.6327238016415855	2.7781331469012933	3.030732624031485	0.5412483201666825	-0.09588446443906352	3.039852373077674	3.066031448252667	3.1951837459002217	0.6239240749819026	3.472436896140166	3.664708366678287	2.542022460241556	3.6360328105678246	0.25486007268455835	1.1690859765100117
196	-1.8648409796362115	-0.5099640475749219	-0.8325434306105848	-0.9423652267505478	0.04063720990888315	1.2518531052454416	1.2147051065294168	-0.1327453252301884	-0.97657310716116	0.957766888107689	1.4361083471279592	1.6135618645937504	1.1771354645573155	-1.8474928093995548	1.8023542120251157	1.9656528184853848	2.30411600484856	0.9379102564019932	-0.4874147462459738	2.679027789027731	2.6892964772037096	3.0395014209301228	0.22290866020667233	-0.16691774087724875	3.2236614145905294	3.01968955231254	3.3463530455979016	0.8439394810349986	4.011382092838542	3.8694839379843984	2.7818009783129316	4.32347773414042	0.6129259451650046	1.4335935079619453
200	-3.0380744857378024	-1.6899018244992772	-1.9145873736680237	-1.6199166733850792	-0.7358540874022483	0.3882012059424173	0.5177777396480897	-0.4975649701907602	-1.7788488819987065	0.36819916870615915	0.6051436647395542	1.0407428715178846	1.3608115877126574	-4.04843281677454	1.2981319394715554	1.2253241508065005	1.7726585820265426	0.6844422203903272	-2.2926666678718512	2.2788376750631385	2.1940936986840787	2.6173829966266067	-0.07708277533858401	-0.4977353500674205	3.051614515229374	2.615188592030096	3.177309743488684	1.011092779467805	4.275117386514716	3.7854308986458305	2.7935264040035426	4.679687965022082	0.779668329177767	1.4793971739611091
204	-4.526253688828656	-3.1788210788577933	-3.291356793676817	-2.814346306371021	-1.8424651576254443	-0.8085516670793919	-0.5347816930620375	-1.2872154680177936	-2.9116096423070954	-0.570658980359304	-0.5003509508851728	0.126263782063226	0.840914664529574	-6.242254241441971	0.5459256158396879	0.2298027867237283	0.896742043615308	0.18263916625164137	-3.7756476306956777	1.629695053754373	1.4986096582723436	1.9503259609572479	-0.2158807659659169	-0.8879262186520617	2.7026987007569083	2.064508432897969	2.8486049103342093	1.1887378662614208	4.353135574794301	3.5955214409649057	2.7295002868403637	4.793181884108096	0.8411022999508532	1.4464414083201325
208	-5.96133469030186	-4.591005790563366	-4.600826251811765	-4.15898274325324	-2.8692724632300264	-1.8954861116236594	-1.5369728764829809	-2.2134809438133534	-4.059485425236624	-1.4681906663066027	-1.4463448487958401	-0.749912438883478	-0.2505804890028126	-7.619553069904324	-0.14804722331338863	-0.6144466384633198	0.06936716270814645	-0.4095542122514212	-4.470212925115164	1.0619217130552945	0.9348153448344898	1.366322156317519	-0.13111527231014772	-1.122315165547164	2.4340820251045336	1.6657066303159793	2.6072237425781593	1.4403983318201918	4.404520977344009	3.527241936361294	2.7823507715549516	4.839690673053172	0.9304360723846089	1.5098262987164364
212	-6.902288419463045	-5.506720529004582	-5.459296212718067	-5.169638620675944	-3.398905030252208	-2.435245984604769	-2.067239994551839	-2.8934070990943854	-4.879165637095354	-1.9168305348638373	-1.8360799504653569	-1.184723255027355	-1.49380492786913	-7.808324317291492	-0.4840507197079889	-0.9347772574665745	-0.3081495456068086	-0.9035063959198544	-4.313926209048569	0.8707529284427346	0.7940189222315925	1.168972608475935	0.13402174379366955	-1.0628942224369944	2.4516034064384704	1.657659764873039	2.66225551886744	1.7976907446296633	4.581161487457116	3.741490831465509	3.0883042734375223	4.990756022250626	1.1579967707961267	1.7911061003286608
216	-7.08857963679666	-5.70778463829919	-5.677340493173418	-5.514973149680768	-3.2443659223660144	-2.2384965363252682	-1.9238817643229633	-3.074784509525123	-5.183820711399416	-1.7248123840653724	-1.5205277166123916	-0.9759696101343328	-2.4068481861382582	-7.0496935666433735	-0.3310772768244801	-0.5857918843738313	-0.045625314001285125	-1.1801662415272025	-3.6364490894058847	1.1629794806681901	1.1781107157526682	1.4814339838772315	0.45709955576884714	-0.7048237305965898	2.8062376905162494	2.1058516449212727	3.0807359140816306	2.241086238924931	4.953482138525154	4.260213841172705	3.662471285156225	5.328388200658441	1.5558639725503978	2.3013577403138976
220	-6.621402246923924	-5.317201124118082	-5.379003511199595	-5.212198244286753	-2.5666813785600358	-1.4762736521641857	-1.2411882846012863	-2.7878460813707893	-5.0484681001994	-1.0371338102858467	-0.6791405660648759	-0.23751406311626938	-2.70190071377467	-6.049847110732684	0.1957928682390766	0.2747026972987672	0.730172989909115	-1.2430343596546087	-2.952919714147988	1.800811643822223	1.94972180827933	2.187143797120815	0.7039529663432645	-0.17346045331075746	3.370568266941793	2.8783271240042847	3.759450426146728	2.706228964648752	5.475834832671428	4.966927992678218	4.397208679541426	5.808938965436378	2.0644547887178066	2.94214724751564
224	-5.940000995897715	-4.743712413255211	-4.9402661198817635	-4.622512328874932	-1.7927716925180592	-0.5887052401938074	-0.41359498992447724	-2.3287229479169262	-4.765175330528903	-0.26464459233224863	0.2793041460614874	0.6636711342267962	-2.4247405467803405	-5.5854077198154375	0.793715832613675	1.27351843989228	1.645899530069967	-1.189738628244673	-2.679402344614554	2.4777462419895313	2.81011008506824	2.9998102112372425	0.8049916008652356	0.3335537902040002	3.9106035133810697	3.7229225541533806	4.4863552933910595	3.114957086327994	6.01023767861223	5.675003514266964	5.12148331302775	6.291735156386625	2.5650830204097743	3.559035530641374
228	-5.5859818317524645	-4.453380573473091	-4.774306285248281	-4.242652882354737	-1.3750897611232638	-0.03882916261883133	0.12916839090160334	-2.083277458653194	-4.670948016771443	0.1455880101819709	0.940435466776172	1.312602159047143	-1.8968527269156192	-6.082978710075305	1.1367874116806689	2.0242636152658124	2.2870171012357248	-1.1234067650088244	-2.925990574125035	2.883663408628263	3.459231606332808	3.62027811090057	0.799436865218707	0.6296255572634977	4.210569847920358	4.398926723818094	5.053723799343845	3.413089505161464	6.393039687228267	6.221521838692802	5.685032830190129	6.616304857715602	2.9389986917679742	4.015882958763458
232	-5.887226566709668	-4.697018134656061	-5.085916983161491	-4.413374889675171	-1.5302938184248926	-0.05050137998824372	0.1672374005863721	-2.2927248420050055	-4.947575556661405	-0.03131374708852767	1.1079980106989729	1.4783323965895299	-1.5049508772046978	-7.398593883908236	1.0578192445750516	2.3317165315885675	2.4254636703289294	-1.0692096921628707	-3.4735021503489025	2.8714051174147057	3.750627031393614	3.894262542429285	0.8171926716199533	0.6127246006754618	4.185396660728055	4.792321669876869	5.361205564314599	3.592880478370865	6.5135454967079545	6.537915690127871	6.023011192373925	6.688293440144932	3.1224675099693107	4.252694596043984
236	-6.738967878493554	-5.348421560135449	-5.736019120039428	-5.108399855114005	-2.105291838098956	-0.4798118758008443	-0.18510219408031509	-2.8988859580283064	-5.50382088225287	-0.6572477204895043	0.9023148990738026	1.2392183510964332	-1.4635196887259274	-8.905629135535467	0.6477573497630379	2.2850911559586047	2.1401674693433006	-0.9503774022903165	-3.9298982521018866	2.535531514441904	3.756842603735099	3.88379143688016	1.0099213097823472	0.30219387931821057	3.92329358064029	4.954951750643025	5.454385266838131	3.689248075707517	6.365700228831717	6.663882715566671	6.170302852310887	6.527458651274878	3.129003516880299	4.299152363413262
240	-7.626993160064982	-5.959938987943323	-6.304797633465461	-5.934809669769464	-2.6536126069782506	-0.8969111419921089	-0.5485594854810177	-3.5634975343379947	-6.01764725119484	-1.2942665782676304	0.6792421919839614	0.9307731366499626	-1.690829988025376	-9.83065793416435	0.21411922519983367	2.1903295461667267	1.7645213559423507	-0.644238231939739	-3.9632282157018186	2.1616537516376857	3.713273277444344	3.8167369269328795	1.4630262814777224	-0.17174783305675012	3.6395294574400996	5.0535859934054725	5.483616815073655	3.753749361097645	6.051771148661176	6.706790907139246	6.225754722135484	6.256230338513618	3.032862655611801	4.245670307884229
244	-7.900849322398464	-6.013350948410277	-6.325914366963172	-6.350106223286371	-2.685608857050056	-0.8344804027469603	-0.5016888367384233	-3.852550496865042	-6.116387351806141	-1.445032473730489	0.8161986449615438	0.9468476748402744	-1.8735765171431482	-9.657438253815554	0.11484668374867907	2.380490058610812	1.6928707318480436	-0.08854116477069486	-3.480629912171727	2.0708551354576286	3.8734347722487157	3.945688476137337	2.1292352622633577	-0.6213563664961064	3.5635528474482063	5.260630594323165	5.608261571076096	3.81891225804311	5.733372673818082	6.772783739156468	6.2878684838805174	6.0326695289889445	2.9228920862788543	4.187619675553986
248	-7.142251473514179	-5.217905508218878	-5.554133401199329	-5.971995338620892	-1.9448460291397236	-0.05594384283604076	0.17572928920724326	-3.47777389601988	-5.592084870524897	-0.8280194380835547	1.4934958181821054	1.51317703341867	-1.6761269527078835	-8.385326364327133	0.5648875818295638	3.018282644280814	2.1596798842262874	0.6397883875906222	-2.6599321298199614	2.4483280120070425	4.361688602879396	4.400532711362867	2.8333458828916553	-0.8757648445906642	3.821732988245339	5.652117714916786	5.904650673263577	3.878638019305891	5.556001649180452	6.910132867532839	6.40101621919055	5.966490253643336	2.853534929700424	4.174800862262376
252	-5.418786035208041	-3.686209192505961	-4.114142407520504	-4.800813662805869	-0.5576454982983488	1.3071713414567896	1.376683708529823	-2.459035867204617	-4.529161441812037	0.4616760003831472	2.5928304129941377	2.5607182914931816	-0.9603440737319805	-6.507826311846906	1.5167916974873026	4.001673688322038	3.1136674802368898	1.336038586104366	-1.8296405030786609	3.246293298154605	5.104559408651533	5.117227541401531	3.3470826064481103	-0.8439285137803876	4.376906860745026	6.1691202961615295	6.328615172620416	3.896247853932451	5.586819157800155	7.094351273744979	6.540653689083361	6.065266593878569	2.8217353749558813	4.193444718263888
256	-3.2698168672022696	-1.8825634670411127	-2.4412815509194865	-3.2221610464760313	1.0323848698300022	2.8275563645499493	2.730031483433261	-1.1124949427173434	-3.2644567407204415	2.0005874583279084	3.768893947622519	3.7698638343998554	0.12089610814327208	-4.743636119310091	2.6834883622128802	5.024613367746199	4.255133618102035	1.7731556847627141	-1.2784945932534346	4.212113846634722	5.876514896814838	5.880346283371326	3.499808541044814	-0.5467329607511322	5.052051531434249	6.659718973511754	6.749525529986674	3.8350508116217488	5.79318951097785	7.25597475127271	6.640218241139113	6.2365288576978815	2.779502146379038	4.185367096824321
260	-1.4279453718372894	-0.3759087910698119	-1.0503485176270555	-1.794435615777408	2.305245155236334	4.017894734728838	3.808561315457549	0.12207726358348146	-2.2080957833807826	3.267555466985201	4.648095119185098	4.753465163627316	1.2112070291456705	-3.677269926323696	3.691510668017478	5.754465088620786	5.207399355138714	1.8448889208944714	-1.107194063252272	5.024774538705265	6.430744631743667	6.450114233898132	3.27951478130132	-0.1034427357088525	5.623157487023596	6.9736056151753205	7.033319932346334	3.6947235967813388	6.0711502875587815	7.3308372312472745	6.642195684829189	6.347934230036239	2.6754612855119553	4.0940937892544715
264	-0.4392492760058703	0.452632604886723	-0.2727222435741378	-0.9473173594399186	2.934001915199779	4.585463512287563	4.3536443600408194	0.9097213722148931	-1.6270147520948803	3.915301789888983	5.0306753985231305	5.264452444136514	1.966808194916794	-3.498757591950788	4.271803845110728	6.01643179328165	5.716792569032062	1.6547586876098557	-1.2072561948813534	5.459221349284418	6.634695036349592	6.695818884156694	2.8604926990767785	0.32241123833317614	5.928351387315066	7.050515157064883	7.122384530204964	3.529530277877733	6.304679377850525	7.301495533628485	6.54074428814319	6.30724809961528	2.4973647531399505	3.907895078329314
268	-0.39990618723992194	0.580986677133461	-0.11110286386572484	-0.7686707954073153	2.9331092760418764	4.56331442634495	4.391410339712316	1.1778416603868314	-1.5193666181350984	3.934203376373854	4.98185681038955	5.312838064131539	2.2573223057021763	-3.968013753409463	4.385927666081138	5.880053505356929	5.772405609815725	1.4777057133559437	-1.3635035718824966	5.4910931448582465	6.535330755899778	6.660372717254	2.5289888318107177	0.5939372762943368	5.937617763787032	6.952211839289394	7.066513520519364	3.4309697064560423	6.423727972978424	7.206141930506192	6.390912516670894	6.117362006955048	2.289750331819644	3.6757907774626846
272	-0.953223166443288	0.3053829960265437	-0.2875100963009317	-0.998164770467242	2.6063792639731136	4.249029148818131	4.178369034708201	1.1161050768329845	-1.6504189926440056	3.617124309944177	4.76297663439798	5.127377973962574	2.227238172629938	-4.59540509017384	4.216906536899721	5.599234090019787	5.580634579873875	1.6076917607725114	-1.4021573031310357	5.285720335012993	6.317769988321625	6.5191421344196545	2.543627732530594	0.6580864174440213	5.749536976603199	6.81932829088832	6.986901742461087	3.480257263933532	6.430085165955537	7.111437779591732	6.278046592120647	5.8734292835718955	2.1325330680411647	3.485024443410632
276	-1.5443913897622856	0.01815781551485443	-0.45222762112881915	-1.2285553185916165	2.3299498499218854	3.99306391661526	4.01531218468653	1.024179217613781	-1.7291911796780963	3.3487224494310306	4.6469840886092895	4.989692675390518	2.173444265600227	-4.93054960913359	4.031805505109976	5.442123399345896	5.414833055176517	2.167621368657531	-1.2971421447429141	5.080052362967558	6.1820301853501265	6.458184225943187	2.9946939869612192	0.5593252763931678	5.519741998087917	6.777976972633347	6.993936521038297	3.696076622214324	6.377202494732852	7.065529328627318	6.263542636316202	5.700595364483113	2.088920111150544	3.409256449674926
280	-1.7667479470469585	-0.04594404238783621	-0.4140077520885047	-1.1795787781497795	2.3117425383376053	3.9744813341884218	4.051609505914469	1.1106313438985012	-1.6079546172553072	3.3548834239180394	4.736706721744579	5.049525725013624	2.3232421816343773	-4.7901916382965535	4.003620614434066	5.51760099925299	5.43911312637376	2.99730943876736	-1.1647367448010215	5.030936705285167	6.214934810206015	6.549755556736162	3.7343530560623877	0.4096138466983684	5.3665399415899495	6.853885156493211	7.109906655480608	4.006348599809258	6.321889384520941	7.061586839013248	6.340219958510306	5.672590241415391	2.155994648258419	3.4597415836722187
284	-1.587609763905489	0.06147988870118918	-0.24922278460522426	-0.8727491475958672	2.4738690790659708	4.1002764598321235	4.1987151993602	1.3649049962869173	-1.3800004685846203	3.5651924520125484	4.897671210321336	5.2324995862459955	2.6598954133588726	-4.316428173611344	4.102202405109243	5.704081044100777	5.6106467105354065	3.7034006025272537	-1.1608546942966016	5.120893465464541	6.333676799041962	6.700957281360518	4.431272495525979	0.32726010597573435	5.308660970636226	6.9479594055232745	7.245701294725162	4.269516457268603	6.280098422407215	7.0359124959689385	6.426735861764774	5.761821255441814	2.2507066669859688	3.569092979956802
288	-1.3274987902503774	0.06876364332957757	-0.23040620924474967	-0.6057539566958685	2.5212960179568493	4.080684651562496	4.197174538505936	1.5728137453423816	-1.3146047558972507	3.665784111304477	4.840827929672615	5.2895150051083935	2.908884279536266	-3.860396137027729	4.115099896531758	5.718919739589436	5.711044773941594	3.85573529223664	-1.3604919876081787	5.170918928442488	6.330341799965909	6.704327566386189	4.727230536923533	0.3721368303440142	5.262599454944414	6.88644645859606	7.244308453389567	4.3371963391472885	6.211396678501081	6.900413972598882	6.405058367770432	5.8501491398928795	2.2431251946082598	3.619498005311719
292	-1.4182957375003853	-0.30592545789727493	-0.6258945449285572	-0.7478317599489119	2.1482183879020758	3.627602329632078	3.7896206283258045	1.458609934938885	-1.670273776605718	3.3071858799405636	4.303205479247755	4.953452097784263	2.701753371093157	-3.771570673003334	3.7855157756597766	5.286552415851957	5.4826626639225	3.223520032373479	-1.6974614815770537	4.951506602183706	5.991110786570677	6.360684378777242	4.414801586448912	0.513548432484085	5.098527418615493	6.518805010549656	6.967384320787952	4.125267018393296	6.042747482302123	6.592824442430646	6.182983859664125	5.795948013931091	2.0239710756699933	3.504773846360647
296	-2.1033942646326773	-1.1447521419233162	-1.504709478393967	-1.4900466166069515	1.2464804617882421	2.6477768354323157	2.889450781202763	0.8605990388123037	-2.509985679011406	2.3333222807147624	3.2149510302436246	4.105044354564958	1.8188502742622146	-4.212405670974806	2.9803392811869145	4.304533470729998	4.783202159249259	1.9205332945972255	-2.005153174106176	4.3244247327342205	5.219866262608458	5.600484833882596	3.550880900000952	0.6473946555004954	4.719454753404347	5.806979641558268	6.375940306778275	3.6593534854051857	5.716441140047354	6.1157131040661445	5.747981533797068	5.518887029065417	1.5691913326699476	3.1914763370045525
300	-3.265853873590449	-2.2510805073170563	-2.6661715440192966	-2.702271931501394	-0.007593587487390506	1.3175834384077356	1.648029323231704	-0.1600575443041455	-3.6302647498981835	0.89870100986555	1.7573909715151628	2.8548588680668323	0.3640090813983177	-5.089268194700882	1.7902501776318471	2.914544813427004	3.6737291720143985	0.37409916425667755	-2.133142227509231	3.3345324908944693	4.099405755183443	4.536379802694691	2.439290517370436	0.651671467566266	4.11871146115887	4.856939780370462	5.561079964902494	3.068557254673292	5.232462869784906	5.543841348002657	5.183380590703505	5.05318592703075	0.9653309559291676	2.747177117087482
304	-4.492056835277299	-3.2533948339337946	-3.7415745163865624	-3.9899957079285486	-1.242504831991761	-0.005215713741127891	0.3809169223228079	-1.3427435125782212	-4.657528865499171	-0.5995993003011902	0.27797284652146786	1.4942722282829894	-1.2486559121077618	-6.124455913339726	0.4989387976447196	1.437455412096482	2.391493552845726	-0.8798994995790044	-2.064094299827115	2.1976110879726836	2.8561379837404828	3.4145457658389393	1.4817271195194968	0.44783002025071605	3.385149470365673	3.872620334384561	4.704653251213934	2.5247692998084315	4.659188735642685	4.992534148009077	4.633451450093652	4.532697189331186	0.3749325563978229	2.313542360186699
308	-5.317285524294872	-3.8181168936652354	-4.396884430274667	-4.908446776395205	-2.095675224735174	-0.9706058477691824	-0.594002722194135	-2.359262460474099	-5.24993227586873	-1.728456612037739	-0.8811733104392833	0.35184726030208546	-2.490665906339847	-6.997366410708592	-0.5564281926411744	0.21608482246679026	1.2321808307055708	-1.4602022134153947	-1.9398440073628016	1.1958124607412397	1.7530667737569152	2.4951341089195083	0.9777601336588649	0.041561551287145566	2.6593990258784364	3.058814041044327	3.9926254648493993	2.161119694021847	4.1055288211164696	4.563006866378685	4.234349240102753	4.1167178050054565	-0.04236650083693402	2.034381622900179
312	-5.493978486495249	-3.835204591604881	-4.510087955532068	-5.202916609025763	-2.405015939362489	-1.410023208872895	-1.1075720759084833	-2.9714202805838226	-5.282375322356644	-2.2392001095504206	-1.5390913447622392	-0.35785350113164777	-2.9838976784710214	-7.477634411052429	-1.1524547309389033	-0.5417363033922266	0.41508704319105016	-1.3132291999085972	-1.9786102721803926	0.542115686955264	0.9745808815192172	1.9323393057673695	0.9850857232971993	-0.4781389522401571	2.070786947744178	2.5294849808725757	3.532209149025755	2.0146470019020306	3.672307482030805	4.2977232824537355	4.050928105617117	3.9035951992660736	-0.20708318002392578	1.9823862264173802
316	-5.117487417652096	-3.464880696131778	-4.219448555783684	-4.929571139287428	-2.2762565555323016	-1.3980325425137032	-1.1980127065929234	-3.1266271989083934	-4.900268542315511	-2.176266903151084	-1.7338809923264729	-0.6132493003620948	-2.6854245594888755	-7.500358562606384	-1.2786201206350147	-0.837091086181531	0.0030939576603588406	-0.7124835830819807	-2.3351461828402846	0.28821217940996846	0.5614811167846059	1.7172496275460754	1.3041219678377796	-0.9819512938503095	1.6874074893310143	2.2680294456440153	3.313308469036434	2.0175650068842876	3.408063164689535	4.165787209483619	4.048822869568965	3.878921260577149	-0.15742370446513795	2.1196284240612946
320	-4.532616603851653	-3.0160214824823237	-3.8126540087760734	-4.385116566077082	-1.9893181273779672	-1.1720433205577208	-1.0490546200015383	-2.9408476278442386	-4.408862579658487	-1.8158489419867723	-1.6577473837006376	-0.5544246421167529	-1.878018255260596	-7.159542542501285	-1.113777992297539	-0.8369673469392898	-0.08510756471127151	-0.08186903575254433	-2.980905048473694	0.3239291302131939	0.4255643178208933	1.7118405060463653	1.6002265174518209	-1.359002229120424	1.5026617012232337	2.1589786951869203	3.2339923300154965	2.0438413568393083	3.2927360451534375	4.086490143948962	4.118388642403582	3.930867185204909	-0.02362383337314917	2.3171765745787685
324	-4.094210137520779	-2.743185274827663	-3.5372111708026766	-3.905517091427359	-1.8147818996386973	-0.9741906499108579	-0.860698936196695	-2.5985972815708864	-4.079766740035272	-1.4876043758980906	-1.5241504869126932	-0.3765329709083239	-0.9946439241092488	-6.644561750802219	-0.9059193111435597	-0.7552885394100658	0.00410735373279566	0.24105158387359624	-3.688051929699184	0.45766085270727985	0.42188009513198343	1.7438551143487149	1.593749519139011	-1.5591371020053297	1.458449121607687	2.065964455156866	3.1692309299562247	1.9816310355699827	3.255727998142992	3.9764649767615383	4.136106480646202	3.9210653206056327	0.04642571869692093	2.424473756390999
328	-3.942967404900921	-2.695611708511007	-3.455970278597512	-3.664775839136002	-1.8578920317472618	-0.9190803146999615	-0.7398235183156884	-2.243366235791123	-3.9965643781847913	-1.3912014926118215	-1.4542771541118114	-0.22243016902078475	-0.3889362206176093	-6.167064174340548	-0.8316849449140523	-0.7367936354154707	0.145255803695154	0.1658293302640757	-4.143258561164034	0.5238548504001109	0.42805012952497495	1.6999845461840257	1.2113598554544889	-1.6037580926458463	1.4803644381340821	1.905636186556834	3.0382931155742865	1.7894968941330778	3.2118873515099047	3.790944566692213	4.02581261572081	3.764599552186584	-0.03594085565075892	2.3465390146138887
332	-3.9411761661206537	-2.712763302629691	-3.4368412407887523	-3.6000411419575227	-2.0265700765942176	-0.9648905968146789	-0.6744348389763845	-1.9257299851434924	-4.035943974795573	-1.5204265079258183	-1.4481236898100256	-0.13677616382875327	-0.18250541342910306	-5.908352360113362	-0.9221530533396646	-0.8107111433541521	0.27476000716457405	-0.14745013378585867	-4.127934445449549	0.45301753168171066	0.3848904361544047	1.5639648398013684	0.61708760105736	-1.5653096397933954	1.502429958364932	1.675608034671779	2.8329451012611973	1.507787462242397	3.095636836819278	3.5369696527826564	3.7871906661737365	3.470994702158822	-0.26332607798850116	2.0877969212272327
336	-3.796814670513452	-2.558109992244396	-3.2712562001606718	-3.4971926124015167	-2.131185764654063	-0.9893445943649379	-0.5916674718223759	-1.6272867876929484	-3.987114419407381	-1.7249860719998094	-1.4409204685071062	-0.09313352382510978	-0.2725819342406908	-5.981726154483775	-1.0894024344596063	-0.9270377731759646	0.3765880455999573	-0.43437045702938815	-3.657313576047543	0.2715548270045145	0.2857643656668353	1.3873079980156335	0.10418293598812685	-1.5293244084847133	1.4732677899357518	1.4265323841318114	2.595479481819847	1.2195098369326303	2.8772413657977975	3.253601066004197	3.47852396086784	3.1239137570664894	-0.5533635006284957	1.7384548143364094
340	-3.2871346390701675	-2.0976617283312327	-2.8382153439389315	-3.1721627632160345	-2.0373325296462688	-0.9060438252461812	-0.4484739292265989	-1.3307694163102353	-3.7244481946371994	-1.8488163901380956	-1.390270229644202	-0.06054222941014338	-0.46606400491346567	-6.408809168847388	-1.220616337555447	-1.0336599323878182	0.43785443791468065	-0.5126124011448955	-2.9957501812639724	0.047738376884334015	0.13821808958919662	1.2232460944762977	-0.07595851253166909	-1.5579946001771596	1.3522764410209498	1.2061326473301741	2.3703954159971383	0.9936829184239616	2.561464064806729	2.976854078406407	3.170684806447915	2.8182547021283653	-0.8097923377572592	1.4154635632063883
344	-2.435889953185296	-1.4066638911018354	-2.206076378020891	-2.626143925712153	-1.7706729128955085	-0.7392455916814054	-0.2871459417245959	-1.075202581552037	-3.3145925915002326	-1.8503490639699802	-1.3282083239399924	-0.05390692116120989	-0.6347531660266442	-7.101107579422501	-1.2714419332828377	-1.1340869636512931	0.419358908071317	-0.39439773459994454	-2.524880164447434	-0.17156395272808228	-0.06645927561431476	1.074392196803717	0.14440594577093097	-1.6716974931472284	1.1105250092124903	1.015633818923198	2.1643996184062657	0.8444878437655478	2.1753566210183726	2.7127082279380574	2.901240818328147	2.5975012713655237	-0.9846072768147953	1.1925851076533798
348	-1.5228264293369955	-0.732092080652103	-1.6009533364883768	-2.063312763726793	-1.5015538892982352	-0.6044315084455758	-0.21233102625644193	-0.9469657516412763	-2.978542320360763	-1.8218963100211256	-1.3387893404538052	-0.127075865543918	-0.787135897079598	-7.854353408056626	-1.2944450345736374	-1.2828046051062614	0.27199494770042476	-0.26059570842752355	-2.53473924950555	-0.38819831511715297	-0.3487444809214915	0.8935633279174618	0.61300295436586	-1.8494549943006067	0.7445903997695651	0.8100159743838918	1.9437955568828542	0.7297745328597974	1.7594178870602772	2.4374744830580046	2.6582777433037528	2.433420175130619	-1.100895282826891	1.0617469522372542
352	-0.922984538132182	-0.34038710508237763	-1.2677226034582436	-1.7657095149283035	-1.421507712589932	-0.614392100213488	-0.31029066365102437	-1.0168167327004236	-2.939579002588042	-1.8991732549401559	-1.4813958369046716	-0.318904875903827	-1.012062070198695	-8.395060518050116	-1.3848729098641277	-1.5265257320009955	-0.015327619350001013	-0.31996011653226625	-3.0631985587029344	-0.6292553528157324	-0.7075113636273713	0.6322581752072904	1.0458898517905344	-2.0466954656425274	0.29396405741859394	0.5394843803136531	1.6685011344745733	0.5875304922528952	1.363089081183775	2.1237368530059997	2.4013557373453627	2.2598147335218113	-1.2241589992133728	0.9481794810197732
356	-0.8800728894902182	-0.3509263685426307	-1.3145801987836652	-1.9082137298089934	-1.6005750854135872	-0.782640633991277	-0.5710060582049548	-1.2710643974637834	-3.2598159230899464	-2.1361451095054336	-1.7222784714130783	-0.5981659874118952	-1.357546326070816	-8.479667642165117	-1.589258070747946	-1.8418639851797576	-0.3770152618903063	-0.6578135473809285	-3.869025697476522	-0.8980982280944584	-1.0902938815246164	0.2970265738617438	1.1796051234027038	-2.2151384297710828	-0.15501421650849856	0.1985941673271578	1.3340513672525716	0.3800329556406982	1.0392061445701655	1.7712802842242363	2.10024427837354	2.0342562147278884	-1.4067330324896004	0.7639609555983446
360	-1.3605132068616652	-0.6648552400969145	-1.6425996977342432	-2.4343752799560883	-1.9253086995152835	-0.9957255099906124	-0.8723108746439402	-1.5913860757703444	-3.77813409805085	-2.4395215449730023	-1.931168551337647	-0.8548676946037516	-1.7493311122596942	-8.010623911659884	-1.8485290957510034	-2.1218626445604145	-0.6797435266499015	-1.1738551825450285	-4.559170234613469	-1.1438841790882883	-1.3975672686577612	-0.03138600281897421	0.9044227577263176	-2.3153979719831614	-0.49168595547514976	-0.1538632359196305	0.9901190971171939	0.1177581322200271	0.8351734259500141	1.4206387960805902	1.7638173058800413	1.7816826060134636	-1.6430759388447962	0.4668017912046327
364	-2.0709342904256904	-1.0295860741369953	-2.0031440207451596	-3.0740311068170647	-2.160172695428046	-1.0770329209791785	-1.043217298734843	-1.8064579918075403	-4.193008412265234	-2.6111466818687923	-1.9532180975237374	-0.9533110832941096	-2.011831516908529	-7.11143968694036	-2.0184545466006694	-2.2292504254324745	-0.7853313068589344	-1.6467894274142167	-4.80097864846219	-1.2779594627539923	-1.5283782443559375	-0.23612376987923236	0.30391976160564693	-2.3251748026316954	-0.6279214604736717	-0.42286845934915357	0.7178503256793624	-0.15355786642405597	0.7758971433123493	1.1374065847290324	1.4386017286219082	1.5875025947544534	-1.8677239370874288	0.08785809554329346
368	-2.6268804007011384	-1.1977350681582606	-2.148580307304238	-3.4954249770605204	-2.098217005200558	-0.9046357251215624	-0.9713348721775895	-1.7924249126956315	-4.246373642690802	-2.478566878736727	-1.714662547550776	-0.8194917419724251	-1.9907665202423523	-6.115943893250132	-1.9603160570242495	-2.0869994110821515	-0.6356823428317019	-1.8831018161913646	-4.499261367882401	-1.2308584420599227	-1.4436818324832885	-0.23947034715750334	-0.41395255818758203	-2.2415327969224608	-0.5454301224289211	-0.537375567986824	0.5781452641195471	-0.3937439014507317	0.848505077603977	0.9753943061044132	1.1783513993076635	1.54368197528196	-1.9974821755522403	-0.28678521441532595
372	-2.7673382689225665	-1.0778336497750696	-1.9817278335128536	-3.4979944140810106	-1.7051235394342958	-0.505627511655237	-0.6856636387679808	-1.5581395586728872	-3.889322032645616	-2.028002256995265	-1.2917770114709375	-0.5055528866401666	-1.685871239220452	-5.44839476163475	-1.6449710089160003	-1.7455294088162285	-0.30511334461426065	-1.8440419388943514	-3.841066589194451	-1.012877580946453	-1.2049409120655437	-0.0645866690435536	-1.0347897980313279	-2.083713049396113	-0.3155487767835772	-0.5017902242389303	0.5670902714716771	-0.6021489485796652	1.0000132297063495	0.9429899430308614	1.0075927947354306	1.6837375121521696	-1.9888142297123084	-0.5657868967076644
376	-2.479770177302415	-0.7768976668770229	-1.6071401793911526	-3.124168149689748	-1.1600160569467293	-0.06049881115182443	-0.3565367153225944	-1.2550396887563782	-3.3163018142894964	-1.445239659475205	-0.8901225305972001	-0.1820065374547538	-1.2917938199807217	-5.428464398983654	-1.1958973377551856	-1.375135656699625	0.021736983154967797	-1.6673952298982029	-3.1805913368031526	-0.7301363330526706	-0.9555695032789473	0.16293396014561523	-1.4341816865951038	-1.8900747251474537	-0.07158436608122593	-0.4014072408078332	0.6111654027767188	-0.8194592574411046	1.1564472884544579	0.996157941687366	0.9059314108864186	1.9504296730388953	-1.8727401447697716	-0.7027318459888342
380	-1.9754514644338512	-0.5188431130661152	-1.2618991104691013	-2.628052228014464	-0.7652282695523593	0.18796919238793408	-0.20841211027932147	-1.1011289330338205	-2.8505077290092147	-1.031970617549859	-0.739782569924831	-0.05503698424510488	-1.1052216263523449	-6.109624370408421	-0.838262079029832	-1.181181427834454	0.1415350880625725	-1.5729116161688557	-2.837951176153954	-0.5395426736560962	-0.8493928887856649	0.27994036603821365	-1.6075222451631983	-1.7068518357098394	0.05504179732015834	-0.3541730037330269	0.6092733725423906	-1.0939002009430014	1.2568250862814725	1.0647959682283967	0.8266696909060237	2.222250455967726	-1.7393710569335834	-0.7130965572473033
384	-1.5407733878335539	-0.49341732138989164	-1.1696883410485908	-2.3226840437421097	-0.7741641978745248	0.07141266000122273	-0.39258080621784364	-1.2581574885074176	-2.7495043208322167	-1.0392007801521492	-0.963592646073327	-0.25114771660338553	-1.3420548405142252	-7.232690316059281	-0.7765704373780322	-1.2868849006587038	-0.054372940075209694	-1.709989304993605	-2.9324493334165895	-0.5617781267287718	-0.9633808707709747	0.18272015406252545	-1.622727747634879	-1.5734964569419152	0.002920757506119096	-0.43528708705675223	0.49901053183452565	-1.4307204448817357	1.2832206455257433	1.0979889603549806	0.73850434832085	2.3857867657507597	-1.6802173810499121	-0.650917170788538
388	-1.3671766485028616	-0.7377908807246899	-1.4121651613821355	-2.403121942174888	-1.2419400183792955	-0.4077505459027493	-0.900841472258675	-1.7398465827884009	-3.056346885594013	-1.5186523160739136	-1.5015912018057704	-0.743127224953313	-1.9822179029009594	-8.328392007781424	-1.0759357186809233	-1.659188743216957	-0.5179620968139145	-2.049219841551681	-3.334208956883445	-0.8083313087082136	-1.251286384284348	-0.10957830371608963	-1.5412349662015292	-1.509580846789871	-0.18906620097109428	-0.6274836047542571	0.29992461128805126	-1.764875645950001	1.2648215261950604	1.0940953465495034	0.6557537896766257	2.4028761326204546	-1.7297139124114567	-0.5686561450906179
392	-1.4677932225362438	-1.1265324325729542	-1.8950295400458326	-2.850208275274619	-1.9902769276914034	-1.0777195664852575	-1.5700201948581016	-2.4029104648957587	-3.588031998158497	-2.2846581878200496	-2.1395575946194985	-1.3609684671373101	-2.7548222472256505	-8.94148061402161	-1.620651002606858	-2.125165218709791	-1.0701087686223927	-2.3948981701467007	-3.7641036415433047	-1.1704713076603837	-1.5691615303476352	-0.4658246624629744	-1.3704642022817928	-1.5130274257606615	-0.40903380409920115	-0.8314857461917159	0.10332698348899093	-1.9820860574270491	1.2507849900137633	1.0936243506476775	0.6323299391994188	2.326741927948173	-1.845330591311142	-0.4887738811550332
396	-1.713177438225302	-1.465661164398011	-2.41697334632998	-3.4600205334090632	-2.7014658382874868	-1.6900849299675649	-2.1703388636152696	-3.0218934936521906	-4.0606260197161665	-3.0058958454534452	-2.623213284545236	-1.880101318380947	-3.2745354092893555	-8.854715324934032	-2.172527784584475	-2.4687023100513055	-1.4982852897962948	-2.508630507811214	-3.9772486586290667	-1.4780420027609174	-1.7588744119105872	-0.7228009682526176	-1.0805385085481476	-1.573724027475093	-0.5422320948262165	-0.9320254302335319	0.012106728709469937	-1.9834492156496208	1.266401883742645	1.1388285131312041	0.718611238572644	2.255213970212504	-1.9409477661719656	-0.406724392340887
400	-1.9465089987247584	-1.625110979745561	-2.792970173459903	-3.9740834135809058	-3.0899321954915178	-2.0512938447660494	-2.528610938363796	-3.40787958238409	-4.269548882195279	-3.381400099800188	-2.795470707511207	-2.1408076232265723	-3.261430732122124	-8.195882776548595	-2.501617425324648	-2.5551657612185044	-1.6744322734519081	-2.2675650062530983	-3.9172980686467604	-1.6002206761966475	-1.7448774532133213	-0.7890080193626215	-0.6669796092359908	-1.6967643456535209	-0.547182856608761	-0.8827876426343041	0.06352575852329437	-1.7590793326788077	1.2771679130733735	1.223468539010038	0.9047352648780861	2.248692506834804	-1.9557664345000307	-0.3228194109395675
404	-2.099186415140738	-1.6242164332390303	-2.9572834893902664	-4.230050076295248	-3.054005853571725	-2.1181957668230904	-2.6153261595498902	-3.5031337649591485	-4.2116293800832105	-3.299737206711079	-2.6786482266507594	-2.130444044456351	-2.7159593036744782	-7.375392418360125	-2.5122654374590194	-2.4102675853910998	-1.6237183768285448	-1.762130256018578	-3.7549073601334175	-1.5282440146962424	-1.5860389431010442	-0.7076014262453996	-0.21231248921196358	-1.9197891902137283	-0.492185114571561	-0.755045054436773	0.18532979441581526	-1.424338933209615	1.1878734797050703	1.2678266731677588	1.090651628601655	2.2680637779193193	-1.914019222195459	-0.27611496974850963
408	-2.2163691464732977	-1.603477354769663	-2.9748196526760697	-4.2329993141112885	-2.7153568199266096	-1.999692434984221	-2.5411527092671897	-3.3925127897440546	-4.064528931846205	-2.8868288920950027	-2.450478547585109	-1.9769360969221683	-1.9323514651148728	-6.87451265506784	-2.287278646416339	-2.201261037990934	-1.4995149336149065	-1.2634717194128848	-3.780051937096301	-1.384471770605802	-1.4457443916058887	-0.6329395755046423	0.10922373058637724	-2.3039970339778884	-0.5233526812691461	-0.7108375412160194	0.22131992820651783	-1.186839696748696	0.8868134595415593	1.1462039918570897	1.1139314146528034	2.181696409439256	-1.9300601433662024	-0.34897386939633046
412	-2.3899106919030673	-1.7097716288314349	-2.967646829741909	-4.117528905009512	-2.3336858690469744	-1.8727724504871581	-2.472516530470142	-3.2344319738742495	-4.045404423990437	-2.423666709502778	-2.3322431982284733	-1.8621327830030345	-1.335949894393164	-6.993665200695964	-2.028684849385509	-2.1321339553407563	-1.4824242554430296	-1.0744465562396148	-4.213049877973911	-1.349058267048362	-1.4945337734636035	-0.7322213035216497	0.10405228260710907	-2.8931748793989267	-0.77730810445991	-0.9098678804313811	0.01875392156574809	-1.2488081423701338	0.3171712450125893	0.7592013459111122	0.8304995873463968	1.8447745991860809	-2.147006029430405	-0.629627405007481
416	-2.6583201818107254	-1.977060909048013	-3.015379898087581	-4.041439999867146	-2.1545152609788287	-1.8702138615119897	-2.522900574990152	-3.1606037536932163	-4.249511708021014	-2.186332697116759	-2.457803719990931	-1.9099926900324684	-1.2434151141244725	-7.696632842658935	-1.933138008005343	-2.316481346003864	-1.6660599666493159	-1.3556206192122746	-5.051151739718992	-1.5469566544576523	-1.802354927280851	-1.0726430389025545	-0.33287975108025947	-3.661931028657345	-1.288430210675249	-1.4037940466724355	-0.47227892160385976	-1.6969183640552314	-0.4664221096183721	0.11012659939141355	0.20657032676041195	1.2065619199807625	-2.6418096952496275	-1.150209304766594
420	-2.9460101053244907	-2.281081432305398	-3.09404586964495	-4.080646504589936	-2.275925630545344	-2.0051696249880924	-2.6858706406492483	-3.2051548876902327	-4.571781623741785	-2.2969839514913226	-2.7975566316545	-2.115470880889418	-1.6887947278300142	-8.62987802234007	-2.0733509011373625	-2.702033512922894	-1.9974220940704583	-2.0278038927379534	-6.0385093536507135	-1.9594690750241297	-2.2830676974828785	-1.5635760983091247	-1.1352716655678576	-4.485202777982592	-1.94329249368222	-2.0819044060596146	-1.1473891706108112	-2.4410149989487238	-1.2927770581984541	-0.6621205193968794	-0.6336668713783554	0.37608051205097626	-3.3552818213627122	-1.8397980881970584
424	-3.0953288000158565	-2.4077005325563943	-3.0983376424765217	-4.194543827910771	-2.6113362246386993	-2.177476162181234	-2.851450436068602	-3.306199780699889	-4.771154868477674	-2.671582215239767	-3.1817703166738336	-2.357037776718119	-2.413171523677225	-9.315585112893983	-2.3586432874257355	-3.0948402803485107	-2.310159915813525	-2.8090104985842	-6.783887369194352	-2.4185268817874834	-2.729157917761638	-1.9961209246782967	-2.0690789170478063	-5.158061968178317	-2.51647471746243	-2.708773606137078	-1.7831433966439307	-3.2434048570760825	-1.9341803740305434	-1.3247582878998136	-1.4429647886084511	-0.40473139183856405	-4.096558083681844	-2.530804150867414
428	-2.9705667420727937	-2.1916623060205396	-2.9263129160431665	-4.275355328256058	-2.9607255384080653	-2.2497358265343186	-2.889544479704113	-3.368670693475515	-4.633157241567783	-3.0849041860895396	-3.4040310296899494	-2.4799835619301716	-3.0206563396483563	-9.405216193295127	-2.592632048736826	-3.2680430329782326	-2.427551740239429	-3.363932601064992	-6.9624285522152585	-2.6892321041875147	-2.9190101549837233	-2.1587669794892124	-2.828352205764981	-5.468332276843202	-2.772516243610421	-3.037993661839691	-2.1445019191004238	-3.8285231493610077	-2.2048845235469714	-1.6526379543541017	-1.9582015226515364	-0.8732238389856599	-4.625932681802088	-3.0239400787300315
432	-2.5580131943015254	-1.633341904331103	-2.563914292537969	-4.235770214830611	-3.1381723801536587	-2.1417534297274803	-2.74555658600942	-3.3403453742568683	-4.120906342592538	-3.306990853543351	-3.3420886909028575	-2.3977928101082644	-3.208266011721074	-8.855648018413122	-2.593015664229632	-3.093279353915074	-2.2722198905797244	-3.4822585494814575	-6.489586336917371	-2.5991442137899647	-2.739647381541307	-1.963787550736493	-3.1789014259187476	-5.296576009729238	-2.586537593033219	-2.9440858289774203	-2.1100575870645844	-4.020666589122475	-2.0544228501902784	-1.5421265324758284	-2.0304806181187685	-0.8869905449407399	-4.778216826772832	-3.185800544324791
436	-1.989725584728623	-0.9140220261385137	-2.1086995548414507	-4.070189465736943	-3.0768842619459695	-1.8840935182686338	-2.4843590196827967	-3.247138730433965	-3.41448687645005	-3.230096332024234	-3.0262191219219092	-2.1476933901922193	-2.9280068800434065	-7.9353308477325495	-2.3020400942855637	-2.6187956267042165	-1.91573047154264	-3.1822941222907972	-5.569974885229158	-2.1421172564782704	-2.256717437768523	-1.5085403881132988	-3.0754110735494202	-4.691300857143641	-2.019928450252954	-2.498882525810679	-1.7450281337549332	-3.8379573725122373	-1.6053587157726035	-1.0756509276889055	-1.7079074339661464	-0.51193714012594	-4.55762862008489	-3.0255045814421457
440	-1.4677815400258973	-0.29358056113507736	-1.7122604803723924	-3.848161210834864	-2.8525535988313195	-1.599131460920772	-2.252305263554809	-3.1629712501777174	-2.8097023892990056	-2.9163341448586437	-2.6176338129711882	-1.8655956936464522	-2.390153163597401	-7.057050687138714	-1.823026056455346	-2.048188919618249	-1.536123987134233	-2.683327429672393	-4.590809810491839	-1.4945656023438332	-1.6889910655294087	-1.0303711865159946	-2.679356568247482	-3.8699331185862915	-1.3048686948256405	-1.9440742682011203	-1.274724837899488	-3.484326830649942	-1.107121941632276	-0.4942507433333594	-1.219077822468389	0.0014338622531973656	-4.14407586005113	-2.7004699638850935
444	-1.1407450408744733	0.041504371806498845	-1.4860451183947032	-3.6556937602252164	-2.6224915915081177	-1.429499980178396	-2.187847608764546	-3.1468985001267447	-2.544872277510362	-2.5499241287701904	-2.317755693305944	-1.7041107373128295	-1.923099870594774	-6.549390776311058	-1.365680214294909	-1.635704036397588	-1.3162072863726357	-2.276788705799513	-3.9268567462959667	-0.9342040992038614	-1.3020876613167316	-0.7827361206319661	-2.270045036306651	-3.138221732799408	-0.7428737860043678	-1.573492046198213	-0.9723370646723127	-3.2432482160700085	-0.8246769884269239	-0.0880491880339609	-0.8624238946121398	0.3434582641989981	-3.804300060204026	-2.4427375731783836
448	-1.013917801204447	0.0857436580281279	-1.4320675098502584	-3.5303242117441367	-2.5247921879919675	-1.458417173518168	-2.3351385534457725	-3.1921830096712256	-2.6630134515284904	-2.3298819006270133	-2.262354368219989	-1.743155475030108	-1.782536025315203	-6.49080227166772	-1.1351335020016171	-1.5562250574875354	-1.3418797220683172	-2.1743171160161143	-3.762359132804423	-0.7032341343290882	-1.2770304647628685	-0.9001002288981197	-2.0981934017612867	-2.759333841986599	-0.5658445940036613	-1.5858768184676646	-1.019242045690211	-3.3289155876035967	-0.9154049134984561	-0.05717266336549864	-0.8561958648999283	0.3086639336899215	-3.751895895068389	-2.439393514196348
452	-0.9579234099044739	0.005555347525458596	-1.4485441409732098	-3.4406547459518535	-2.601681702720936	-1.6697783427995958	-2.6160550051443634	-3.2266518988206503	-2.996403209750483	-2.3666827618927426	-2.4591765341659317	-1.9476000021399726	-2.0212795683373113	-6.696885568876901	-1.2271869151603179	-1.8208628846926191	-1.5603179892246382	-2.4134843288522165	-4.019578923567359	-0.8883278347475443	-1.6225000578924118	-1.3273795809611277	-2.2586567344860384	-2.8350324559159614	-0.8269681313616606	-1.9852199504321373	-1.4114593231804873	-3.770280590075073	-1.353171702783216	-0.4134524454168568	-1.225641843562351	-0.09296760684621579	-4.030950536087476	-2.7288870742564626
456	-0.8210245946182437	0.010430458906780628	-1.4163439238074982	-3.331362954311895	-2.794382326700356	-1.972353334215538	-2.884336702693946	-3.174218408199858	-3.288298360151824	-2.641934149747604	-2.802869312839207	-2.201682323619143	-2.4896902975166264	-6.8670506303979595	-1.589304800789332	-2.28504108805712	-1.826338286557152	-2.8657367157108773	-4.436011303192238	-1.3840100730285376	-2.179148668509409	-1.8579353047192595	-2.651734345416831	-3.26619218955334	-1.3809449637833466	-2.5845851832938855	-1.9664759586276548	-4.393829334609772	-1.94085967050721	-0.9778698062049748	-1.7918577148973809	-0.6447389705592328	-4.492787349801822	-3.175467244714039
460	-0.5689774141251461	0.18783211660645796	-1.3080135550853396	-3.2011287131551094	-3.003725044296206	-2.2686417045536023	-3.0286080760784753	-3.036645643196854	-3.3724129114836447	-3.0438997668662835	-3.1513266483852176	-2.3958744942256565	-2.960666172182019	-6.794370157253823	-2.066759104279005	-2.7401766707855764	-2.0052525946534105	-3.3370082294136094	-4.7380213617864255	-1.959298367321924	-2.7120344570352173	-2.256872648263126	-3.0554211062536987	-3.8163823985066507	-1.9652899454089083	-3.110898248447617	-2.427273744176899	-4.9188909406449595	-2.409414523717228	-1.4763665162005113	-2.270634407032702	-1.0474952432888613	-4.880716788367072	-3.540978422761549
464	-0.3603764167270084	0.4075418104372729	-1.2450723616636235	-3.1525912205255797	-3.1736335674267986	-2.523802274054037	-3.0595145148279586	-2.934375517112288	-3.292110196384876	-3.450246563783472	-3.4152407559952658	-2.5102002557320557	-3.28221773272577	-6.509505732313857	-2.5020551618347735	-3.035013429608446	-2.0675435014022687	-3.684654226536986	-4.811635958921123	-2.389861339257318	-3.039415590241863	-2.397880786563731	-3.259713164682613	-4.2481260192427746	-2.341929906654334	-3.3535959635941412	-2.6057453089728835	-5.1114940514257725	-2.5556998188343436	-1.6845262008098465	-2.4281961856571135	-1.0902150841844223	-4.977030741523561	-3.618069162770771
468	-0.4940311300202389	0.3674695184489834	-1.4541850053312213	-3.3645470057417857	-3.339097014579844	-2.7885880399870797	-3.1208012025241767	-3.065446369061029	-3.278976908988225	-3.8031818770708625	-3.6062433628586117	-2.6371750765021735	-3.4550127895862572	-6.263488753717461	-2.8254668641279785	-3.1556563297707707	-2.113354677586656	-3.880465736128669	-4.765761363394855	-2.5798301631642895	-3.1259624879115364	-2.333361142943058	-3.1895525374946394	-4.452238548482079	-2.4225835739006545	-3.2746984875970493	-2.484886878415595	-4.912120806689884	-2.3463056028255376	-1.5433874091282238	-2.2090454045789465	-0.7710648755633192	-4.730044829824142	-3.3522348319294872
472	-1.2349107234293915	-0.2277076983663241	-2.1316134875838917	-3.988771428527953	-3.6025683788896186	-3.158695928228062	-3.4074802312651036	-3.5942170529219344	-3.6026885418531824	-4.129826058451365	-3.8160960577938723	-2.924317829378282	-3.608620396086253	-6.369828208099858	-3.083811752162854	-3.21988104960984	-2.3081057013411725	-4.000385274323826	-4.854142176770348	-2.6058542662632576	-3.090347520655264	-2.2572498264543124	-2.9474470540971076	-4.4974474793371755	-2.310766929514385	-3.0213818473827305	-2.2236764374857323	-4.469579685370669	-1.9335672806559316	-1.185762163983167	-1.7656357243782579	-0.2996269754951168	-4.288870323796887	-2.8826606200870937
476	-2.615117304875125	-1.4553809129209754	-3.290595999992825	-5.0268144480629084	-4.052801598806966	-3.6942138578605066	-4.034180630988989	-4.530418861395044	-4.380131710437812	-4.500062931143316	-4.141388405834283	-3.468753329102347	-3.889981736852324	-6.997127515292935	-3.389633885408672	-3.3906927023157887	-2.767566197083612	-4.149005879417345	-5.305901037171514	-2.656561367957134	-3.123579494219433	-2.382122510617799	-2.746981375434534	-4.572389114279802	-2.2339456024988675	-2.835320942395946	-2.0617983289161637	-4.059160222295551	-1.5716164072411565	-0.858541963317009	-1.3735412324559089	0.019450541536575924	-3.9257233043737796	-2.476030581898648
480	-4.334656227611953	-3.0603713911990864	-4.6874184490113535	-6.266315444384152	-4.676856982820977	-4.347740162362855	-4.929927813480863	-5.672455773337117	-5.4638066153861224	-4.950571524518831	-4.599086273025875	-4.225779522717163	-4.341634739404637	-8.040352801050158	-3.823295583608825	-3.759835233732426	-3.459632387963266	-4.376363266386048	-6.15957783097566	-2.902935259165544	-3.364712945072421	-2.8016722131565603	-2.786696903822421	-4.853049266006506	-2.401652568475595	-2.9096965716332144	-2.1781485025726033	-3.932575692738437	-1.4747002087553776	-0.7834500650652831	-1.2787063089511423	-0.04346751410715495	-3.887075414380414	-2.385784619983553
484	-5.835082516243174	-4.515740860028294	-5.88163755839248	-7.328303318594981	-5.320796953119014	-4.946493136315016	-5.82498644311803	-6.658912641879268	-6.482727988088252	-5.422144399304786	-5.083264814894261	-4.9888605945515545	-4.851568209796866	-9.154163337483663	-4.347931850899969	-4.268726338099455	-4.183942784236365	-4.637725341531836	-7.207594376486411	-3.374371520106019	-3.80435179703556	-3.4173812779930355	-3.1331257741025573	-5.376133905188774	-2.8683834003508015	-3.2736577905018986	-2.58220886532198	-4.180738915378487	-1.6942789511819516	-1.0331966850897933	-1.560467239254779	-0.5144051300412787	-4.255969036801098	-2.7118670871931108
488	-6.527372820586618	-5.2430257664867534	-6.414971335427289	-7.819294432925416	-5.732525334190095	-5.248322473626701	-6.351278765855432	-7.117774945408252	-7.018668633860376	-5.753722176330181	-5.3926849229082165	-5.464230523618695	-5.2083239423861345	-9.930836652478318	-4.792253482163418	-4.715181815640476	-4.650426376045667	-4.820006358375087	-8.085387209505793	-3.914443244587806	-4.272122372331603	-3.97430681178896	-3.6805131342470263	-5.998249038810955	-3.4802470119346567	-3.768508424781085	-3.100430003921434	-4.6867031932758545	-2.084040636522971	-1.4898976049953891	-2.0871159977670377	-1.199960944007133	-4.903409468668666	-3.341676465180632
492	-6.067852958618133	-4.886440264762534	-6.025604709670843	-7.5173330117212425	-5.6729817247212875	-5.049897181158927	-6.213055594970281	-6.8420166796555	-6.822786313950878	-5.745787129200558	-5.31952951995571	-5.407086358723908	-5.222969518826209	-10.114410374854193	-4.921627032251821	-4.846654879731146	-4.618956554195189	-4.814062583213092	-8.45047948611088	-4.248596180679575	-4.518805969273485	-4.189221371564346	-4.213011254164194	-6.467354281309439	-3.941380014005271	-4.129988659921902	-3.4670398147786705	-5.195658193821921	-2.3742363392967674	-1.909158344217009	-2.5895004207082337	-1.7931382610825024	-5.557325349128282	-4.0071287053981095
496	-4.536816108693346	-3.4949209601855724	-4.784301745733299	-6.491617186369031	-5.038061606085049	-4.291789520872037	-5.338868604532127	-5.897021755588746	-5.949163898706612	-5.26211880309016	-4.753435599723582	-4.746915328438775	-4.837911593620408	-9.722053503286206	-4.562130916521277	-4.490109909165271	-4.023757447574143	-4.580700385926298	-8.158913591766446	-4.1291155710874365	-4.348534096229259	-3.89949606864593	-4.526041973130948	-6.564308626767779	-3.9682924647277287	-4.130010117593967	-3.4673638256268515	-5.4585180144778445	-2.3185663164728427	-2.0525627084408242	-2.8090653348572547	-2.036643976791562	-5.947886928800168	-4.426010120661336
500	-2.425412648753131	-1.515564557063765	-3.0790860575184134	-5.089866148495759	-3.9282207389835633	-3.1076512258270306	-3.9366094966680723	-4.603185642064597	-4.731052386736882	-4.318835724417033	-3.7501404190748966	-3.6380340961157502	-4.165198315594725	-9.01218412031283	-3.7117259408698815	-3.6518843081779497	-3.0179455204108154	-4.172782410576798	-7.342942696152014	-3.480184307848511	-3.7315275574885884	-3.1540014664174048	-4.5337209587072635	-6.234580024237226	-3.45053767286782	-3.702082386206729	-3.056154004964007	-5.366609082977714	-1.8374494267802588	-1.8170921756643585	-2.639255517018161	-1.854130740252852	-5.94988392281368	-4.451847065176183
504	-0.42675101649305286	0.4028899063428777	-1.4503005706410164	-3.7908561133995895	-2.6227981978000683	-1.7860318377224536	-2.415451520543417	-3.3956794653036866	-3.6153783706938243	-3.1071009557478533	-2.525353663744334	-2.4023096500779397	-3.4332480343921845	-8.324792840920395	-2.571388238136775	-2.530940287875737	-1.9097261380617059	-3.7078738118970636	-6.344569190219295	-2.4587998328119025	-2.8329040932656957	-2.1952538434870577	-4.307318676564031	-5.628642544840558	-2.5258824761514465	-2.980970375164203	-2.38495396965606	-5.0057954661823825	-1.074366447597239	-1.2899324861383752	-2.1815705244298083	-1.3790919745912475	-5.64326141839984	-4.148528565423189
508	0.8675075151475531	1.697519417291629	-0.3577809920814616	-2.9949929638586577	-1.4663355313472972	-0.6580545885637916	-1.2103022306402644	-2.635146134399142	-2.9535722657973413	-1.9290016840869533	-1.3735488618504208	-1.3914048636592817	-2.87623357046648	-7.894817809199581	-1.4695749245733714	-1.435534712028089	-1.0243701908951592	-3.3104584133490493	-5.54512022525773	-1.3919262850904603	-1.9392679880771466	-1.3435947861127542	-4.024073590609234	-5.022250162796111	-1.5234129390401046	-2.234669679721771	-1.7235670046205795	-4.6015477064303045	-0.33097258126619644	-0.699291585110374	-1.6847847657582293	-0.8687674381256344	-5.258268343047391	-3.7466845417795445
512	1.214224216256583	2.1252109950768627	0.006462040340976615	-2.854016296810415	-0.7223387938381961	0.03730756407497593	-0.5947207793479311	-2.45995234822037	-2.8544747757368696	-1.0749136182348955	-0.549440084500706	-0.8362971523151274	-2.628229134599711	-7.753227691148859	-0.7162192445792019	-0.645953295984176	-0.5623578415023937	-3.057237855821866	-5.1887488234170025	-0.6217168553867978	-1.3213888373391678	-0.8452982881185125	-3.8566775224588703	-4.66871117366796	-0.803078172563487	-1.7275428728356392	-1.3198201623019297	-4.387076366792349	0.08589053877364483	-0.2908949844645354	-1.4042715990851702	-0.5609951601169791	-5.041916357662231	-3.5087718875035074
516	0.7852586487971366	1.8262155009892247	-0.23428000450588907	-3.2301328100667446	-0.47035995007016096	0.24324826834776359	-0.5779814705561179	-2.75444101591863	-3.173277846907677	-0.702867565764645	-0.17040699677359059	-0.7606272678244738	-2.678784363659083	-7.761761645747674	-0.4625170815234492	-0.2940663687910926	-0.5260124193262432	-2.95576857774248	-5.28889416312998	-0.34111881169979297	-1.1056112023096132	-0.7644339184534432	-3.8679504296874887	-4.665015208864059	-0.5764920100915862	-1.58815466956665	-1.2737345663336899	-4.470765579380126	0.025672949785741268	-0.19684955428014803	-1.4590555392621007	-0.5519958124529327	-5.120107160992649	-3.5779454617764928
