time	FP1	FPZ	FP2	F7	F3	FZ	F4	F8	FT7	FC3	FCZ	FC4	FT8	T7	C3	CZ	C4	T8	TP7	CP3	CPZ	CP4	TP8	P7	P3	PZ	P4	P8	PO3	POZ	PO4	O1	OZ	O2
-200	-1.4791010580866126	-2.1833457891653163	-3.0126843376390644	-1.3005074229784364	-2.1290740913042923	-3.445319643858777	-3.2962207710967877	-2.0612895436696457	-0.9589686369526162	-2.1159651226026477	-3.2473056234389146	-3.3733165178961584	-2.5446693833000587	-1.1204900713287493	-2.1583154147015344	-3.0659730357009347	-3.2246332087164937	-2.007552618680196	-1.0253152821403317	-2.0952541775255433	-2.6795496872960665	-2.877496712095371	-1.7390085414849747	-0.9728633140797059	-2.088279957267273	-1.9044716310101528	-2.2545123043359796	-1.403235431943011	-1.4832148514493342	-1.4549220763666528	-1.477871414268001	-1.118790146864047	-0.5605755434188198	-0.7719492296756189
-196	-1.5674544533255779	-2.1159548706037725	-3.4068679723555166	-1.4420649968931936	-2.3081126154799487	-3.5366437345858475	-3.2501330293613417	-2.203906768956544	-1.3415285315021872	-2.2899546565414184	-3.370432606770627	-3.4303135785280117	-2.584827416569641	-1.2895774808749891	-2.3137118757960122	-3.2184588827890894	-3.3980829629935414	-1.7633087590521017	-1.1746034592536496	-2.1941332761681096	-2.8458921837480404	-3.1056952398090196	-1.8721393299519524	-1.0723695727930154	-2.1385867541678483	-2.1162683910344993	-2.6270654135180544	-1.6702010589392755	-1.4331816398675872	-1.674601073805486	-1.877876515415678	-1.0760506364357603	-0.6056115611998596	-0.8907087422770861
-192	-1.4971697292674953	-1.8617167425835526	-3.2174510874577718	-1.396541234305188	-2.134421104764303	-3.1749989906258658	-2.9839732571604056	-2.059760803744306	-1.4137250149319691	-2.1265420860006263	-3.014718286532245	-3.1433505932600916	-2.1707639639407343	-1.3155596223041417	-2.110698217785013	-2.8976938651358086	-3.2550625718903996	-1.5745110472027202	-1.1591830224334516	-1.919398183744989	-2.610178940858662	-3.0442337912947615	-2.052698130193412	-0.9065929628371104	-1.8526563597634103	-2.024271006241746	-2.7420306136519894	-1.8199170781917111	-1.085339424254105	-1.6014634330370767	-2.042770380584688	-0.7548704724326668	-0.4101128269808458	-0.782330928257806
-188	-1.1864445179548329	-1.4491696321139034	-2.446232312702031	-1.121218678504644	-1.5778789480426059	-2.394028896009491	-2.4782869753255685	-1.6195833642123367	-1.0937213870091267	-1.5921595056389972	-2.2221326771899474	-2.531917565629007	-1.4167392218106505	-1.1361975641174609	-1.5623751839292221	-2.157288307465358	-2.7729008127775407	-1.4756898842747295	-0.9655873155056994	-1.30850290921771	-2.0127317854609434	-2.6750733784847363	-2.1729671900246497	-0.5194997178313031	-1.2705608574259923	-1.638146396315738	-2.5409285958034	-1.7885028078700236	-0.5219073282416369	-1.2470080821024618	-1.9074965667248667	-0.2305832499404468	-0.03873800476545811	-0.49685519808256684
-184	-0.6709561331021412	-0.9589491462338239	-1.317468163025031	-0.6884645802281941	-0.7428945284206973	-1.3453195061096204	-1.7554291442419787	-1.025702950748972	-0.49339547628763664	-0.7840033153766915	-1.1480159730536867	-1.693289394871889	-0.580827592336957	-0.7569095473252847	-0.7887408713454127	-1.1563039988887795	-2.0221552797761406	-1.43470191593339	-0.6406254752197343	-0.502402065916005	-1.1809731692061345	-2.0558254666875913	-2.1172404235790423	-0.05071453737329325	-0.521288214797918	-1.0340865824340433	-2.0422246404585023	-1.5557274779142067	0.10453551236224431	-0.6990430933469328	-1.491326805164205	0.34584510239068006	0.3852822174835242	-0.1436216678569565
-180	-0.08276879766547955	-0.49294817323204904	-0.17308105484655878	-0.2399491810700975	0.16789032476475446	-0.24709936914046207	-0.891712067260057	-0.4834408449841869	0.1459295447956716	0.10320118788651007	-0.007815144005057992	-0.7717173676080279	0.06465487165816565	-0.2526541941939576	0.03299661717428661	-0.0989993957165804	-1.1433901757936373	-1.3612474168741548	-0.26917481354464207	0.3146147720023049	-0.2773041718157434	-1.2919878927036204	-1.819252724822722	0.3375689974845122	0.23105286003428524	-0.31827175536862123	-1.3289871182266613	-1.1486347884741825	0.6395379288739084	-0.07691341619146293	-0.8793365933151669	0.822734532663243	0.7434962373081857	0.17078754262719828
-176	0.4173147369815836	-0.13380990888667266	0.6749900562410653	0.09578763669387037	0.9344159937155029	0.6893402916670233	-0.012131799913115285	-0.1397608664083453	0.5832260236320186	0.8553780891756746	0.9925702189181039	0.08508940019582208	0.36534944084432025	0.2598104172345905	0.7396272998255832	0.8345719554811042	-0.29479408189731804	-1.1487951249682236	0.06293028577174985	0.9880198215335049	0.5586004243098843	-0.49409201616472326	-1.2984813418983465	0.5441364036173375	0.8520675280039182	0.4128187884398494	-0.5145550357225104	-0.627062199916759	0.9938548182190597	0.5200661407691736	-0.17881508126411913	1.118903753316702	0.9785806511967713	0.3998959948456911
-172	0.710500894183178	0.08422566183998202	1.0588318082779395	0.2684611969368704	1.4040924275234279	1.3225557770716343	0.734105406338243	-0.008382896871561641	0.696925161509476	1.3226197924599614	1.7115058855714411	0.7618246059256989	0.3471521726426595	0.6604067070499795	1.2363444535511987	1.5339962205304132	0.3995368470595037	-0.7334151249488419	0.2965840689800485	1.4399925433995857	1.2438012330123527	0.25366124446721766	-0.6589878780893283	0.5708035812271639	1.2774202791387155	1.0934683056880494	0.29237285182568756	-0.06315029396564094	1.1716886729222027	1.0420867178355977	0.5216681348027571	1.2498052088654192	1.1115077705930656	0.5756769761809852
-168	0.7588859777364019	0.17734381511735917	0.9886165832354894	0.31555011788808124	1.5379743537219686	1.607574697250468	1.2120619981681702	0.014240239710915462	0.5284941183098456	1.4656307660292522	2.0915868229510624	1.1922968595919736	0.1742910738359278	0.8610859491542445	1.5081880054542762	1.9640104721073903	0.87664425151746	-0.1450243588600755	0.406384169029368	1.6702529149800993	1.7496547654800072	0.8980204440332229	-0.05171309025940396	0.5005248772381883	1.5114099941241201	1.6832754569470374	1.0065300439217686	0.4737721371610028	1.2462587325102374	1.4828320704215532	1.1682914465971617	1.296129461830737	1.211385723870256	0.7768888453896184
-164	0.5996702298282939	0.18728418600958238	0.6081060155774118	0.3152217559008426	1.400944467822208	1.5836690624307581	1.3432937826573983	0.059999227372320225	0.23438316524457362	1.3468953337042135	2.1480259841092266	1.359459039116829	0.04079547514152342	0.8263728597757917	1.5920231302120953	2.1405415480929664	1.1319818468124307	0.483293681116608	0.39026158949548867	1.7213833288601017	2.075770134453398	1.4019350970158742	0.38442161582210754	0.4303904462915272	1.5940072496223692	2.1482517665030656	1.5684409101941201	0.9251111722477539	1.3017955985580696	1.849505181411381	1.7317851738121721	1.3388409580760503	1.3400112356686158	1.0688492032721792
-160	0.3087524763895118	0.1480619009571275	0.10909811379783026	0.32009491243608545	1.108667132439532	1.3385509218753056	1.1375524968990742	0.19247677873653124	-0.015832534019908858	1.078851339477395	1.941769595012054	1.288161036100123	0.05994342252379016	0.5778109416678461	1.5338097772020265	2.100120777549878	1.197357293920628	0.9612159704735536	0.25659239227361424	1.6374765593194434	2.223639482606065	1.7298325256542602	0.5744559154311996	0.4052116264603069	1.5627808531405394	2.4478006301114013	1.9388974856061583	1.2461951939590672	1.3786120379927278	2.132799381593349	2.185179704871135	1.4026236498705809	1.5059436521655702	1.451482411534639
-156	-0.04144002114204568	0.06590959413100334	-0.34775698097166846	0.3172407738305443	0.7654333691345137	0.9708006357478165	0.6974416357551508	0.3625212004568686	-0.13235750760993648	0.7624356131377488	1.5555103977984828	1.0376906368759327	0.21111820584877555	0.18787072551501374	1.3606431449869476	1.883315796865568	1.1172044248984463	1.1251840563022497	0.022965839074683417	1.443302627734185	2.188965315060552	1.8489743424463516	0.528478978730111	0.3939746906347193	1.4345815145512477	2.5400328572039768	2.0959384388458373	1.4089496100139112	1.4530712329417603	2.297873252789126	2.4887959894286746	1.4424285852254055	1.6562671619560227	1.846315140831056
-152	-0.4048983444481584	-0.07546067963860073	-0.6712197048406725	0.24421329734656308	0.42991486083206504	0.5670163617123422	0.18825291049634862	0.4447156775690649	-0.13367077674495698	0.45293405537691345	1.081655857216286	0.6942181569691914	0.36649635341619263	-0.23195207060425768	1.0855122777235173	1.5384138783714325	0.9367879605483509	0.9193281508123119	-0.2702674262852612	1.1551996440331693	1.9767355868976502	1.7493107274712323	0.3259277633544339	0.32553684629266144	1.2171053855684617	2.4050218998269512	2.039928192710394	1.4069582188369931	1.4633921347864303	2.303125375654894	2.596368544699072	1.3807854617543303	1.7107729868611334	2.1313900893758375
-148	-0.7552605848317367	-0.2905411414917196	-0.8370853045310025	0.04527976352465282	0.1181900423761403	0.1939924354423756	-0.21923963670214178	0.32612225330984496	-0.1065973115256255	0.16315986174874364	0.6151573046411826	0.3556902995665984	0.37476202750955107	-0.5536521063177695	0.7321753483406439	1.1307620973648267	0.700665949006135	0.4252120841734825	-0.5499355779114729	0.8057041147870817	1.6212283331946948	1.4639903269998857	0.07123237085239356	0.15375725886148744	0.9330490207956754	2.066556686905859	1.7984244778049958	1.2569309441303265	1.3587535585430488	2.129953617440377	2.4756283697567194	1.166959282789795	1.6124974448500389	2.200476879286249
-144	-1.0648397180375513	-0.5636221156195325	-0.8666865803771343	-0.2719340615559404	-0.1674767132345411	-0.10127903495490445	-0.4106370796326441	-0.013935445772690585	-0.13258667256735807	-0.10755939754509665	0.24146419702601213	0.10760115804923696	0.15053316912792064	-0.6653015596758659	0.35539141207612684	0.7400229554566033	0.4524619269868396	-0.17419891015417655	-0.7201089244781339	0.45598938946038603	1.1902956932533373	1.0697236034088267	-0.15602482815927493	-0.09449265873416915	0.6324449165589002	1.593044634611677	1.4210255110149166	0.9919972394693247	1.1371731729406813	1.8001882984487358	2.126961941117364	0.8179593661637635	1.361894604105492	2.010422939946753
-140	-1.2917579379846573	-0.8386251309202423	-0.8058501461664127	-0.6196325405689095	-0.4110214401835078	-0.29455250427265334	-0.3700538268283077	-0.4832798230367327	-0.23022188188124715	-0.3453735998493747	0.014515606649824509	-0.007179023214185719	-0.2807177596157339	-0.5122756945074094	0.034863684238387954	0.4367346156537903	0.22645372095154423	-0.6818971020648438	-0.6992162448395681	0.17951276853061476	0.7638095001963527	0.6575832350340979	-0.3328278652371135	-0.32511049426965954	0.37798476123745267	1.0716748210552676	0.9605405902453088	0.6463429911507336	0.8470014908386692	1.3674477304266157	1.5861957033164078	0.4139624227562675	1.013074157064426	1.5906875093353405
-136	-1.3881021703006158	-1.0411235067784592	-0.7141773682682866	-0.8724890925313686	-0.5828250035829822	-0.394259571033704	-0.1841721232055881	-0.9278339124142194	-0.35183608443121833	-0.5215073214715591	-0.06875371915624753	-0.011400212504989222	-0.7983762601722515	-0.13387516107137576	-0.16197182197208004	0.24680532452736625	0.031357701788648246	-0.9817516182908161	-0.4721148300172074	0.020752234332023178	0.3947687735127346	0.28715377973536405	-0.49307620400870333	-0.4379582394032949	0.2074889833456933	0.5669508562078994	0.44926223045408553	0.23929175674104597	0.5508086667459384	0.886094627527383	0.9090751386578698	0.0500462948012423	0.6351282580552687	1.0143637631555305
-132	-1.3258086409473937	-1.114905235336685	-0.6556046588557742	-0.9397582984085884	-0.6636941416196215	-0.44554161912963214	-0.000584213527307132	-1.2150686948616287	-0.4272904087245859	-0.6157522185991837	-0.07637879233149986	0.011538038001136015	-1.2451326815639838	0.33499210988344374	-0.22307091895050246	0.1303934302614178	-0.15778320987919306	-1.0838165255839387	-0.12033860355035361	-0.040705636040912534	0.08059035966314801	-0.044749867058066564	-0.6983697992812499	-0.40115681189344166	0.10188832853342138	0.0915547308994465	-0.1111663651639921	-0.22860147001247452	0.27970293093635035	0.3814232339765741	0.1505483236088165	-0.22168953660783686	0.26744192771146225	0.3547872593982089
-128	-1.123714444184378	-1.0514870855486804	-0.6781579238935898	-0.8201903680120736	-0.6707860214463817	-0.5168030844991832	0.042711961906599386	-1.2978846994056512	-0.4194283772846273	-0.6424069388382835	-0.11683520645207451	-0.043788254150462134	-1.495604868927513	0.7067232710161409	-0.20822575635790172	-0.003376480183421237	-0.38624644181962126	-1.098516938297068	0.19787119279018003	-0.09063440538411568	-0.23201020003392814	-0.3951288153685913	-0.9953348015450961	-0.2849226288754424	-0.013764550874647835	-0.38816043636549385	-0.7341269236149525	-0.7608959655624429	0.012237967892385678	-0.1552291359558548	-0.6434641464199954	-0.42019852889782566	-0.09918118988268636	-0.340341835354785
-124	-0.8523277618823505	-0.8910469986353323	-0.7866973261044479	-0.6017696842259168	-0.6581100804879374	-0.6645226461799076	-0.11317837209736975	-1.2203150956815128	-0.34685572894261757	-0.6513278467900036	-0.2829366617211852	-0.2438658022683999	-1.4971221647610844	0.8214032629255458	-0.21875071470344484	-0.24305914281036878	-0.6829562765998284	-1.1532016963453426	0.31976857700676414	-0.2335110747879055	-0.602904556659575	-0.8216252902267736	-1.3779523337860193	-0.2242168629468997	-0.22662000300888654	-0.9095082260057145	-1.408518072386827	-1.3351780142452716	-0.30333620233244685	-0.737924991175096	-1.4230093920066118	-0.612336514834309	-0.4995069789196065	-1.0392429802405436
-120	-0.6077551230345051	-0.6948223692517541	-0.9256536937231298	-0.40663036601399116	-0.6853522044998156	-0.8919934011826866	-0.413739948420205	-1.070425746122508	-0.2633843713309443	-0.6976616364984614	-0.5906528219569261	-0.5650816545524625	-1.2758111921524216	0.626290260164222	-0.33372938548706516	-0.6096742137774931	-1.019867179203037	-1.3057180610115453	0.16696724253460973	-0.522209225766662	-1.0394344303590788	-1.3157162633102157	-1.7747709706320491	-0.3301438382873318	-0.5723586664054277	-1.4588797055604572	-2.060590023560328	-1.8782260370517583	-0.6968207937767379	-1.3421542610614594	-2.112040514381966	-0.85393833898476	-0.9446904039373653	-1.6927114682376059
-116	-0.46746858836405153	-0.5054427968615444	-0.9868555640100466	-0.31399202267526394	-0.7719103674473233	-1.1274316282417656	-0.7099894863322963	-0.9157767868762708	-0.21100036746635212	-0.7968909720328435	-0.9496620869501731	-0.884352383764997	-0.9132871008702886	0.2143117183996498	-0.5503903613499609	-1.0204654906257817	-1.2961299386678942	-1.5049589834363668	-0.19736084292174047	-0.9069514847745291	-1.4621146880428293	-1.7676831439211234	-2.068714136622702	-0.6039682611475511	-0.9919359658946503	-1.9438244055308527	-2.548512929204051	-2.268614047998496	-1.1306327552859907	-1.879249925637125	-2.6012988024838655	-1.1360673875736	-1.3839298451768725	-2.2099120561117926
-112	-0.4470631170906497	-0.32197904505500097	-0.8515213706452202	-0.3107738189003538	-0.8680556990641684	-1.2424936263185715	-0.8264428356285813	-0.7659473399851142	-0.18099023356041571	-0.8969409443144213	-1.1915918558553504	-1.0269852850734322	-0.5103357421388027	-0.2026095385204425	-0.7697404007551092	-1.312267538572219	-1.3690830434565446	-1.6193361241464326	-0.582336722334215	-1.24166118785174	-1.725208278114971	-1.9968916127332967	-2.141817325906518	-0.9134280658548266	-1.3426697220281756	-2.2187831345806064	-2.7071981361703528	-2.3763887822234615	-1.4974075517995484	-2.215408081183366	-2.77478241219906	-1.3752165998070256	-1.7086100535169848	-2.4721763071586236
-108	-0.4854237126969235	-0.11143245519875881	-0.4565809655582882	-0.30675810498036254	-0.87280511635717	-1.113200661709702	-0.649681983737976	-0.5870382174929382	-0.11845880716933457	-0.8967041350613265	-1.1518244714266395	-0.8557116963716401	-0.15841256042062626	-0.3934945454199434	-0.8458154180152782	-1.3214430775657766	-1.126079437273805	-1.5197664460912423	-0.7620386462045469	-1.354724999822141	-1.6894181924127907	-1.841397519230923	-1.9269145678507678	-1.058046099852494	-1.4674169980193714	-2.157325977600761	-2.4284779964169	-2.1260364001956287	-1.669678683833783	-2.2326228562253516	-2.564012997829468	-1.458820935380857	-1.8040765478361969	-2.38698005073615
-104	-0.47420611857851674	0.1536096330579127	0.15459860822269025	-0.20165038057913856	-0.6942419988270414	-0.6950243693923879	-0.19308614682085395	-0.34953334839310213	0.03352666265248443	-0.706375716333333	-0.7656151633006196	-0.35522073417624345	0.07675845901659933	-0.22936066927222307	-0.6746708137644544	-0.9811219548249986	-0.5606110081823716	-1.163361069603079	-0.5979667290849141	-1.1485414476006999	-1.3096064296082954	-1.26049458662316	-1.4419380390001424	-0.8889647103753614	-1.2862933841654463	-1.7335209802729385	-1.7354035333687714	-1.5498081406565076	-1.5761680563232925	-1.9010392379447831	-2.002268070887752	-1.3207355704340789	-1.6218363005698688	-1.9540947626368805
-100	-0.31751447835866187	0.4575754392515324	0.8293787816088702	0.03924507265315304	-0.3190098694853337	-0.07015900296140772	0.3965442170621766	-0.07135045510397607	0.2805146567891746	-0.3163552574276744	-0.12547384170801215	0.3366465560042972	0.1641691918996606	0.24569635031179762	-0.2714265578092817	-0.38022109770145673	0.19375447879987184	-0.6286788566929203	-0.12185675620069164	-0.6704119426967158	-0.6853799206595662	-0.38893830678017116	-0.7895011285876034	-0.4112146188367371	-0.8565532543490991	-1.0626150342815714	-0.8041670302114947	-0.7973571399584549	-1.2570146290513797	-1.3178065981972111	-1.2419527737732452	-0.9971994732475417	-1.225497719531648	-1.2986955609911284
-96	0.0042643835660438265	0.7311358433383857	1.3585957254440821	0.3491498819119078	0.15283182224788003	0.5647094235467799	0.8960565902021216	0.1773578669123295	0.5518360124006934	0.16882853167347275	0.5382900224446593	0.9749543642224369	0.11263700546198349	0.8250125029715175	0.21374015456118042	0.2558759444452229	0.901275751699412	-0.07971437255283755	0.468411772260596	-0.10900806608096318	-0.03681953987123866	0.49882215135518865	-0.12008478462179904	0.1959725017368149	-0.3605414321856524	-0.3681231429819401	0.09116639918913468	-0.08613055922696873	-0.8591235854392588	-0.6808528286910155	-0.5112932311500572	-0.6244037135571991	-0.7760004381614842	-0.6398336871205371
-92	0.4046335806167346	0.878220257925987	1.5612602194468688	0.5890538081555738	0.5378286824952625	0.9736236905311858	1.101456996997836	0.31275594155503267	0.7253915649219498	0.5618261084676949	0.9530717110412961	1.3131936755404008	-0.02986007735044807	1.2313369481469714	0.5586800561151032	0.6619675738787719	1.3228466477374037	0.3204674116626688	0.9034712291795257	0.2901990108315727	0.3911104788442365	1.1054128380523016	0.42672845613506233	0.6617836339454595	-0.020106701129574318	0.11583971202929111	0.6928969008117912	0.3901872923059637	-0.5661174044621095	-0.202818855131204	-0.020764816499974467	-0.3720803251409098	-0.4562045622274819	-0.19887582907533277
-88	0.7186059337592723	0.8270606973747631	1.3614127601583443	0.624877272458744	0.6555222256322579	0.9874802802903603	0.9178743935299105	0.290689974289348	0.6921297890354687	0.6799399835585851	0.9315230226839886	1.2182635038135237	-0.18726752651140974	1.248435970969096	0.5817751273725591	0.6609301550390755	1.3292189802942522	0.4931704985564999	0.9800237988524295	0.3486375501890344	0.44812601691592335	1.250999089897256	0.7782434801480086	0.7680390457789359	0.018985910293208792	0.25756657058536364	0.8776125885740361	0.5510939345751132	-0.4990384864128547	-0.00864327883028296	0.1357188072354298	-0.3486896446484366	-0.3742778291789407	-0.09160308516739846
-84	0.7794752697338269	0.5723260030601732	0.818116603216284	0.40571194784728837	0.42533698570629397	0.5866368994206786	0.39973676103757566	0.13757875526978874	0.41987106098025645	0.4424665857111111	0.4652549910719719	0.7342982273636045	-0.2787905030364323	0.8223243334989344	0.24192143915609093	0.2549020343543743	0.9670879816434206	0.4768280374885993	0.6656256301286915	0.049541883045523476	0.15691363771876035	0.9613478755521085	0.9532812213671525	0.47231721758803125	-0.23215146304168915	0.09361807978358794	0.7140846830458949	0.46769547344381623	-0.645698247709826	-0.07364838551761939	0.029940279125081164	-0.534736631950701	-0.5021809326844465	-0.2648815803992772
-80	0.5103473650445046	0.18176874472502275	0.09405903494452297	-0.002907362526392864	-0.07973774502411109	-0.08399668314707488	-0.2763667993720499	-0.06010734647237951	-0.021125264412472703	-0.07582113127638926	-0.2661160521941036	0.060392919775357996	-0.24652546581969118	0.08348265269182971	-0.33060651934123264	-0.3711149087119202	0.4369775045806368	0.396322875214362	0.11382963479628318	-0.4489660251726221	-0.2954105727366734	0.452145485928526	1.04355621074418	-0.062038861058481526	-0.6058996304473317	-0.19126999329913313	0.4257597316482961	0.32563087261955725	-0.8604477622242457	-0.23851999580244274	-0.13357484306943318	-0.7850223163811989	-0.6879030448711829	-0.5193365203143201
-76	-0.024891260948517683	-0.23646530449293307	-0.613977847933345	-0.45080283170370544	-0.6574463827700391	-0.777451751653456	-0.8902749992781506	-0.20331720956491284	-0.4876804339493893	-0.6697464568394788	-0.9777207945934124	-0.5459566102548928	-0.07917331139125498	-0.7178494316096931	-0.893158731589748	-0.937633333223066	-0.00727386863928381	0.38816013834227076	-0.4185763884943589	-0.892407593858185	-0.6512597186811973	0.0165394320666442	1.161540624546945	-0.5492516742190467	-0.862507758347127	-0.362158595601293	0.27455207636180007	0.3283870509916574	-0.9379430985611815	-0.2958506338279391	-0.1212720793404048	-0.9018825865863381	-0.7385650258490782	-0.6113976820768221
-72	-0.6378763301956999	-0.5864099845385916	-1.1470122308382034	-0.7791103104947886	-1.0702482434908152	-1.2544339863576999	-1.2686018911757502	-0.23391427040647067	-0.8332865217151235	-1.0986067028918731	-1.4118686878797713	-0.8880332089891634	0.17989823176740402	-1.3249796595499506	-1.209616777227078	-1.2057466476515832	-0.1836032266749657	0.5267134295516767	-0.7029439789190542	-1.0586805316898815	-0.7131198626633516	-0.12306409298105253	1.3778336013339267	-0.7315434795029754	-0.8141483643957365	-0.25818139249466954	0.4263037730421099	0.5905337914816102	-0.7228366118301033	-0.1027122807889743	0.20720203168530785	-0.740343986072553	-0.5291638957014957	-0.3818460395232208
-68	-1.0969623299559612	-0.8222364166481126	-1.4249381983066738	-0.8949046112354561	-1.1584107846576914	-1.3843258584357603	-1.3443857397469265	-0.15925569792116784	-0.9745482181739628	-1.1999696462852483	-1.4516762458389592	-0.910396573629204	0.44975474363262113	-1.5773395260087504	-1.1648956507835917	-1.0883736582933805	-0.06513100101000995	0.7916297892610925	-0.6460209472558253	-0.8675742127448884	-0.44124591239151534	0.07969225177910112	1.6805337625035812	-0.5118306862306399	-0.422032951243124	0.12352941899105857	0.8678166248345779	1.0762578221804764	-0.1962495590261926	0.3409191361402995	0.8217436650509986	-0.28806701229798454	-0.07636409978659982	0.1570301051943574
-64	-1.2337502209985445	-0.9492773985737639	-1.4454995357257696	-0.803406951783238	-0.9115062332981858	-1.1869611710144417	-1.1621235579713767	-0.03583859270703403	-0.9190637446087558	-0.9613918637798416	-1.158426281865294	-0.7016825062202128	0.6463002546205375	-1.4580228291893296	-0.8133699277369352	-0.680309770773838	0.22278296891231955	1.088214990729389	-0.3186486355365845	-0.4132033576069693	0.033496607010432326	0.4873439061258371	1.9773501107837328	0.004192983721041198	0.18516895128229496	0.6291890128462649	1.4185559713788176	1.615700002405735	0.50836813321509	0.8901544190820744	1.530998345324359	0.3243325642503376	0.46479949237774837	0.8240651467498493
-60	-1.02025603990457	-0.9910798643839028	-1.2523090807768222	-0.5846598133584706	-0.4620148825901621	-0.7987351993421826	-0.8334487059531479	0.07578729818998405	-0.7434447388952298	-0.5140082227127215	-0.7184429746608678	-0.4248413730862379	0.7174544912344084	-1.0743781301075854	-0.33882045660305665	-0.19591824660904508	0.48595216747616793	1.3033531871314077	0.0999860090473147	0.09369421726651567	0.4848086523690392	0.8667567946485025	2.138248438204957	0.5743076190753728	0.7774270753305813	1.030682561179515	1.8269284917482278	1.9886488864281189	1.1656732529773681	1.3275411095480611	2.0723278470170206	0.8854682423170199	0.8784969426863358	1.359172579194762
-56	-0.5751389846586009	-0.9480176544096166	-0.9004223920023173	-0.3353672317143906	-0.006504799688575691	-0.38694482944069125	-0.47430688023025513	0.15226285121145186	-0.538806198667111	-0.05360641689475286	-0.33347394978252515	-0.22004382256742097	0.6649584157367603	-0.5916489347778975	0.04881886753035253	0.1483221795390433	0.5736950621425626	1.3586550916701285	0.42634978782776034	0.43913847097151265	0.7109130006961145	1.0186462376625405	2.0576970525288134	0.9535914039377805	1.136442896834737	1.1426596612691144	1.8971711349272053	2.030451292633613	1.5616714914947807	1.4695661030859668	2.234749073108411	1.202876207175737	0.9969693993192895	1.5515969952509903
-52	-0.09333117282668596	-0.780981657917432	-0.4422743607321958	-0.11440305382931648	0.2982701055625532	-0.06278819574954465	-0.15807467659140884	0.2179022872906928	-0.3596869101979875	0.2630497210536978	-0.11755156487349891	-0.1361772712607234	0.5405452833833317	-0.1603680696014801	0.22028008047755293	0.240562915194639	0.45525038127400413	1.2342650859188145	0.5631788358774571	0.5108749853587242	0.6327289922951825	0.8748469926680852	1.7053759054996376	1.0176641915377005	1.1544451684415074	0.9105274654288003	1.5787687261775663	1.7051315264566755	1.5859489400876607	1.2505456177609497	1.9511896322578628	1.1877129047924508	0.781126735622449	1.3377224173150195
-48	0.2606134408092995	-0.43660974392330115	0.0655596627129911	0.07487973551918353	0.4065514196621855	0.16057001013746927	0.09598907059038023	0.31858104386957986	-0.20823058433411634	0.38884237310464737	-0.05479846880905775	-0.12506382135763747	0.416623352906257	0.12761495975222795	0.17969483091762153	0.11501815886068434	0.2196556473193013	0.9600064134201804	0.5268461690952563	0.3404487660872421	0.3204441956535874	0.5143347369559768	1.1424674958948438	0.8073629120469927	0.8698633887263525	0.42631488930833245	0.9763362383034205	1.1118700476230958	1.2685188023011431	0.7438485007579189	1.3170661893016806	0.8835420586213215	0.33182167923120054	0.8203772881776173
-44	0.43748241552525435	0.1019079608132447	0.5548781738577038	0.2640729837902958	0.39004394313564084	0.348814635588215	0.3034557394472421	0.48153516528623946	-0.05459051565454204	0.3924776007756756	-0.03393843761458529	-0.09325353777706202	0.3494860223052699	0.24864447054075112	0.04274486367043233	-0.08663214721264845	0.0062112682342172045	0.5890027269751303	0.410340337909379	0.06873523426583324	-0.05829331264083318	0.09912934874302384	0.49750962727822595	0.48210483667724197	0.43147319446346083	-0.12793187764769856	0.2839153401836038	0.4282270957148663	0.7511702160943527	0.11724583029947605	0.533121703709234	0.43255835662350184	-0.16893660979533887	0.20580179937377963
-40	0.5167374597854513	0.7744433860299479	0.9555745696737403	0.48211049911848136	0.38140317701365783	0.5847620353240023	0.4852618562844446	0.6905249339789432	0.1275495138524298	0.4023069431161238	0.06779309345056969	0.027232959797767128	0.356220870310727	0.2365924710022403	-0.04080037017296324	-0.20523844607510736	-0.08574361332464443	0.18005076005299914	0.31633171359304757	-0.1386852409914443	-0.3329923442539559	-0.22275908235098613	-0.08225768783782102	0.21819171254383019	0.0183037947401214	-0.5718476757870584	-0.3118071846242158	-0.17272487239144152	0.2161025101450827	-0.44704925901077447	-0.1895181978924461	0.0038403293486583114	-0.549248932405394	-0.3006213299790717
-36	0.643381415173256	1.445843335315966	1.222437855495184	0.7277255635961718	0.49080446238579206	0.9049851275483536	0.6498167498394729	0.8932141639092492	0.33622524057376607	0.5241031633496183	0.30438271088044855	0.2354571962372309	0.4115093638044073	0.1645604218858173	0.027309631859851344	-0.1510640825987558	-0.04996317239902258	-0.2031175638077417	0.30292981786539425	-0.17607065990817122	-0.41227590933660585	-0.3863723864337137	-0.47853946564971417	0.11513154179592205	-0.23923398493924328	-0.8016613105561085	-0.7031521183380843	-0.5849407300485878	-0.1892886157025121	-0.82367414028111	-0.7094392758577638	-0.27738535334172254	-0.7205395084309042	-0.5812856540308995
-32	0.928700325528487	1.9566916177938984	1.3626582588124263	0.9687594746926367	0.7435749750437352	1.272609826689618	0.7967976311593609	1.035885569818112	0.5426894412644234	0.7804785947167978	0.6305724962526535	0.47013798237357785	0.46961051107096974	0.12278722195618927	0.24719792542034935	0.058972142487885626	0.041567228629546094	-0.4832462954241312	0.37079447414241673	-0.03800969933807671	-0.31144234459446674	-0.41488101973690417	-0.6281630977029811	0.1618816699470849	-0.2995517842359225	-0.8136542418917959	-0.875503955061141	-0.7842771391140984	-0.39773291248993103	-0.9754450892616336	-0.9849343871044968	-0.36766496207870847	-0.6987350565435113	-0.6355578287290804
-28	1.3742911780945795	2.1952674333460322	1.4417117797691463	1.1634502381514378	1.0695382329640433	1.5985910852126026	0.9337844229010575	1.1023583384338538	0.713719664202212	1.101691720088369	0.934397218252446	0.6599958522345801	0.5014846908305831	0.18861864459576705	0.5326893912217695	0.3276364795042183	0.10743954750591712	-0.5664373025898113	0.4832259702403141	0.19751667926511227	-0.11882140457432959	-0.3675650348919948	-0.521456001872537	0.2697108083114315	-0.2019191975263969	-0.674536762918693	-0.86858141202976	-0.7983466366638728	-0.42585939061410893	-0.9395599937559214	-1.0502763960070594	-0.3015196017758913	-0.5704364762209192	-0.5461782799282529
-24	1.8630504561116794	2.150665277773217	1.555069561846837	1.2844134536739769	1.3452031578433126	1.794494862794165	1.086151120304607	1.1300687761385497	0.8352423289192005	1.368108745935506	1.108062502924457	0.7781774978064089	0.5207141028608909	0.3883454789847319	0.766760645361021	0.5440185056302694	0.12966732648059723	-0.36791783478352963	0.5940086826585974	0.4238381077079115	0.0698368100548878	-0.27468463709144586	-0.18614678037852767	0.3389751604581806	-0.027650864725038627	-0.4672829795006896	-0.7219677549254061	-0.6623671038116926	-0.3472647956186783	-0.7885683755038683	-0.9661575531408259	-0.1598516698616111	-0.43286904583360913	-0.4145703901314415
-20	2.2226989213138837	1.9157292794497476	1.7744747355482633	1.3294471468738762	1.460368868001766	1.82405828969096	1.2896782127244053	1.1922266453206056	0.9186912751844948	1.4754842482507735	1.1142315836431345	0.8654314257706232	0.5878260120809454	0.669405101039712	0.8663146473946749	0.6504676921634215	0.18214659346846115	0.1484608646459243	0.6673805100757378	0.5647059664773917	0.20916779286503717	-0.10399186584920114	0.3298231354969275	0.31797930517976913	0.14525510334057964	-0.24506801304932305	-0.44203975685095215	-0.3911846866267945	-0.25056567724862333	-0.589496015014046	-0.7767473439632789	-0.02840246811788779	-0.3418835690926528	-0.30431157273708875
-16	2.324382060858184	1.6386908251397418	2.096884722183902	1.3142291274268245	1.3733837569848097	1.723754759251148	1.5667009314082299	1.3547586168417094	0.9863412951362229	1.387699600530819	1.0097521518009016	1.0060633395543557	0.7863434533293099	0.9112945176004782	0.82180064709126	0.6730513555699957	0.393939464289746	0.9352909302939518	0.6830735785404501	0.6070694312027402	0.3234332195699147	0.21948750261681443	0.9669497584725354	0.22172978464411983	0.2729050808215247	-0.015377550347067809	-0.008801866300533237	0.016700634690677396	-0.2015096093096957	-0.3799694766941727	-0.49546271437483985	0.03522213167000097	-0.2934061579449049	-0.2214650506150183
-12	2.150524372393324	1.4496792518254464	2.428219789096385	1.2550440995000804	1.1280490131507903	1.580438848319956	1.8980371904136053	1.6324362713606724	1.0474836799878042	1.1509388656168027	0.9131886936020129	1.2698928085690364	1.1754064530260364	0.9761440729291498	0.6934927684441063	0.7004948240714169	0.8660628773757794	1.8478890610770213	0.6311497672358457	0.5941110238334184	0.4801147568025057	0.7527615408965485	1.6517956215162624	0.10534135225641185	0.35098245651322274	0.2430749231400332	0.5859272465217745	0.5496325478981999	-0.22324009183310908	-0.16792720513861611	-0.12100093781200612	0.014157573656756154	-0.24350359974417551	-0.13475355471921296
-8	1.795478339430476	1.4001904690677032	2.619923108161941	1.157327410636989	0.8273207524392615	1.4811720810687496	2.2120988313137913	1.9695923278672232	1.0849571200634809	0.8659101106716057	0.9372534132182269	1.6570025640614048	1.7410087541492973	0.7857475260923501	0.5735921249212954	0.8285006263796115	1.592578407081421	2.6792941025799153	0.513552247181341	0.5911880716656578	0.739665327588854	1.4754513464869405	2.2962293566903713	0.020693024568168916	0.40289920466743917	0.5500371442259138	1.301218387179522	1.1559990615268785	-0.2941338710511303	0.05519121126307182	0.3371071806979585	-0.07142088544218098	-0.14650355242457058	-0.012244927665968209
-4	1.4030163252693697	1.4502251111609212	2.5411622460103294	1.0198169920922628	0.5829645380560491	1.4663144313031	2.4039883552891554	2.2589626255222535	1.0647000047505506	0.6383093579388999	1.125757810611409	2.0810835308938405	2.3748660027625847	0.38747873804491884	0.5387644754158735	1.1023435564819868	2.435203546097796	3.232786408845445	0.3562305560654786	0.6475899203162866	1.1124349804448506	2.271677965150795	2.8088281083716478	-0.01238011193130006	0.46219611051214415	0.9009273625515795	2.038995260812725	1.743314977059124	-0.36081641821362936	0.299128621061408	0.8439798929840543	-0.17835530593664378	0.013100889478329856	0.15259914061642557
0	1.080874201906675	1.5036048851197783	2.1484477465745924	0.8487226941615025	0.4670199144016376	1.509792204859711	2.3774266182956705	2.3880960881021065	0.9624859070319318	0.5330627547156999	1.426865216467397	2.4011452137405476	2.8955731318800546	-0.04210421804884271	0.6157493575762417	1.4856245480222299	3.167724601377264	3.395086518298958	0.21715490465174114	0.7721573094900044	1.5433337649480614	2.9647672101507907	3.1178696076829455	-0.006167447178885747	0.555099009066039	1.2608090607282012	2.6709482602395362	2.2064976636491	-0.36330988911454526	0.5625858888727285	1.3431220020715895	-0.2604105764013186	0.20949025399245788	0.3379940084030101
4	0.8486636259586792	1.4666557274982222	1.5173926315144108	0.669150529602519	0.4866700458160303	1.5357752999631773	2.0888898319910747	2.2903704585423217	0.789978382977115	0.5526269064302212	1.7157237486436778	2.4842536386711	3.1092784326252905	-0.2705091529215375	0.7739656548032793	1.8699060631271467	3.5680503755130233	3.177280656422107	0.17485168532094733	0.9317991710025357	1.9298731039913695	3.3861343775134545	3.194029561561705	0.017865212589100492	0.6881210786612209	1.5744394024198811	3.0843913477271867	2.469045632804345	-0.2635132365726233	0.827131746111156	1.77336453943748	-0.2866261296188221	0.38829827210618895	0.5105056153759837
8	0.6468588097453175	1.2948000398370232	0.8189555981940241	0.519115983129208	0.5886449798980916	1.4615226947124147	1.573836680253434	1.976362819450166	0.5964862093170762	0.6438392384486199	1.853392000287371	2.268018716807983	2.894549839341134	-0.137510865579561	0.9428253746070521	2.119091743841092	3.512166729642763	2.705228798711946	0.2880573563455553	1.0684006187167323	2.162286514545024	3.4416382225881645	3.0593697947508094	0.05072151856729494	0.8415149429055914	1.7839670136233576	3.221114388916418	2.5122950013627534	-0.06689746660985532	1.0574825975422102	2.0860707707188952	-0.25303202803623487	0.49307557815993475	0.6449655874180967
12	0.3995066275046789	1.006283995948757	0.24974843796617127	0.42896661054072743	0.688317773988483	1.2432483403288122	0.9410960650525497	1.5292891225350953	0.4437752056838508	0.7272306662318512	1.751537676203708	1.790617103824158	2.2697212638770488	0.3349173060544395	1.0430729362855613	2.1265864318562273	3.022885314938749	2.159925932199299	0.548905848070933	1.1238137455223232	2.1657910292303897	3.141903869325756	2.7753381659055423	0.10057995442984069	0.9717707013390868	1.8455200148717599	3.0890691202373493	2.375053638183864	0.17388434664216862	1.2086865871430619	2.252554410969341	-0.18224374903919974	0.4916048931584599	0.7331337314215678
16	0.08693370201096699	0.6655132753735735	-0.046515449764113426	0.40400066869778506	0.7097830158433156	0.9018704868434793	0.3360465160468583	1.0727469894027803	0.3740624179932663	0.7347376328037792	1.4122489655124781	1.1737328738142583	1.4048469031150899	0.9300649142625296	1.0196814511303858	1.8605183315987244	2.2519500198728446	1.6965063767515842	0.86753183384256	1.0638620826564136	1.9287483643472974	2.58607339206088	2.413886302575567	0.18240602268419104	1.0274898979948266	1.7422988370775587	2.7460172107030814	2.1257440990183882	0.3806704273149616	1.242395993910676	2.2634501400067735	-0.1074084711343258	0.39249822398271583	0.7801660279603849
20	-0.22474937084197857	0.347544907646093	-0.029754666536428928	0.420279829633094	0.6170011743226539	0.5158705698340266	-0.11037852587250128	0.7240341883499068	0.3875999738920859	0.6368786676539683	0.9259799099431618	0.5707939848793794	0.5681509361227772	1.337743278940638	0.8633879997389475	1.3791643346298221	1.4118801319715393	1.3841619456630418	1.1044899197349296	0.8930409528119693	1.5083857736651418	1.9149274777702534	2.0291120954781805	0.302218913268953	0.9748314594452203	1.493995781941219	2.2715549411642892	1.827276463663548	0.4893825041812981	1.1485868663399041	2.127801174513683	-0.047527257233072606	0.2464686774945248	0.7960323075223772
24	-0.41662436618521564	0.10803639861486859	0.23256172181064236	0.4397310901506958	0.4253576685179788	0.18745098960756518	-0.32479190744413944	0.5537540898647227	0.4462054062544974	0.4510933447416072	0.4326435316606708	0.10853055837171192	0.02414386713369515	1.325798269739229	0.6152712687217053	0.8122348168846985	0.694903908405601	1.192373391955672	1.1451339692767835	0.6562765224099861	1.014690396608075	1.2622284857352986	1.64690970958707	0.45253544931598444	0.822806356260016	1.160350439003075	1.7465085939181264	1.5172725877601363	0.4887987958964864	0.9625710820691008	1.8770217848117567	0.011991451464120229	0.1320599165204855	0.7913100103426799
28	-0.39108562370742794	-0.029752824380380988	0.6052178725221121	0.4357168961491424	0.19072599660880282	-0.0019750443702989985	-0.3114379934554091	0.5657007083915367	0.5022937642767215	0.22984711767816807	0.06464607997308347	-0.15321502050817354	-0.07667196522666803	0.8865373112230122	0.35301187545341145	0.315088062682949	0.2143890852283729	1.027480003623819	0.9772930120589395	0.4259273399089813	0.5774008021081821	0.7250515800290094	1.2785339323188871	0.6234858020299756	0.6326415522815177	0.8328437188102051	1.2470557658181616	1.2138923375953117	0.43513324746897536	0.7641258220453772	1.5706424673479855	0.11938344657082012	0.1290384676774822	0.7813418487849003
32	-0.1439643200577439	-0.07345171254209895	0.9399050450436549	0.4086722125225842	-0.019605051676604833	-0.02775470905449122	-0.14503917061426477	0.7001339775528578	0.5284676538476322	0.033361140554361075	-0.10456845137898015	-0.23071533383293558	0.23138660134070124	0.2600716345896591	0.16067914624177745	0.011613668844584441	-0.013003108990145274	0.7984040359366467	0.7171978336346536	0.27450773050619914	0.30357587260848357	0.3563074162547224	0.9453701949093123	0.8156941512494387	0.4975400852516293	0.6082403048417517	0.8451852777123037	0.9369633174128374	0.42693877112362133	0.6493930204208345	1.2913277116597548	0.3294094494609084	0.28408798503675986	0.7891257981404003
36	0.21282842701583676	-0.051961272823751195	1.12312781527198	0.38092264436869183	-0.15946848650247875	0.06903527659629442	0.061185374701516956	0.8605611302583223	0.5282589779868004	-0.0991264355660178	-0.0834224072972751	-0.1936435843585472	0.7414495926257004	-0.1910194749777747	0.09375462657384301	-0.05046626540197908	-0.04452022153819768	0.48018967984079924	0.5568581209428538	0.24356464980143258	0.2406172448282146	0.1724677379545297	0.6945795995341969	1.0415959331917564	0.4988017367644046	0.5504994974542691	0.6043407901764567	0.7248367648897812	0.5508934841552398	0.6852043253765012	1.1226949663427137	0.66221099924742	0.5832211360511593	0.8396435358783033
40	0.497106640275917	-0.006886241474497905	1.1012886734814153	0.3725491752755292	-0.22460617068326724	0.20209437557694948	0.19743436525088529	0.9493366455905211	0.5217580186068514	-0.16640883642144133	0.050448756537620515	-0.1275634017346274	1.1660228938227377	-0.19286501358929556	0.15389388760812886	0.0854645592796718	0.030165076179638844	0.13663265074565767	0.6559628827699698	0.32213911332814116	0.35808733015251126	0.16114772815549613	0.589823363722326	1.3108922210021439	0.6593428833527143	0.656669972669155	0.5617120847825274	0.6286000593527262	0.8268641808614348	0.8679929353733784	1.113733169604781	1.0731370421972057	0.9458417272529399	0.9444841718669631
44	0.5456073866420356	0.01711032349021638	0.8810694791483467	0.3761244406740648	-0.2517734163603354	0.28096926141372874	0.19483290563507022	0.8998840428520651	0.517589865808232	-0.2029300028922683	0.1904600108821642	-0.09883148198209146	1.2649116484177332	0.2660900347667248	0.28555366324808623	0.30630293411168447	0.12683832613392662	-0.11309822620209099	1.0387026045323742	0.4465842831780556	0.5574806318513162	0.2821252338915841	0.6769040805892603	1.6075715978089478	0.9212462282763413	0.8465813973033528	0.7037754637115716	0.6828157288478028	1.1852865189190602	1.112655160002095	1.247112747858423	1.4569188319615871	1.2492275206497145	1.0852261754293178
48	0.29725980683616104	-0.01579822595899179	0.5152811991079755	0.35048395306790237	-0.29743689223534164	0.2519320839243269	0.045409239713939266	0.6963280421796239	0.4951240407840811	-0.2591181390895945	0.2481251501732955	-0.13541510666990478	0.9523137783802458	0.9088366604747257	0.3976061632131362	0.4768519389510939	0.18749465000975293	-0.16099914867760742	1.558449622034226	0.5250061737156856	0.7084037047620507	0.4661983537824502	0.9437038874641784	1.8771483850769402	1.1642326087167842	0.9878199671600776	0.9526227688579813	0.8715450741697994	1.4941773376887466	1.2837839094174486	1.4327678644246011	1.6918805794915348	1.3792523110852886	1.2100721567120123
52	-0.17755432382101316	-0.12081088840261961	0.08116255680096651	0.2411631488671729	-0.4065988351569846	0.11715307057127855	-0.20461682923631422	0.37311240936491225	0.4115508784393885	-0.3739544739818506	0.18413402093651163	-0.23091390670650344	0.32832419789390044	1.3137842383593443	0.4022452821112593	0.4922466563671362	0.18087877287496715	0.019664650733294303	1.9621661851934065	0.4779731023164883	0.6979836803933698	0.6210518463667177	1.3017992940460363	2.042363161652611	1.2612506119355824	0.9505109166942763	1.1794518202567286	1.1150717707137672	1.6265220601024108	1.2597012488032027	1.5387726983320744	1.7070153908546901	1.2885591951262174	1.2538970677189187
56	-0.7249566894347665	-0.2880233220934745	-0.34489640506450775	0.013066310402544261	-0.592348037654703	-0.08015609512357212	-0.48724824067121414	-0.007605946603585737	0.22964093031124938	-0.5582597241612084	0.007684092017979274	-0.3670034697326613	-0.3821290423758999	1.151966449690136	0.2499645197040977	0.3098800770565257	0.0908756477326544	0.33580729280565624	2.022344107290312	0.27353605558952393	0.47119423628097573	0.6503929479390619	1.6072977740715408	2.0414721914247576	1.1419104308861794	0.6663415415152811	1.247752663323116	1.2931987014545305	1.5320196113053621	0.9979119275647431	1.4510840140899661	1.5352621039729568	1.0337141726144268	1.17641174496228
60	-1.1993265121697456	-0.49549743408033387	-0.712938008892601	-0.32532551802514387	-0.8376199581932878	-0.2975240938304279	-0.7563985567069154	-0.3878682543975426	-0.051235541571959524	-0.7978935221554344	-0.25300216610927784	-0.5413610921543128	-0.9503359174576576	0.3806999316140509	-0.05629090578053041	-0.05260873572656979	-0.09610766148144205	0.5972897395312645	1.6620804029462894	-0.061494435959767946	0.044172517843778306	0.4833932804777762	1.7180881456866586	1.8690953207509586	0.8296130874668907	0.16210977692206438	1.0702629062333928	1.300106045301532	1.2736899820595105	0.5672377333624791	1.1358615131310656	1.3202227320717264	0.769320426429082	1.000583288527542
64	-1.5469319781347775	-0.7359158378140798	-1.0223696206029689	-0.7243812065909131	-1.1165252895775901	-0.5371344671993162	-1.0226795647550184	-0.7422311883306667	-0.3877407302603676	-1.0732530328356458	-0.5887913689052904	-0.7860975841702321	-1.2592773405706303	-0.7228177767624019	-0.4728336322290614	-0.5471002445713109	-0.3969072987549092	0.5956843480329373	1.0037138436725312	-0.45954045537320387	-0.5135521279720517	0.10166146580539841	1.5605071743666776	1.5951119621058472	0.4317533958978425	-0.45020618921101013	0.6515799744367669	1.1026523085411437	1.008005258876235	0.12701564995168568	0.6712920648792471	1.2665702072590657	0.6952736956208538	0.8258355835091429
68	-1.8416851712458828	-1.0426969501872674	-1.32825159691199	-1.1241041393509357	-1.422397729143471	-0.8646064378843699	-1.3572273220127835	-1.0888463231252559	-0.718699274632755	-1.3832530940418013	-1.0314960453693556	-1.1632970542147516	-1.3565562929235964	-1.714470739804373	-0.9451663470246952	-1.1317818136250695	-0.8266019800297298	0.20135794529144763	0.3075784735066574	-0.8498983361720841	-1.1164113254970671	-0.4496232259842563	1.170308825399136	1.3427995409441686	0.08640898742317281	-1.0230480406680895	0.0934068707253596	0.76869070335862	0.9160063243627213	-0.13914178276694875	0.2278639519422083	1.5526994427579723	0.9762242411761703	0.8007811287689325
72	-2.2472615185266496	-1.4966025314692446	-1.725638742858452	-1.4951807222763622	-1.7827088787846153	-1.3861325944236305	-1.8573870611979997	-1.478296633802755	-1.0105198596236704	-1.7562378600602493	-1.6423835712928332	-1.736478443529937	-1.4172761404494316	-2.2391292992326064	-1.4373378717372816	-1.7910100176415256	-1.3860030139262158	-0.5663740024572196	-0.16964285032833817	-1.1943742006664408	-1.6985337691338558	-1.0745553943206998	0.6826372725417958	1.2311388223082382	-0.10640057894546043	-1.437186237521356	-0.4446705568530838	0.44394540674657723	1.119441983257665	-0.10373611722027684	0.0006615477015325665	2.245966190389661	1.6670994716515741	1.0605454418109055
76	-2.922557108176062	-2.1952392999537693	-2.308733934295519	-1.8603657437084846	-2.2468359413640275	-2.1871030275438916	-2.5846433574270393	-1.9637433240901814	-1.2891766992445313	-2.236428731993941	-2.4667775568670782	-2.5264737542261253	-1.6367326933545245	-2.2335944119327378	-1.940613980162066	-2.523326390571352	-2.046738857823814	-1.5318366250463638	-0.3119993798008088	-1.4983886442500745	-2.226482147317516	-1.6569187599310622	0.273160158898197	1.3131831851229467	-0.12947177854274408	-1.6445507961713948	-0.8094906786508126	0.2868465177923227	1.6262961584992826	0.25154206093222387	0.12589877812070427	3.2643690026835537	2.681085102941604	1.6589469867783584
80	-3.9169921776105454	-3.1889290729118627	-3.114124290233295	-2.2759191932437246	-2.848037950954537	-3.260265580528997	-3.504447928163838	-2.562579625335528	-1.6274722773470212	-2.8482687401385247	-3.4770381362866303	-3.4725038917607245	-2.1137273258248506	-1.9501019667027475	-2.455108397960993	-3.3046009457124708	-2.7417461802878393	-2.427704804966826	-0.19515107522807795	-1.7897924139611279	-2.6837351254416273	-2.0937147087641717	0.08006659874966783	1.5464801749285206	-0.0445726363725647	-1.6686344104599546	-0.9118480659351096	0.39378231664419244	2.3321640432604114	0.835352835930335	0.621720312456186	4.404279697742568	3.8153815173141092	2.5294530327830564
84	-5.108860479807666	-4.414784897148417	-4.075285424433794	-2.78052996887095	-3.56138323838386	-4.463154781517262	-4.459599960511833	-3.227468244033433	-2.088665241690128	-3.5592355638287354	-4.537656772601135	-4.418735969831313	-2.783175938255139	-1.7852209761369764	-2.9573807641702943	-4.051389683985091	-3.365060082522717	-3.0010456963110275	-0.022486144620032483	-2.0785069413159953	-3.0395996493844644	-2.3160207213102026	0.14838927946772978	1.815000410265892	0.05686066657849987	-1.564717169625824	-0.7483314852894472	0.755518434524384	3.07453560052917	1.4972246847498394	1.3837174142234294	5.421232686660604	4.82432173464593	3.4993319423063936
88	-6.2294039568979995	-5.67146538256203	-5.015605437013328	-3.3446535979703564	-4.286045540478824	-5.537646279658924	-5.2037653791652225	-3.8456814191998894	-2.658590071641587	-4.2667398345033964	-5.42241715015859	-5.144436346417065	-3.4365391644497936	-2.0238547274036858	-3.379952422191538	-4.616652000215412	-3.7895147704769507	-3.1096424977946593	0.009592623425642958	-2.3261494577806014	-3.229559413385453	-2.294040197302588	0.42245897544058053	1.990929121712889	0.11571995884765911	-1.3694376910920627	-0.38177901410034015	1.2675007549709498	3.7062699701194965	2.098082537122284	2.2354974690263214	6.12243555430552	5.5050339559802755	4.353425491785757
92	-6.962009889191414	-6.661956770289551	-5.688737854900013	-3.8532669446934333	-4.865396487349844	-6.190652354822986	-5.486021504856403	-4.266994942382391	-3.2124786295845835	-4.8198575851821035	-5.88344429438035	-5.430476174949034	-3.8185474776180057	-2.6490933828227905	-3.6192715076621447	-4.828046309679252	-3.8975298306290433	-2.7645976473627134	-0.1635120953961545	-2.44552373268673	-3.1634383121729983	-2.0276737161940925	0.789351818952818	2.003958697027893	0.14517664872709213	-1.070410487333484	0.10651330622960728	1.7890759661327367	4.152103413589212	2.5652491981589884	3.0094869060828064	6.429274065951481	5.760845646618593	4.919893252348971
96	-7.071210366515807	-7.097414475641542	-5.859445080268579	-4.140626896894555	-5.141737924945605	-6.205714686938277	-5.1529016364652716	-4.350552547914837	-3.5474953561862574	-5.071838842938246	-5.746783718858686	-5.139838205712121	-3.746333589631993	-3.334539643451824	-3.574521294152081	-4.556861865936436	-3.6172826198803008	-2.1047377533225227	-0.4347808350076306	-2.335718625847262	-2.7629532744268013	-1.534812684952485	1.1452019185716558	1.8792862844703462	0.2248473012730973	-0.6159831865971052	0.6620132310365545	2.217055076723641	4.422647941867335	2.906084291750367	3.616153707911105	6.385072692009124	5.618833050846769	5.13780115737742
100	-6.510615809215351	-6.818751794765507	-5.399007783610027	-4.066735257371641	-5.0217866770795085	-5.536729321806014	-4.222734440632566	-4.017178525319025	-3.475651255415498	-4.940406786843078	-4.991663443360396	-4.279182900115291	-3.188443414267459	-3.631639948258969	-3.1994843402191977	-3.7852246665754286	-2.95293211191407	-1.3203768696827263	-0.5959163889144621	-1.9370268534392503	-2.0109028765452726	-0.8484754540955983	1.4451219999067155	1.721117253726496	0.45139485483644226	0.03987383459872056	1.2721059290239591	2.531447642610784	4.583697784295196	3.17798732908878	4.067020882828683	6.110319122146169	5.199145303951057	5.0730872026152705
104	-5.452466474118367	-5.876390919154018	-4.346179951185154	-3.59196924256384	-4.517957675971183	-4.335616100808993	-2.892302267401618	-3.282594195661221	-2.9282801077343668	-4.443642605052854	-3.7707180881666194	-3.009505979569086	-2.2718033733230856	-3.2380137361790493	-2.5354525978924207	-2.632031434089623	-1.9936392256946942	-0.5708993658910761	-0.4721211779118599	-1.2731472221655562	-0.9812355612776538	-0.022592628317654875	1.7107716755589515	1.6511653620039988	0.8760204293068157	0.8869802333372199	1.9451105545525689	2.7885858942198736	4.704737174553565	3.437927237413818	4.443564880596263	5.734207138842831	4.657073962851394	4.876847731675181
108	-4.218667496520519	-4.520883071929373	-2.904659263906675	-2.805283062527937	-3.7402994538287464	-2.8961753772093446	-1.467736955751718	-2.255323642758614	-2.0081827589831707	-3.6893267538384213	-2.3564872682203633	-1.5973346193039097	-1.2172833650373116	-2.1853764001983973	-1.7021443800866538	-1.318620201596341	-0.8950604773811502	0.06358022971790095	-0.03729432811857891	-0.4541295755364775	0.17080338256150737	0.8606210329261703	1.994875068396347	1.737298841858554	1.465002533074906	1.8347433759142882	2.669030659612664	3.0674476546089546	4.816298472642261	3.701493492317835	4.8315548774804515	5.338336454264916	4.1250300303262675	4.706917750872523
112	-3.1442291657218626	-3.101610414303586	-1.3779170478364016	-1.8873350572619145	-2.841952078319756	-1.5375300607009346	-0.2469442331516646	-1.1019154759242906	-0.9529936289568374	-2.8216946053789576	-1.035420772799327	-0.32235369004879083	-0.240612133729938	-0.8324892499886208	-0.8473970272604	-0.08631387331151262	0.16376480418820294	0.5805007204658341	0.5615693912632954	0.36476763990813654	1.2586065499000216	1.6940752225066236	2.32888125785305	1.9516978214579348	2.1052153057352574	2.732181780592749	3.3798854265709797	3.40326499079723	4.896131026304229	3.9327475925335356	5.2583756314077155	4.93556784337385	3.6764378454847324	4.652152049716848
116	-2.432713979301103	-1.9205880116609912	-0.06406764669932109	-1.0245106194378955	-1.9466508577789656	-0.4795231210999589	0.5933859333315564	0.007614235374478888	-0.020975105411501414	-1.9531965206423834	0.0034387453838044557	0.6214032157467815	0.526963173012655	0.33286720430256594	-0.08003959784565275	0.8970327950717882	1.0344545815099573	1.015330312072768	1.0854312154068275	1.0491042110658662	2.132873529771262	2.3672769009903636	2.689524882201912	2.1817674581756488	2.6520528726377064	3.425223103458466	3.964528789047534	3.7500450516434967	4.886887061178642	4.067372788650548	5.668128952974507	4.48698757946124	3.320201865396593	4.6968598247199385
120	-2.076141352180122	-1.110344526348566	0.8495308735379715	-0.31782829681261193	-1.0955953570361336	0.23414488077652443	1.0574504110341127	0.9556027030660034	0.6411461217905329	-1.116274830860876	0.734677610926642	1.1901669472209473	1.0671734782931948	0.966239211503962	0.5786716923408743	1.5973032672608372	1.644297953268896	1.3974543774608417	1.3420560326071176	1.5426186284218517	2.7360012462203125	2.8013813424907905	3.005996934930729	2.288073295538478	2.9938976689090304	3.8218331240483088	4.301858414279232	3.9959607023440302	4.730517852283885	4.052091111443038	5.94636104989777	3.9402322669683736	3.019421331411728	4.7400660395156375
124	-1.8771597099594188	-0.5969536885448693	1.34721529143656	0.2602665417775825	-0.24202953217911818	0.7314985376009282	1.31072759297369	1.709582205270817	1.0702508660951786	-0.26111432844040483	1.2878090110689684	1.492839928672653	1.4525886737388771	1.0507017347511027	1.1968802183450502	2.112571710974863	2.013597721738054	1.733860965165879	1.296027776307007	1.8855278444368875	3.115392677070913	2.9815809651437406	3.201627246402752	2.1747286264826045	3.0981748025874065	3.930083741755959	4.321152199325735	4.022822846746425	4.398666370730372	3.8761973283177906	5.978908523723066	3.266106120446502	2.7206900051090677	4.656118381188767
128	-1.5607185324365176	-0.16372139710575484	1.5764955242408618	0.8359093644971978	0.7026658636472344	1.232243892419584	1.591844912324667	2.319302314624671	1.4537041150583876	0.6982295495524474	1.8700004768842324	1.7311578945321395	1.793364758732077	0.8851441718641943	1.884428615580715	2.6122724943964672	2.2377164307364175	2.0220243879765443	1.083477732783891	2.184297794549265	3.390149823212545	2.9686491414459213	3.2425286688000963	1.8347431374957095	3.0169942302826023	3.8495240114295677	4.0444626706053635	3.7745366001198692	3.905078162824341	3.578266373183153	5.711453900222299	2.47690748543037	2.38072394723632	4.362954605531229
132	-0.9212372875796475	0.4199313808806169	1.7733496382763236	1.5453891715133066	1.795591349836685	1.9342108916085914	2.1031706280060445	2.8804266380065524	2.0047843405652372	1.8126912071238341	2.660474055248891	2.1092243141327285	2.1890032236145336	0.8864679910213134	2.7205953529334033	3.2502586759522107	2.445326083685154	2.2747843208100664	0.9242880917101286	2.5499651367656924	3.6907412912646596	2.8827869819336986	3.1640694061502868	1.347538348610427	2.8531722950425262	3.7226693536230138	3.589390030381631	3.295923463129399	3.2989778435385575	3.228314868405685	5.179724680220792	1.623022194579326	1.9838852832296965	3.8638076684674796
136	0.06858607364265941	1.2718261448220898	2.155560488026971	2.4379634795625074	3.005129806560726	2.9205954001121675	2.928500168082322	3.479432097233345	2.81863211873813	3.043903819982118	3.7261211778025314	2.7503492762744193	2.7016146114804704	1.3257204260733488	3.69756936093431	4.0935506717326495	2.7478964259388152	2.531105750369216	0.9866083239441426	3.038610212283691	4.101207722799742	2.8610720562225325	3.0554740351781255	0.8350173213857415	2.708467715100863	3.671502342491212	3.1259179036373568	2.7179822853130475	2.648726695049058	2.8976597712790833	4.49541758355983	0.7768347243722991	1.5486465653420574	3.2434756673938967
140	1.2478187052693603	2.3370296896104317	2.8286917138207643	3.428281775402038	4.203237522957181	4.127517689774332	4.0084462064628985	4.145926465057444	3.7955267333523968	4.258675564504226	4.99408291509501	3.653004398659741	3.3488230620711574	2.1619007532850114	4.711375701453308	5.0972761979155266	3.1989130893051128	2.8410155701434094	1.2875932422554262	3.6244931129498648	4.629419315094067	3.0044181271039045	3.0104761047650013	0.40412664311419977	2.642005675321154	3.7499987984392678	2.806577198572033	2.197007173713344	2.0248115011592045	2.632349007636184	3.796751728008728	0.013256995905247622	1.12133216574801	2.622311823899929
144	2.3557708203919723	3.4186296376700596	3.742498388378248	4.325397480534499	5.21237038250043	5.381004319910364	5.178651796617544	4.83257530899643	4.678216922392739	5.276630865126274	6.289985640857594	4.702915179776671	4.103880871901881	3.0669050139242895	5.606024251135456	6.133947356949795	3.781125774373863	3.228904715968893	1.6881157117184473	4.217910755952362	5.217087732494623	3.340877762942658	3.0750064772217067	0.10708227726603545	2.658359997713335	3.935704221325509	2.7081572941116567	1.8442934704946685	1.4886608086194224	2.4444267688070536	3.1941263595045757	-0.6054100975010275	0.7608584146363292	2.097159618804912
148	3.169820777519433	4.279097546264189	4.716683375847867	4.9251460904704745	5.885753139894541	6.480744822352292	6.248094066103741	5.433320031753377	5.1875820028938255	5.9502134172891665	7.419344883306529	5.731233105494627	4.895895468748671	3.6261250881196947	6.24881409021081	7.05816219455168	4.424910534177296	3.6640438941000086	1.9839827964283028	4.716825473320653	5.779976830194559	3.822969903830595	3.224392167533631	-0.06086552127729857	2.727463238505663	4.160627354607731	2.81476759199923	1.6860108332981636	1.0885525914365444	2.32326244721355	2.7401909759002865	-1.0372421715297748	0.5193296061755437	1.702663178913469
152	3.6159167198440767	4.756161677750147	5.5260543683722725	5.117882715655249	6.180371745718083	7.286867123326062	7.07472322585142	5.832595333632266	5.182605730323382	6.2373490176079205	8.250123003157258	6.586350901187225	5.610324845454432	3.5937352089747865	6.596464617287178	7.7714485925921135	5.044869887012684	4.066755761369391	2.036709780319228	5.062399374578289	6.253221019215797	4.357330788101581	3.3827400122113556	-0.13316971029991773	2.8189701962824425	4.3591146359059145	3.0468494815194807	1.6721755223971202	0.856623349411178	2.2548429909043586	2.434405797534136	-1.2660264936907974	0.4219332326726665	1.4096420967751633
156	3.7905278110169953	4.837861525718924	6.006709560487592	4.9529285305858775	6.186609729405947	7.774680118005097	7.613254527897521	5.964903816421999	4.75175951711673	6.231106265548487	8.764246918485197	7.1938662347364035	6.110369666884811	3.0501034182788436	6.720455629547373	8.262170770766001	5.582582459660217	4.348921288000742	1.8644661856308102	5.271604047817188	6.6235475372932635	4.856249797004285	3.4748167903907494	-0.13456763293146673	2.9315195009604413	4.509675968228421	3.3211438572002447	1.727009292056957	0.8067554215089757	2.239487642356091	2.2563354912057663	-1.3035001721850525	0.4554943728867762	1.160084602288048
160	3.888177146631661	4.662600028663857	6.130247577448638	4.6227388265245075	6.096763595446995	8.036482790683953	7.919856528313611	5.856389030929371	4.179286469398267	6.127949222351901	9.058526016252955	7.580862979822563	6.284758075105412	2.36689924596202	6.777410966927989	8.605651833741568	6.035158142111324	4.469996441045887	1.6362212855036429	5.430492387412372	6.934241754190721	5.284131036768715	3.4760882766698877	-0.0611606126969656	3.0992770116758104	4.648999202434768	3.605268707709705	1.8060721113382385	0.9329725480366217	2.2971863688644687	2.2019584123330453	-1.1880195110844014	0.5705230221649145	0.9140318013002322
164	4.080828656383909	4.452603328907183	6.015464767527255	4.375933636107591	6.128328784728873	8.236458757586288	8.117682436475038	5.628362641429399	3.8066687487814193	6.149928554266624	9.299993491534423	7.857097129058	6.109631999802933	2.004493708318046	6.940829259514665	8.929054237710211	6.455950243862646	4.47295473876791	1.5757952888758084	5.6540694094003845	7.2640361602489385	5.674567685105467	3.4316210660125033	0.11198200257161985	3.3746328268680545	4.853787886762698	3.9361033340259173	1.9249999474561266	1.2117134302064037	2.459347003449559	2.299086803353689	-0.9760817860755169	0.6992588025558303	0.6809486133549277
168	4.426031101496244	4.419405926036897	5.872807011082012	4.405807007156436	6.439599020911985	8.54505155313285	8.3467368868855	5.458637223767094	3.867154588472457	6.458667738820385	9.660510038780943	8.168406465887987	5.694029316831234	2.2611563148630287	7.330401878922935	9.361673331466585	6.930863839770538	4.469321239631576	1.8354059411439385	6.036429866809041	7.694879512432649	6.1129598463216315	3.4346647175856293	0.40668442742666594	3.8012912177433607	5.204945551128795	4.395125378002496	2.1446511691305643	1.6116117198309128	2.754838698107567	2.5939578944518624	-0.72476148422362	0.7843986729844885	0.5187273608462536
172	4.85157870021432	4.684284198378397	5.904086574906847	4.768077838303557	7.074740391989072	9.079149223293172	8.717543579980065	5.51223801174822	4.37991284218275	7.098738652426529	10.25665948185589	8.642144181366719	5.271168218655691	3.111611835253066	7.970740775011312	9.9903650031581	7.540420036351674	4.582856643550249	2.409234040853304	6.614852411735383	8.282632806847152	6.693086130409932	3.5762765317269953	0.8185388425188068	4.393153179521147	5.753608212249659	5.055962549795956	2.5244080956620047	2.1079664177125643	3.1985852637596754	3.1185667436064786	-0.46934434653039725	0.806962905276915	0.502424000425227
176	5.223247514888739	5.242821203346401	6.206396087235629	5.3676557405373275	7.959928015639198	9.867040609243391	9.278757071910304	5.86925409742521	5.159096227971848	7.993072966422214	11.114323587966862	9.341657614964387	5.118428694200013	4.227998722845837	8.795197464671702	10.833509417838448	8.320979097338716	4.880967127874497	3.1374847809732658	7.362372379788262	9.040343261782262	7.467258911353283	3.895341148078417	1.3140596118175112	5.130184160631514	6.503767473966528	5.933815464297121	3.0740029734248018	2.6950602463389375	3.787725915882468	3.8600060842333033	-0.20568169601486044	0.7999253848860527	0.6822494847238663
180	5.451766000334735	5.978870853587663	6.725821954912242	6.015564426493068	8.945378280942922	10.844873400964053	10.003460858837927	6.480018122525025	5.925077900232266	8.986327148637388	12.165265052598647	10.243133519060448	5.427220330841043	5.167209135361033	9.685996031148239	11.838089913043826	9.241095519576191	5.331566797146998	3.799145450536864	8.207250574371457	9.93659493798624	8.413900354123154	4.355457771748887	1.8503842307103089	5.97051618975988	7.415933113448199	6.96425579220088	3.7334086800729507	3.38803719618846	4.5048279648532095	4.751207816526082	0.1113717329670472	0.8385132530022813	1.0549663278647254
184	5.562082753443663	6.7129363844186525	7.283505898206374	6.520951254593309	9.867918943286583	11.879823654698711	10.795727702540772	7.1737413225252515	6.448479636123939	9.910447095645031	13.272111859191334	11.241165132751599	6.189785941708719	5.606774315983416	10.526028606542008	12.897525754790394	10.203850720392538	5.8188738676024565	4.233991135397846	9.065416313171594	10.906151744010025	9.43776128293464	4.861134040003428	2.4029948650725474	6.868745309653935	8.425567605680612	8.022659281502545	4.393978584639913	4.211432923174527	5.3240179881145435	5.6900939797745185	0.5495653734637076	1.010005709959136	1.5642737110698146
188	5.676341042492347	7.262210350774789	7.657688121535337	6.768716795044422	10.602442714625449	12.808505025950208	11.514399499432354	7.719150523723909	6.645174009711806	10.638964626154333	14.270143472882484	12.179275481945599	7.170370083825267	5.496659741829055	11.235086412674173	13.882124865768874	11.075088473014652	6.206077560014754	4.420518863961333	9.867182706716177	11.866594284614925	10.401637051069933	5.301674829449031	2.979134552109756	7.787718276388927	9.46315095419622	8.972313858267496	4.947409617330769	5.178060041705708	6.2143711886864414	6.576066000547908	1.1665538519970564	1.3751994336693736	2.1284978336000586
192	5.92475794249992	7.493683319245552	7.685261706975974	6.751215917708237	11.083973856598176	13.480820621786954	12.01240441150509	7.917003134766127	6.581394178940218	11.110129328333898	15.013891182186342	12.89772793374496	7.990789393277344	5.05885885868757	11.77872082597448	14.674438439513104	11.728503197622263	6.408956511528901	4.47311209502972	10.569292041796547	12.736741987496139	11.175559969343016	5.598491654566339	3.608016720245492	8.69936559388094	10.46704766491846	9.715698217657721	5.333627210502391	6.270063384438166	7.139306527232552	7.344012241895163	1.9777134606973663	1.9388538550062928	2.6773745946044145
196	6.338789923876465	7.35894821216385	7.334442120154189	6.547924502053285	11.301616640167333	13.799961055246339	12.184674232237143	7.686728934908061	6.401524050762754	11.31926819804513	15.417134246048622	13.284468617277811	8.302061059971928	4.643737304407282	12.155484168834278	15.201303443676062	12.089879005425697	6.438551409678058	4.566138732825856	11.153524370643769	13.453926052457883	11.682665795394241	5.73140429003399	4.31319664819836	9.578370070116257	11.387272806027731	10.224234555179942	5.561280713345591	7.433523636169901	8.054619768787575	7.978128889921858	2.940860264028899	2.6430528097179242	3.1768584171195844
200	6.794816953669931	6.905546647756821	6.713402731158197	6.271850093265442	11.28009030355176	13.749088252640405	12.009177177626519	7.105769139469325	6.231556876661851	11.2967910481385	15.475609740285751	13.312864269977116	7.960114935804741	4.52937077332396	12.377881018858718	15.452970465745743	12.16320511608041	6.38279150305004	4.829260813918128	11.618215531579912	13.985960925077027	11.922185867726522	5.733083233663784	5.0825891366427935	10.395487759093271	12.183175056215537	10.53431699000497	5.690293774543301	8.58961961484894	8.908625580230051	8.499507882593539	3.965742816449254	3.3863444242811127	3.6280522254897067
204	7.056104165382071	6.263999446312607	6.018444999758501	6.01810024649399	11.066572161390646	13.39810177281367	11.565185517675713	6.384409411523738	6.12039039973915	11.091570826183487	15.266619643767502	13.053031888430981	7.1111788570154815	4.786002147035158	12.463175742154112	15.483793219574173	12.028092353970365	6.343257888037548	5.277085767774051	11.97226044493164	14.335986101195251	11.962692230539293	5.661744103442286	5.859833225714376	11.119273157656515	12.822371450475746	10.717373820902658	5.7906288954447644	9.658482527189383	9.648472761589655	8.938311554276194	4.945720660120678	4.060979356049503	4.045429696359758
208	6.896719438306452	5.6118740893775225	5.450908170289294	5.839849457301696	10.73110291632698	12.887651410943253	11.0172586162881	5.7821702811167555	6.04773758315012	10.770297976958002	14.926398239597182	12.65140053415936	6.134346469650203	5.273832307851846	12.439897505823723	15.394619902843747	11.809754341826302	6.369594557892929	5.814831242185417	12.236629455189465	14.539885484225376	11.911672562089004	5.570850358249408	6.567120535482603	11.72861954588857	13.285959210230592	10.843438121121485	5.904136642808331	10.585342380501142	10.233158085736026	9.309643721917773	5.797455773021523	4.592732894746017	4.432582844033414
212	6.238489135250306	5.120354639477132	5.141292559040968	5.753990635649572	10.371811840573946	12.391074149318573	10.565102550535153	5.5006513456702955	5.978467449352842	10.42476460685871	14.610105477639397	12.283838241081016	5.462363706149043	5.755804524194797	12.360033004072237	15.30113407086542	11.634148568343884	6.429875357606457	6.306371196083559	12.447939841313673	14.655353509141367	11.874756783068438	5.492503152331493	7.145438176234405	12.226720779067021	13.577122654014518	10.956442805284418	6.030412658724867	11.35568615907379	10.647479984104026	9.606778120581643	6.489538653201672	4.966015803196878	4.772318827977909
216	5.220005975895459	4.899031149893098	5.111082064122125	5.760195717573603	10.10762879680735	12.06271359259145	10.374077770744007	5.601144776507883	5.9136752932969445	10.168461773948684	14.444865190275827	12.096558540320942	5.369431005272836	6.047521575917999	12.29940888160567	15.296886405470872	11.58528611119186	6.4381151036794035	6.656049711588644	12.654018370151285	14.743365250557343	11.920262306635188	5.438179002383199	7.58542249671779	12.643230406311334	13.724667514481846	11.068451853463538	6.140113338226952	11.989277809390629	10.90768906700419	9.811952566169584	7.04363344321507	5.221484171082157	5.03584479014216
220	4.155954827306295	4.957740294337157	5.285456644065173	5.8541712613121675	10.047903989218883	11.989959686525136	10.514318439640421	5.987237915181529	5.898862347014763	10.10962006877498	14.49200531161677	12.158202140629173	5.842322811635051	6.1131062353288295	12.337514846170105	15.424837073482788	11.682372063705529	6.323102935085505	6.855101568080716	12.898019758085045	14.848373375597399	12.062583892884748	5.412618146582256	7.928037623416246	13.019679036647513	13.776789630439119	11.170476885249405	6.204478248190179	12.517718283520312	11.05487439225514	9.916105245349984	7.508623104211495	5.428738580348928	5.204268919203013
224	3.4024081144261027	5.205632196634874	5.543868527720607	6.028039917031639	10.248376820438812	12.168587653908617	10.938543292084981	6.463064654245074	5.9886445847946765	10.307835552893675	14.732999764438494	12.443840949112106	6.604269964710099	6.060745223955902	12.523550955624726	15.668411215323877	11.886546104938086	6.096764072284152	6.9694394889346185	13.197458233891535	14.984998665169446	12.269490211026909	5.428390489224319	8.2344703466416	13.384780849995739	13.785892451766234	11.250460596290141	6.221689685372066	12.959606137934436	11.138859720717415	9.93405721063669	7.9240045347423465	5.649458870929359	5.288044916153365
228	3.1997215667048047	5.491564259969362	5.776905998903484	6.261506541655815	10.675191852320193	12.510043112641252	11.506182641542942	6.835736257460663	6.1972012363372135	10.735452624873126	15.082135162421757	12.854340520829602	7.273464661354285	6.053031429267126	12.845023122781836	15.962531049481198	12.129307716263648	5.874119266938074	7.080873948339553	13.527805294214716	15.13418098443391	12.48513504690824	5.507431493205668	8.540225007429704	13.731142963073896	13.78824802732181	11.304039926599202	6.221117957620824	13.304772343422838	11.19736287150965	9.902556394371008	8.290499666263324	5.906057819713881	5.326165662669668
232	3.5707683473079186	5.671545014367249	5.928407654099592	6.516573889492057	11.202108354896106	12.88027569379879	12.045561760054188	7.013014775689836	6.473959429608193	11.270606012499044	15.422844847840844	13.263862576375248	7.575239162392914	6.195929511639497	13.220799412726647	16.221382100158227	12.34904572230066	5.826549515318673	7.224721413491509	13.823806727793556	15.252718886966662	12.65881153725344	5.670150265683026	8.823592163696693	14.009925806913493	13.7907476076988	11.335730524053371	6.245648845162649	13.51826378270316	11.242453546749811	9.864547704586599	8.565728165934651	6.171910270367132	5.366074071687561
236	4.322891701274468	5.675103173232777	6.007842048735466	6.748432142385675	11.655643433707095	13.157182660262752	12.427146880245564	7.047411900847132	6.730490667516422	11.739114731714123	15.656266172935107	13.574840511381119	7.488524418043977	6.482198698843982	13.531587566544033	16.374729115151922	12.51940628705609	6.093731864802795	7.368052940839593	14.005681002541886	15.295806846147425	12.768405882069514	5.922709450073452	9.013214088571948	14.153133356600758	13.775589908152108	11.356193513808837	6.327396853684283	13.564558948601903	11.264324159792737	9.85311124221313	8.690346695893457	6.3902964430640505	5.439859853361622
240	5.145004736308207	5.533687100744359	6.069519504481844	6.92433880011416	11.890013664743785	13.280697789040262	12.614025084119445	7.095262032714848	6.897119981518331	11.989313095340245	15.741748770070359	13.756621326046679	7.23914192279348	6.810943109482489	13.6751632345165	16.398019749248395	12.657448736658736	6.702565653091076	7.436602573692645	14.018741572272095	15.243020019193297	12.82970902064765	6.249762042478924	9.029806114286892	14.112242663039446	13.720682109523647	11.380397767898117	6.472752077926671	13.436670269420395	11.249478311746723	9.884984945135585	8.62867830005306	6.510543329967487	5.551222787193006
244	5.748593792706655	5.358882890522856	6.178340896266423	7.041475278242491	11.856677025423656	13.275306668143228	12.667917219603497	7.321722965828392	6.970962506814074	11.964934318851503	15.714062651060669	13.851914370850032	7.155202847535436	7.061697942070829	13.620653118076977	16.325860935954015	12.810144392095971	7.539679031409697	7.371314030156311	13.867588008200597	15.117248496988866	12.888819661977902	6.617556078415568	8.838323570825027	13.89330765077482	13.625418628624027	11.428693742507626	6.665264589647655	13.173183407903018	11.202678652135877	9.96687409745569	8.400329568634957	6.521185381637396	5.682175621945389
248	5.983994945676777	5.284054742823595	6.378084166636143	7.13190506088161	11.633657426072174	13.237079586940915	12.70945927272127	7.803372840253211	7.021710854922031	11.739224404260233	15.671530684004965	13.949955905026329	7.471566181392457	7.1721386728405765	13.434054340777097	16.244850117677103	13.028640714176158	8.394063928391986	7.177171212195547	13.627135242389224	14.988228760070959	13.003098455024336	6.986486417297341	8.480589845226753	13.569038356854753	13.527884449182777	11.5295200056808	6.883237344529455	12.852957693074304	11.159414263207024	10.108822797048477	8.084283808324496	6.4626388386638745	5.815562710384254
252	5.87736938900018	5.3955807549626735	6.670986635531645	7.244379978963117	11.393727273784874	13.289357151811368	12.85470291706892	8.478327729753948	7.142421704379228	11.48637101134394	15.738092382750487	14.141483271180952	8.192133882820269	7.1612925348674725	13.25644775858391	16.26604076093415	13.3439836165172	9.050616241492651	6.925218564668824	13.419281925653262	14.95486160317278	13.219250645640713	7.32500455914286	8.062686899809687	13.255776371866855	13.499954189548705	11.717710465410741	7.118330460696156	12.566018072827077	11.177670450599896	10.331594441078318	7.788020114309307	6.409650309592335	5.955274566873557
256	5.587176785667904	5.6924805497453	7.021725636873898	7.41648767506179	11.324574441928217	13.52741047304872	13.159249272501187	9.178043342306184	7.380723457775376	11.401523561301811	16.013242681128066	14.476496659922528	9.092942214896532	7.096218091214631	13.242557492200522	16.484735447271646	13.75468250616632	9.385189986375474	6.7114844152755895	13.363968815441352	15.109463653563697	13.55632492457484	7.617083053431068	7.705270747757975	13.065117803012283	13.618461574503408	12.02343079392354	7.380415897809113	12.375027625311235	11.310208292062145	10.658711406499986	7.597053508651315	6.43123195931812	6.126924022464354
260	5.313251958783814	6.094208225122636	7.37735412642402	7.653008918513703	11.540283173988586	13.976722681997323	13.59775444412356	9.718189214965884	7.698264102573029	11.60860058714618	16.530290561902724	14.944606743274354	9.85596654310924	7.033722859743999	13.489312137878796	16.94247622980737	14.23095985634323	9.411207175335665	6.599936945464447	13.52758690279681	15.498443564385816	14.000618899283182	7.861465434253271	7.486122589284172	13.05466076415929	13.926224673396792	12.456450430891794	7.686526279116336	12.28800102946162	11.572052926410816	11.0970287042825	7.53268049245642	6.550553782136979	6.357334597749322
264	5.206164346902085	6.4853100612934025	7.688517551083964	7.919736842187204	12.026201217805706	14.578624688534308	14.08117767593526	9.99165723185357	7.984458426343866	12.099932640043868	17.235801653261127	15.480529746071669	10.243134472734763	6.9792613806944885	13.986296618435555	17.602495149039417	14.726468049061918	9.25502202558351	6.58502004868204	13.890603030420321	16.09303279628306	14.50950714262727	8.063781717922158	7.405699234384683	13.200660672237943	14.399963342549837	12.991229024512311	8.04024598952699	12.254500358159483	11.919277161068827	11.616143197295592	7.538620452921159	6.725257856555513	6.6438741516218265
268	5.31873653976362	6.771546823571212	7.926837901129236	8.157511690524869	12.643636671569096	15.20883747075665	14.5000190368773	10.013805364121868	8.119605043892058	12.737231222419219	17.999343826626337	15.989313085241216	10.21321008011012	6.896621686689267	14.612810097993897	18.34990687505766	15.19017883280327	9.077769256560817	6.600791914486946	14.350442850121153	16.78473468357477	15.02122493766099	8.229255655492658	7.3961434177584175	13.407541241173627	14.943428955496566	13.562817539304541	8.416552522390385	12.189074485521932	12.253742187079853	12.142373054365427	7.50692031872385	6.861673814615636	6.937038404116521
272	5.605924115332487	6.914563638395676	8.086668947783807	8.305358865749735	13.189011540492452	15.718645056139431	14.769123040104127	9.893796895796932	8.046400049875222	13.3102130553842	18.6502208238844	16.37685580887214	9.918832753888019	6.752993089792373	15.18224807720806	19.019115399979395	15.57143588903063	8.993412948790397	6.566653235068744	14.757333718234477	17.410762742907284	15.465743025833124	8.360284784190162	7.364866238119367	13.548061336644043	15.412174185941517	14.078642809608652	8.76375863723643	12.009355514723238	12.454837767626824	12.575424162586044	7.330166798204534	6.856938821646634	7.151826363626724
276	5.95775459692711	6.929503423361619	8.172691324580782	8.31972120091855	13.476334537813905	15.981357534113842	14.85113807743368	9.753850912263543	7.801588038774564	13.622288669525485	19.02838702166009	16.573192554592257	9.594321226692195	6.560574514991317	15.51256175893025	19.44131083348377	15.820001562231187	9.022294021715526	6.437879546123846	14.966654739739685	17.802373841161724	15.77499290298203	8.458227136237802	7.246227246109331	13.514015163634298	15.661272963083599	14.443898164521432	9.022714592087999	11.670271844009518	12.425133673768713	12.822673765233283	6.953448278037492	6.6482338737482705	7.206036072657338
280	6.246589168036252	6.852953416688434	8.182916620575472	8.18096254190609	13.40363499118349	15.927145917734599	14.751999817796285	9.64691159673764	7.485690097982774	13.56192299279801	19.03173823319948	16.542097049910023	9.406669592949662	6.378757937538984	15.490517577162175	19.49577517355622	15.88647266191688	9.099877334507928	6.228822692403617	14.884990654557683	17.83823008801944	15.891846616676261	8.525748231343208	7.031288129220361	13.253483738816001	15.595242460930974	14.590298615811962	9.152735687035607	11.178363771826172	12.127837150471462	12.833834615730007	6.399515612657473	6.2420568308589734	7.064509373948496
284	6.370809062131806	6.7069244215432064	8.097432116091595	7.88954399024317	12.977419820445613	15.556521376434008	14.498929940810713	9.52718636968396	7.19212053390463	13.131059613453706	18.64394373954966	16.279958683872643	9.36596295853095	6.267735465437696	15.104008636487626	19.14668841296297	15.730706175188569	9.134180045908138	5.992592319617473	14.493270837431446	17.482585862843134	15.780427892897507	8.567502953833001	6.760341627218888	12.779753652731783	15.199165305864078	14.496483766195308	9.14948079660193	10.581421825396294	11.598171204848292	12.618621794312917	5.7546090934422	5.707983002556501	6.762083990190563
288	6.280699714062191	6.485646708326244	7.884456614615145	7.460134487390557	12.292379348237187	14.932580910174835	14.117703402161402	9.290347075848327	6.9420642677512925	12.426180808165483	17.9345931554031	15.810320814269788	9.34515283132519	6.22723959304238	14.432870828428667	18.45141787638828	15.337717971224714	9.068090415948046	5.772717938153559	13.842058146814859	16.793069797079113	15.436556777127516	8.585717179556058	6.487510187935797	12.152798621966058	14.537752114784961	14.191156351499876	9.04318616491229	9.941396688157223	10.923602076607567	12.237378089525954	5.124101149019675	5.140944944753516	6.3877286749736095
292	5.984773620754157	6.173392280251085	7.5257191468013875	6.923304540320629	11.486875505056044	14.15921112300387	13.624814952783266	8.857131935645704	6.6731285880408855	11.592056245146933	17.03393359651982	15.179645500005158	9.182715392770461	6.170390590347775	13.610093082398071	17.538104966706868	14.734106026642731	8.908096290985782	5.566565022719456	13.028106656560318	15.896617849269195	14.894707642143013	8.574868180560012	6.245250686136554	11.449556321800657	13.725462878859721	13.739101375224212	8.87969682358922	9.307636237486806	10.204612706169423	11.770584076727445	4.583538520684757	4.613934028420516	6.0373949852148066
296	5.544208512613547	5.776129231174732	7.046393376679782	6.331771357762594	10.696339580233108	13.351479496625227	13.034487691395281	8.245163896724467	6.2906822999439695	10.771891566736693	16.09046931972703	14.451777421703687	8.799042679505744	5.962430462088644	12.773242918190116	16.560762363583603	13.99305244727592	8.706914879750551	5.327556596656635	12.164417236133502	14.943564377249155	14.225642168368374	8.522305467069673	6.0317606773677035	10.739244433945585	12.882722822088509	13.21702953816341	8.696057297685678	8.704078652340721	9.515860533530914	11.284546823621074	4.150491703998555	4.146607865354796	5.761738285776495
300	5.050854670170181	5.341197954044068	6.526221258852465	5.759079918626225	10.017763112524962	12.604203192359575	12.37027069783301	7.576162795966022	5.746623978411091	10.06871316275033	15.224063834853949	13.696931804407829	8.246811845939055	5.510190472996065	12.02259823624742	15.647380789351583	13.217065777787344	8.51552388902283	5.006073462244912	11.351516694972988	14.056865656648498	13.51880737706214	8.414439180110564	5.825095161989826	10.070325826015301	12.095549552896731	12.687947241220407	8.504133203016432	8.13269994589757	8.884768463591065	10.809996577626816	3.7891192340552196	3.706209888637715	5.53979538472552
304	4.592360484926401	4.945443617732461	6.078545078189526	5.2833633289459465	9.491991972800161	11.967150657957236	11.67177769575132	7.01491306441185	5.092884050862407	9.526020025997939	14.49236293948452	12.977221456188301	7.672450999916033	4.844502436804452	11.400213212794377	14.863361321116198	12.505194632428884	8.343687990103646	4.600959289378568	10.657681438240866	13.298685993950901	12.856444326366281	8.24945066276589	5.6118674136573246	9.47098634236003	11.397269220187063	12.187672584280355	8.294392564813066	7.589240054996726	8.298256853133388	10.345991108522439	3.4440288456747803	3.2413630403698117	5.297945962881297
308	4.215995301092696	4.6505374791032486	5.801935181274374	4.95554541290349	9.098665214454837	11.431374521004276	10.986171694674692	6.673478109676966	4.46892975632568	9.123105026099674	13.880147898915956	12.329261748656762	7.2175497826502415	4.1353049173852865	10.890047045869531	14.201872789766277	11.916182487919903	8.152651766220732	4.18117855923724	10.10778615306916	12.664018599007871	12.287730185956445	8.04845044965032	5.406882749257869	8.95422170285663	10.774778338885167	11.725405663450395	8.054887751269808	7.078307133923426	7.728741149462635	9.882434820019954	3.080610982746497	2.7260734966115887	4.963165270672337
312	3.905309905682643	4.454672325331403	5.722141251422123	4.765822875388108	8.76107785873978	10.931932421740344	10.347939465145936	6.5384888483905845	4.023462762211118	8.781424500228937	13.312891926532222	11.75085350884513	6.925327760377777	3.616851797508952	10.431999180204702	13.600046123500098	11.44414517374303	7.884553889395173	3.8552055261552134	9.678648924233194	12.098144500705121	11.813201874471407	7.8520130912900745	5.245766149628028	8.517574288797926	10.189594243072575	11.292880029776793	7.79027603089907	6.615838987813214	7.160689812701025	9.423109984448681	2.7075638702697713	2.1866443101988584	4.517874706305865
316	3.5849432854740346	4.275573242836807	5.761678681131871	4.633670795185871	8.36671922478671	10.37222287420328	9.762649511484492	6.472042067399899	3.8194765948184184	8.386583307072982	12.692108122252382	11.203619928683795	6.721112234312561	3.457097521636658	9.946927999178413	12.974770513201326	11.024060221495537	7.51133153926325	3.704089870637696	9.30656144653493	11.529922456241307	11.390620202869867	7.70307395897568	5.156890856120727	8.14062307209827	9.603834127974329	10.878192874146531	7.529282074038486	6.22019050935046	6.604642374529715	8.995374656854292	2.3718414246757384	1.6964164929474899	4.022893418645661
320	3.159485093722896	3.9794042009972816	5.758334145312678	4.43459986520752	7.803390960065178	9.663354849259601	9.20547578394835	6.286814196926392	3.783439149841045	7.825105647357765	11.938851326363645	10.632737132883923	6.471845133654059	3.647959461538689	9.36583611984719	12.261782615221174	10.566029521968359	7.065626126570189	3.7208232785696915	8.908221222320915	10.905188532952886	10.960706683142305	7.626355628786074	5.133666979226237	7.785831908595838	8.998098350695072	10.47677418924693	7.315353851922353	5.89843700827072	6.091205581545013	8.64000985825199	2.130044216500207	1.339777466252397	3.5926461129082004
324	2.569484704206034	3.4493894489937653	5.530590043409649	4.055662144911804	7.0091495336952	8.768549896989958	8.639018036965432	5.851133808622083	3.7344183827528963	7.034112912538424	11.031629534525743	9.996757482084833	6.082463249108589	3.9852712053770003	8.658467270925117	11.444551439000794	10.002438519973321	6.631514532512407	3.795732965422799	8.413156488158236	10.208850834820833	10.480365726713448	7.611955146644698	5.128132807182104	7.40931461370905	8.376998880217299	10.09435078933355	7.183722001058402	5.638537869522605	5.651667103803422	8.387372949404973	2.0143115469620816	1.1662654847263612	3.3345408355447166
328	1.8364645196324767	2.6619865827108926	4.96788119015506	3.459033718912653	6.019134029450364	7.736137370604849	8.044697741224736	5.166741358110017	3.4857835681645746	6.047649845113232	10.026613210158867	9.296884513270786	5.56302879836315	4.16602848908506	7.855626563265814	10.566046688106011	9.327895140939075	6.296960814790179	3.769734849948887	7.800351600026464	9.472140288279968	9.949871038111413	7.618199329215603	5.077094542082691	6.983717423926646	7.766601542891216	9.74571988506239	7.141322117895188	5.416242585812607	5.300728784529544	8.23747060603344	2.0148842283876376	1.1625094384406782	3.289089432995286
332	1.0787850591125723	1.7252387956930189	4.097819317962106	2.7197890213009175	4.981870638667103	6.702530843978615	7.449419956472784	4.377517689143143	2.96279691901807	5.0128102175989975	9.050363517799443	8.590678193337478	5.029989706691366	3.95993708564421	7.054744702647466	9.720617269769324	8.613354661175734	6.10673092253975	3.531126013423631	7.122530919212163	8.765388466639052	9.421553587968235	7.5987243460494405	4.947027670768012	6.523039324503809	7.208298188130143	9.452553725219069	7.164389592202182	5.213636385152263	5.03292559306701	8.157963732149703	2.08996796080305	1.2594505516679104	3.4069552335552475
336	0.4760145831010809	0.8508942701791216	3.089611999340593	2.007181639372051	4.123693455775198	5.855429157732332	6.9270305458654216	3.6985328104100272	2.2618527355308258	4.154514779092158	8.263516405223053	7.97897384536406	4.636753547405871	3.3471858416926006	6.397890074789263	9.0276403199198	7.983963946212057	6.039718612680864	3.092566959202517	6.499520285409137	8.178656557414842	8.982288337917606	7.534102420858591	4.765704142936015	6.0910682524437965	6.751201612593526	9.238809562245537	7.2125878151945075	5.035562979382373	4.832915770726528	8.101007441094774	2.1920750085799225	1.3684763873835524	3.575107327018033
340	0.19611880133704673	0.27239692142377514	2.193429941361536	1.5178115329568347	3.6690082457415274	5.369828687461773	6.572761995887061	3.311161748155623	1.615437145922939	3.6965865995537346	7.808605651214121	7.570404033620942	4.481835353979863	2.540497773432051	6.026606067700542	8.596414544336179	7.570508460958325	6.0257487144922575	2.599869959942917	6.078934654146794	7.797103385312986	8.71834180538088	7.450077514912286	4.617739665770527	5.78414152592379	6.444110377254355	9.125280357209904	7.251151066592506	4.91239641856663	4.691703784541305	8.029159525626758	2.2935185374528304	1.4252599441783589	3.6771438028956696
344	0.322481810232412	0.1482494320702786	1.6447895723777621	1.3926864827280063	3.7483343983427617	5.342595086914076	6.464236719976979	3.283547154719484	1.279959794627604	3.7703900242026043	7.760632972197056	7.4395494273229	4.555966842592748	1.8848676633930221	6.028907760657377	8.492370584027576	7.457655411011318	5.996209129453312	2.266613000869149	5.977874740766692	7.676514129330823	8.679190613768302	7.4117836765079925	4.603478896916151	5.692471489839317	6.3247132141646905	9.122940994117666	7.26815794063404	4.885342108789964	4.616096008090351	7.934580306047433	2.3968231617495066	1.4179238045179259	3.6531534102713032
348	0.8147370794706966	0.4944973575504949	1.5765110214484643	1.6562182861474304	4.335367668650196	5.751878723881222	6.625381929836239	3.5530905633864864	1.4060401881004805	4.35169600341732	8.097668627321465	7.59638689030583	4.758248793986333	1.6819040732835076	6.399135096606188	8.713562943393434	7.651085357422368	5.933921322145975	2.2639894428313396	6.229490741260573	7.824297408376651	8.856510139992977	7.491151313941885	4.781404483167372	5.855763420579388	6.406370146789337	9.226001716208538	7.275878887880172	4.980362402739514	4.62387131477238	7.839686373944487	2.5237238343417108	1.3844026292180371	3.5246801287353153
352	1.5212092361190326	1.1796674698609815	1.9788458297359501	2.2077450696518097	5.24856566057677	6.461550696271602	7.01260421889766	3.974922408558646	1.9604412267779618	5.2612914906227655	8.704613663630873	7.9803843296744645	4.967802988861312	2.0306806513061297	7.031251412759271	9.185883498841566	8.076085070247052	5.889468178184721	2.62571381859654	6.7608237095846135	8.191866854012348	9.186982131651291	7.722960452608333	5.128315435813234	6.23600004529077	6.666093809463677	9.407097792716646	7.295321446119658	5.18526123645071	4.726260173309039	7.778519133956098	2.6900038651261178	1.3812738622123868	3.3710641775850725
356	2.238016838145327	1.982987875700224	2.7212057044943623	2.86771940460968	6.219425185713477	7.269210797076695	7.527625064917913	4.399135101655703	2.7414929797574725	6.2320589861881714	9.408755278674375	8.47911546473731	5.116363512473049	2.782901756889864	7.751133899192475	9.77949044619539	8.604215600224686	5.945548042545086	3.2268657602855644	7.413915138599779	8.681305863396751	9.573768591551215	8.074294069885363	5.541979298904576	6.7230405637754656	7.039341908802077	9.616927122631214	7.333880405983243	5.444449887834896	4.908431994443338	7.7704281610761345	2.883747331967895	1.4440559112329545	3.2743835366548515
360	2.7860810686341564	2.683669083495383	3.6136896519023116	3.4525370510671176	6.9938139738889475	7.974791983497178	8.047441462226109	4.730429160572684	3.4761199863408283	7.009480458682158	10.032113049927696	8.962331749222873	5.214875208086148	3.6290638355182807	8.374384858922628	10.341550800916462	9.09510991661225	6.153852924068728	3.8460879228762312	8.001202563111894	9.166177726491416	9.91672227263114	8.446420648230502	5.887289986051549	7.171765786183803	7.427401047074031	9.791971181942689	7.37201021240553	5.676064953778444	5.120906816904937	7.801546553941904	3.0620090884148	1.5622538288727659	3.2674860871788574
364	3.07039927661078	3.1356377522456294	4.467874515697241	3.837625493850966	7.41632555042841	8.438028314267315	8.45473954927151	4.93997906391325	3.9421458144794115	7.436062317193765	10.439092609752223	9.314328170148134	5.3175191745018004	4.260368336411573	8.763218857574707	10.734242412168662	9.432732558276925	6.483770354113452	4.274417389568241	8.368916490406162	9.520610785288941	10.135972951093699	8.710770585002047	6.059250816305866	7.453258018749471	7.717857818191284	9.867784475208309	7.366837482926402	5.803393349300477	5.288542734145271	7.824194888387897	3.166991225829799	1.6816730456809414	3.3138871109264523
368	3.094210378464115	3.3000178253779726	5.13679693832478	3.983509768919045	7.462025146718059	8.60506341668983	8.659631707262509	5.036267744700417	4.054769505753902	7.484058838068679	10.564437839538297	9.45566651817996	5.4514856200864195	4.518835533177219	8.8606061711716	10.86772439120177	9.545509314278812	6.815113527257604	4.411008346864984	8.442559220933122	9.649742102101587	10.181374524160223	8.761493660740683	6.0292830314999355	7.49810264601662	7.814026812852045	9.793408369133884	7.269832592729421	5.7869171950146825	5.335698591112396	7.774703959862947	3.1553356567826887	1.7322235063687437	3.3299422180026164
372	2.9275650904174464	3.2290534891618767	5.524104581237303	3.9198050399996838	7.207416993064007	8.499465920923724	8.611144044115886	5.024584280679623	3.8755578896902545	7.227982502808227	10.416038486885624	9.353547072637005	5.570635781528758	4.4502673036750435	8.690408684723867	10.719267818090259	9.412404036599733	6.98814867162664	4.29362439025217	8.237891176405913	9.513587927640655	10.033684705197166	8.560589768730827	5.851591572292802	7.31402109206854	7.664630393704089	9.545626616219433	7.051342469532277	5.640923008981916	5.216837392987199	7.602066974520005	3.0239536685890056	1.6660163360494504	3.236704579764508
376	2.6588914327248108	3.017296783458718	5.5727815487352546	3.704273929780298	6.764928323832063	8.188719728776153	8.301074960731254	4.886362540305943	3.549366703608901	6.780173761415642	10.055613492373247	9.020988441579663	5.56742094541627	4.2405490768180565	8.327927568390509	10.331813786170537	9.056598640464365	6.882963640001337	4.053242196340033	7.836377124074913	9.134647346321998	9.700571035689077	8.151846865099717	5.627218709089758	6.971000176949477	7.2804317290552	9.135939575017465	6.716939909188818	5.423949704781185	4.936305987292885	7.292009335227141	2.815773956819077	1.4834635220267094	3.0084152145724503
380	2.357092612991174	2.752151005472141	5.264627443373133	3.3889932546882435	6.227682574761232	7.751764754751185	7.767151336133236	4.593850124204866	3.2167777933920885	6.235756381503543	9.572426771791418	8.511592843500528	5.33891581141067	4.084921349702435	7.863863925152977	9.796683286728154	8.535462357905596	6.484367354234015	3.827928056589073	7.345361214212314	8.589342095623566	9.213898635489583	7.638939838196441	5.4511227470099435	6.567153437246436	6.7324752637638525	8.608456589899037	6.307460292150145	5.210180269438332	4.548974025685355	6.8757877176256565	2.6039650374472267	1.2358087270053102	2.69049929893224
384	2.062364811458679	2.488718503390662	4.638207423897562	3.012148611093176	5.654707894353606	7.264544945495457	7.096353036130061	4.150071133626081	2.953763954334455	5.65681122305313	9.06307790375367	7.913799265908249	4.869364249333234	4.07226847574146	7.380803566417753	9.22879502827424	7.932797411917413	5.895969375983249	3.686597337951758	6.8640837496071105	7.987796286442861	8.631765343807473	7.141316395849304	5.370546804220214	6.193136676410952	6.132781013263775	8.031666735398261	5.8849315494730305	5.056590067494568	4.142444123299879	6.422014220236168	2.4625062880332576	1.0046465371516218	2.3802421032891723
388	1.8029936506526516	2.254453176528512	3.807547559661769	2.6132652693573397	5.093719946398626	6.803065282811704	6.41964147854294	3.62097405473121	2.765684120824936	5.093420969501188	8.620835282494737	7.341711025775485	4.26956938619303	4.155910481450694	6.948298436741901	8.742449738364447	7.351418953454832	5.2959570750994525	3.610377064172638	6.46806286132474	7.448780994682405	8.040624598229648	6.7525129147752745	5.3765539987240905	5.910568699219095	5.604543671762974	7.487700443436682	5.514036164667264	4.982344137964003	3.809437980570692	6.017082676000953	2.4379754004914322	0.8704325534778756	2.1827061121192015
392	1.6171370703876413	2.066512817887415	2.958179466408268	2.249893182796128	4.610742080491564	6.447351916247636	5.886049255769037	3.1300690095076136	2.6243195467494744	4.61200283793467	8.326839425998235	6.9145507637924375	3.7380399609603057	4.215138901558725	6.626601679283843	8.429212548908714	6.898666364418479	4.855769621987187	3.5330917746033603	6.207663520398934	7.073373299859955	7.546425800344079	6.517660124535701	5.425600515018717	5.746387467181219	5.248967634300121	7.058495980561579	5.2464713917832295	4.967615115021454	3.6192111877617843	5.740245804599069	2.533948653499245	0.8836005903823432	2.165130609767946
396	1.555821176415557	1.9455628345959828	2.3045327605237773	1.9951269576245318	4.294257629996665	6.27202366199059	5.618949875950234	2.8138005662448355	2.5147311623978625	4.299253929727703	8.23681924647698	6.7255477735469675	3.4653108032473914	4.155218113898731	6.465092165836635	8.339529016420299	6.6626615356075956	4.667371738093949	3.403475752820624	6.109597190690472	6.922145826029121	7.251005154422464	6.436339362106739	5.470965848461309	5.697076783101616	5.1182198395252465	6.809576017353372	5.11280392309605	4.969163882107387	3.5978486447096403	5.641172871652183	2.7132065227671216	1.0495449278082227	2.3326752126927146
400	1.6578710037335895	1.9132446002339139	2.017028803501242	1.9108657788669339	4.221015919518741	6.319218142767432	5.669500336638036	2.7596065928404023	2.456074231622495	4.229114998630372	8.362407663213123	6.810188753100116	3.534203997272061	3.9773235220627154	6.488170130561084	8.470150926185726	6.685904962825523	4.716467845452903	3.225981227359331	6.173159106881313	7.000481111018111	7.219146710289031	6.480773432581712	5.483109460338608	5.735466465774466	5.202466951586714	6.773363096302222	5.120174395031786	4.94248341266181	3.722940912383925	5.7251024101670875	2.9141497538424304	1.3299713101187076	2.6321453981701457
404	1.9080651950345882	1.9757533023542317	2.152505869199234	2.010568136861059	4.399403084137936	6.565793497674674	5.987607463978203	2.961072914276939	2.4832687315233177	4.407953251200089	8.653825738038886	7.125299912582856	3.872049321889054	3.7748138809266645	6.6725115607597285	8.759000756083891	6.944656354536741	4.909155833247663	3.054857484734126	6.359787924922083	7.253892403408094	7.447830181391349	6.612247450346696	5.449050889562781	5.814270004851629	5.432895646683647	6.934413892404398	5.250682817553847	4.857979762209878	3.931164016335141	5.947809204343577	3.0716359537774576	1.6561605888514335	2.9762315674979445
408	2.20627831855688	2.109723324217528	2.6253497534271713	2.2368860188275033	4.730569827533999	6.909150106152264	6.430399401641999	3.3162872707562077	2.6058456831944317	4.7370624422637	8.998731590439567	7.553147773746297	4.286133278515712	3.66079091101496	6.933147889752564	9.093465782094917	7.345887642433641	5.132354246533018	2.947156660268495	6.58657882934827	7.577193717899454	7.854105929572144	6.788551313426962	5.356898294275425	5.868884071791379	5.700623974712532	7.223668080211699	5.459880815072548	4.704813945335842	4.135972012567929	6.222924216771537	3.1339723984748096	1.9479782532147623	3.2739488995862467
412	2.3781723916092172	2.2636024894784343	3.2430579580443655	2.475053780982535	5.025022017189748	7.1919908341979255	6.814532262763222	3.6732196715121446	2.7774236132116785	5.02932642620598	9.249955153953238	7.937610129343006	4.5640778426333055	3.6819610502742544	7.1384801684394725	9.338473296429946	7.751737098196079	5.309050069756338	2.9118602202330983	6.739672166974442	7.841661433448778	8.294342973748739	6.96503446727826	5.185338960907301	5.828486904687561	5.889634594352514	7.531115036069991	5.680462346040291	4.486760604974509	4.25314186929725	6.444238646449588	3.0740621012322698	2.1345472281923294	3.4555067928809087
416	2.244120353754917	2.3753700196375327	3.7887616061874705	2.5998556548282075	5.079011427453828	7.264008503693833	6.990429860585724	3.8954908749457147	2.902642719569725	5.084064947643706	9.278738952098339	8.140905359695212	4.58208893572748	3.777997961042527	7.1574005899920445	9.380489325681776	8.025104502443638	5.419899449969634	2.894390337312118	6.711295587761418	7.935870627394273	8.612491585921564	7.097684365472404	4.911999213214849	5.638594613144289	5.915317043628493	7.738505820763665	5.83705995993325	4.217710007509265	4.228496540837744	6.5205054118515156	2.896010391553023	2.1741840784493114	3.487943163648624
420	1.7175178484468874	2.399043792389652	4.106765259864568	2.533479922573915	4.775930869442178	7.052499276475157	6.900370103580437	3.9136242767706597	2.8817143367490288	4.786277758911904	9.030372596829407	8.094215372630478	4.352836597896863	3.811128129873676	6.918423158344428	9.169938064311511	8.075647333736928	5.484457002144288	2.80593561417729	6.4452214078301635	7.804185847605895	8.696070649126074	7.1521940050747705	4.535087097162067	5.285769926077322	5.752796635408446	7.7600106997071725	5.869545444928137	3.9187369247680057	4.05625389982364	6.408819182427686	2.633779995944339	2.0666811414038357	3.378937474302865
424	0.8754445888350946	2.324498170705913	4.150005806935573	2.2804570140483076	4.1552982225411075	6.604191763416351	6.593826754134659	3.737325420480542	2.664665930696071	4.174115647267768	8.554018952707377	7.820426444336132	3.9929737943925874	3.6457097438319668	6.44894502918917	8.743100144246595	7.888907889475733	5.5217766622368325	2.5778751308205927	5.967199310495793	7.467246036750043	8.516230561689502	7.116109353218854	4.091422070663804	4.811126696837448	5.44389627989562	7.5749506759129295	5.756669506797594	3.617958536550347	3.7812566661734595	6.133054240954736	2.342383140372062	1.854164595690999	3.1716117778811217
428	-0.03712399667069238	2.179686063985347	3.9700026411913063	1.9224477957825774	3.408965102171999	6.071454509664948	6.1928400836992985	3.4300939950172133	2.284545892669576	3.435225716500839	7.987030962805877	7.417490940440116	3.640501251566064	3.2336330332176972	5.871328339058157	8.209574678674672	7.525248031690272	5.521222100623243	2.2094862405305924	5.38227461409661	7.01295850890531	8.133131960361812	7.004958135085177	3.6565990355677798	4.303419102294091	5.078387247615316	7.235506993145675	5.527364716879706	3.3504459773350046	3.482556811123161	5.776805863100514	2.0836727566563464	1.60884725641321	2.932167522656803
432	-0.6913292986581563	2.0124216028903152	3.6612751391478926	1.5736291368808502	2.796408407780446	5.640471444194237	5.822716221413557	3.064732066999844	1.84591090213121	2.824023478053742	7.492225628056605	7.006212693645242	3.369264355735979	2.6492676668036736	5.348862157668517	7.702710132224889	7.085566979638739	5.436020837410621	1.7747832491888418	4.831536757668486	6.55546854271417	7.660277824134999	6.853176099640753	3.316911927431877	3.8663232228892292	4.7522849916637435	6.839692575352286	5.248033987146717	3.149754277860013	3.2395274557339433	5.447139249400371	1.9053399514730485	1.4061033690237827	2.728516333366896
436	-0.8228064754693052	1.8618363095006703	3.2996375477452657	1.3209423985509274	2.5175371106482243	5.43419979630804	5.54570816547231	2.6883609227016767	1.4724202118891858	2.537492268831485	7.175848942759188	6.668780786843367	3.1566517273360066	2.048717732025361	5.005287157773021	7.314088326107677	6.661067945828904	5.211181150630874	1.382189747181693	4.426743019371644	6.179462894096842	7.205712300227735	6.6912989447454985	3.126763097498138	3.5725109486981723	4.521157253294648	6.481165869561922	4.9898137920283965	3.0324032230110323	3.0946326177666377	5.2243432866755235	1.820320244007954	1.2927306857849359	2.605044119933516
440	-0.3710676422287326	1.7395997003503647	2.9176177904852856	1.1860600679970024	2.611983292660747	5.443859563434531	5.337021337385912	2.3204963148657973	1.246043321324563	2.616608136246483	7.030669671427733	6.411222918536119	2.9260318205391154	1.5879058797799854	4.862175929191471	7.0467090428777155	6.2930431207082735	4.827870833605475	1.1149940462571764	4.197776306998069	5.898412212738556	6.820848447744833	6.52417705796041	3.077495328762664	3.428981057092777	4.372000683236662	6.201338752348496	4.792199599564677	2.983836404896347	3.031433097815117	5.122344957770447	1.7978655054477033	1.26542699017516	2.563720935070806
444	0.46677529694009695	1.6289341408610916	2.522865050621955	1.127011296287871	2.9367577955486563	5.526697144859908	5.113590704405098	1.9780427167542742	1.1724173993073868	2.923877470263793	6.935715181005849	6.168197616262735	2.6280646257805462	1.343080755657509	4.827586638659904	6.81252716251804	5.961225971430064	4.3295750508669695	0.987018225085228	4.080141057203517	5.648662076040013	6.482466204489059	6.324876292472385	3.0977253835669347	3.371676198076081	4.227787483985287	5.968758091162024	4.6421203496078975	2.9550573751228155	2.9788575097215393	5.07922409682585	1.7721281006893808	1.2694921461478679	2.5600504810548044
448	1.3063046899239437	1.4998786411564078	2.137159818975528	1.0756112309955854	3.23370885032566	5.473870740421749	4.793129908857983	1.6989282326719832	1.19086253342372	3.2084739127215256	6.716022951335908	5.844924912000796	2.2952847422823557	1.2826199499172135	4.743981826248915	6.478856070373418	5.604444489634318	3.815139999294089	0.9429079270398575	3.9503810305993667	5.324685083297185	6.116142257507444	6.052046760537922	3.0882081907503873	3.294510117796053	3.984751929713028	5.698306546129516	4.482308853276764	2.8762626575330565	2.8421347069508864	4.985033499529479	1.6682233768306214	1.2214807241117973	2.5197033818524717
452	1.746218200089514	1.3316234316584208	1.822867150472776	0.9838472579911831	3.252016774550067	5.1180505623345125	4.353007305599069	1.5458325108600266	1.2185759513606473	3.225023499929498	6.2359428248319295	5.3773040635720495	2.038184399227248	1.3002947536064147	4.471339214479997	5.9435238688136245	5.165062414480223	3.4002745065671096	0.897505579112953	3.6913976576112693	4.840255725084217	5.649793610613572	5.683053955988582	2.970952264914228	3.0993916910120687	3.5658769517514206	5.302846895180934	4.246381748922471	2.6837115220023557	2.547343247657932	4.735042083229494	1.4356118404382336	1.0469427082331886	2.3714728295533782
456	1.5608128269843142	1.128274557126051	1.673659558838991	0.850288448571154	2.8636867927729375	4.425882805140417	3.8541779420818805	1.5808193643712416	1.199938055823597	2.8461804318094464	5.477689252374998	4.776848780969401	1.9788200805294722	1.2806371418091214	3.9605514903210035	5.198533521878627	4.63170861028482	3.164678565618353	0.7860374430838056	3.2523248113534886	4.1820535554203335	5.06621931704301	5.242107378122373	2.723655932225603	2.7411172320777575	2.96237420287839	4.748392569951158	3.9003224274390096	2.346652740275833	2.0761938042673918	4.28022860400059	1.0713516446721112	0.7146188598710232	2.0800895638400756
460	0.8173443058358791	0.9210520363441533	1.7671536162582757	0.7134326082336985	2.1165375656096255	3.5250608832051795	3.4126784715321303	1.821337218454544	1.1331495018006326	2.115236515426753	4.561208236622484	4.13262843042305	2.1571531241313484	1.1599636048594593	3.2777058995462434	4.344867695329092	4.053521622914035	3.112202874909167	0.5963913187228334	2.6711242131504687	3.4241623792027216	4.421887386601921	4.800976264276406	2.380761140534566	2.2438800278277897	2.2399635258387764	4.079115857315968	3.464750758006496	1.8796788406598457	1.4729849062923621	3.648592224446027	0.6210967882687649	0.24986959930753255	1.6622941452019144
464	-0.14696685932723993	0.7551542501457259	2.1100661701334102	0.6193201526264304	1.204846617517747	2.6510546140495284	3.1368110100704256	2.207792514948931	1.0594137880280572	1.2189210622530255	3.6935870554176313	3.5702299981576666	2.478375190199613	0.9460425353006812	2.568537467193655	3.5484435468729503	3.5200188071070695	3.167939178097914	0.36550080683934516	2.0508167691904715	2.6947982243211666	3.821907272226222	4.447779644226979	2.0043396899163355	1.6834042029794272	1.5075777731026065	3.3984906587627757	3.005539409678588	1.334954377618639	0.8217943886035743	2.9284179136727397	0.1581881489336135	-0.27800345350648276	1.1782392233664796
468	-0.8844203330598694	0.6715216023656977	2.614605897024243	0.5860408529744296	0.3777121295929384	2.0418848939841405	3.0677113455567753	2.6085379057828493	1.023513433733321	0.399553178732131	3.0747430246924643	3.191317073394115	2.7442364623402677	0.696408568054512	1.9842822501628985	2.9608569070448185	3.1185142915192086	3.2130393900812146	0.14664217792680695	1.5048773250732306	2.1135642475171568	3.3656740103623535	4.241251457950317	1.6451113182494472	1.1468216151846928	0.8662750699106441	2.8169922757552097	2.5978925162528417	0.7788259367352832	0.20761892147097558	2.2246582451919936	-0.2493529760502462	-0.7870361785091405	0.7028588634865298
472	-1.0507181856330192	0.6930931193018964	3.1245987336425185	0.5917736276944529	-0.1641043122439864	1.8350634528559238	3.158668510091535	2.8663206028096226	1.0379488441964477	-0.14465573393539277	2.8099560666665293	3.0280301494441924	2.7549569537225027	0.4801518010891401	1.6135150153430753	2.6497919492577946	2.8930468486222725	3.1422333638012425	-0.024358490420473417	1.1060899468152405	1.7364268259076918	3.09538864307906	4.1784815682772525	1.321958657741782	0.6959481817794293	0.3687382331121468	2.397319072392786	2.286779636331539	0.26793965629640254	-0.31471517602617555	1.6156020123699717	-0.5642876014767695	-1.213884350572932	0.2954434745005064
476	-0.5664896950724365	0.820555148437178	3.4799177558777483	0.5945257529507185	-0.3344551912446626	2.0168101736647577	3.3017508900250863	2.8678555416180034	1.0750328275241454	-0.32476502574941357	2.8736970352098226	3.0351076049469534	2.4251587329670286	0.34871643693619553	1.4568382464820544	2.5778033668284643	2.8273904252193134	2.9178183005098037	-0.13973276281840466	0.8672319032708076	1.5401753148293877	2.9779879971657515	4.19758700264674	1.0322140429185072	0.35416769891965527	0.011987081698611166	2.1299641078578313	2.0685324616658853	-0.16126131970699004	-0.727053521228026	1.1338583202345118	-0.7843082527385925	-1.528733488037902	-0.015861598734744076
480	0.35465180784329875	1.036356088882781	3.5842668919668315	0.5677982554405316	-0.16935118990102738	2.4451999602571277	3.3855674181337827	2.6024861270047936	1.09052848540586	-0.17032830374152458	3.14106582802233	3.123164407474265	1.8476920081218913	0.32990762508068333	1.4534172975084525	2.641123764999284	2.8617992328869564	2.5935070449199196	-0.20709797687695392	0.759936628807205	1.455138798854509	2.9318551943189686	4.215757359351353	0.7811009268113265	0.11993917792556098	-0.23434098005734036	1.9533294389998967	1.9040375899879942	-0.4861327099447368	-1.0288625929605382	0.778732536257156	-0.9253382659437748	-1.728287692474872	-0.22766427638271486
484	1.3247535195282436	1.3092632260645454	3.440368643657654	0.5266256915147888	0.21386113708860782	2.9275989458555935	3.3500327979384648	2.172378534554334	1.063064334092754	0.208203464220812	3.4639575393958273	3.2106881060600516	1.2614998785594038	0.4387443352589305	1.5373724660205461	2.7431549956681938	2.930825941315586	2.2946629466296287	-0.22622872831924637	0.7546405773183485	1.4247442447930643	2.880573742269487	4.179395188270063	0.6056145414320909	-0.0064592598774371205	-0.3844451894590567	1.8041444971310692	1.7539462998930004	-0.6830058676641563	-1.208687063980219	0.5469529018897981	-0.9961910818697776	-1.8152173711723267	-0.3403204074850424
488	1.9770564983043106	1.5967121083954472	3.136518708893185	0.523386715521227	0.6750197989587332	3.307931891672689	3.208129397875594	1.7473672584285929	1.0190720532437407	0.674788473332944	3.7459800148800784	3.262975207673645	0.9325293875038355	0.6852073056087324	1.6844557481198998	2.8564658092859196	2.998431913434936	2.158621067319171	-0.17837612285877902	0.8510673024624676	1.4523916207837473	2.80065845736078	4.094120492135263	0.5679917321169842	-0.006129762142321651	-0.4086289693529088	1.6659685331244611	1.6119509894681179	-0.7196627837131164	-1.2292629449326034	0.45774990204634947	-0.9833359097449461	-1.7809151366092735	-0.33999699268330763
492	2.13247656283806	1.8462880803223964	2.8008782792901563	0.6144821032268716	1.0965907546013696	3.5187160879941475	3.024171821588333	1.4881262741664263	1.024269339836454	1.111677405411668	3.9735870261004695	3.295951596521662	1.013653037373023	1.0660859319473688	1.9179265450692	3.0326988620483717	3.068469516636404	2.2642161788994923	-0.04158831749787244	1.0758426162260193	1.6019048650351688	2.732499115720732	4.0140628713351925	0.7162544709241753	0.14930789134952765	-0.24449810323974203	1.5829909999935052	1.512743826861536	-0.5670022354115661	-1.0418660614411963	0.5510640130435116	-0.8582789876249239	-1.6063159663652795	-0.19930997440561943
496	1.8557524634238063	2.000286574081842	2.545302146207397	0.8172181824078528	1.4027693236220442	3.5774071126262403	2.865127079405654	1.4733223877902284	1.1442271442134602	1.4391462766552012	4.189850796611585	3.344249716898378	1.4599267207479383	1.5434473714007164	2.2714538516870055	3.3526923571816276	3.1640815654977903	2.584142916830769	0.17769339635808423	1.4483057223947102	1.9472850511977746	2.74618744156813	3.9984140295167916	1.036018607384915	0.46661758305041945	0.15554779728718068	1.628464813889315	1.5085289440215308	-0.22654956522010108	-0.6250503643467348	0.8572767355255563	-0.6048424824702645	-1.2827937570609398	0.10028928492974677
500	1.3766823972276412	2.008156056102379	2.4286980567648553	1.0854796143782628	1.557613964916585	3.542038670180137	2.757993452738274	1.6692135291871302	1.3964502776174905	1.615846510622223	4.435197819002397	3.4193918618655226	2.0520932622597585	2.0267312475532835	2.7374803950813242	3.849867334182607	3.2939093029782343	2.9858214779809344	0.4221453358005643	1.9397311161658821	2.5036754544942568	2.8862109111395315	4.065849770771093	1.4298733436723265	0.9011256075996019	0.7711611370643884	1.8501332951564382	1.631816621475152	0.24683722791340174	-0.02123281726840805	1.3609664405793929	-0.24537141559162495	-0.836337564264183	0.5418608770994926
504	0.9374260282690605	1.8471971703622154	2.451719277867621	1.3243744339884294	1.5577979048498973	3.461117020451583	2.6808404854800636	1.95731424791165	1.7280728773356437	1.6337913233515748	4.697413909496371	3.4893422038672597	2.5158111985584655	2.387592786482894	3.2389829077006502	4.456786621285537	3.430353394430621	3.287972918792172	0.5937343820840336	2.4568617281872793	3.1842126765919834	3.13124393626246	4.178082932414001	1.7451748803899996	1.352237459583365	1.4907895288975563	2.2275705281283664	1.8692127419008697	0.7456359248409304	0.6546638591450147	1.9834996411789734	0.15219473800380676	-0.33825582180452496	1.0611578199297818
508	0.6643671376620812	1.541473861617186	2.571232073967858	1.4383733236237055	1.4309422933690294	3.350357047205224	2.5903005534576784	2.199787849594385	2.0345821329246974	1.5178090295617603	4.9062943334685105	3.494910469768118	2.6639840535615624	2.5107960637597264	3.649559965456157	5.014214026189204	3.516700974168669	3.3441717540232085	0.6020219906866141	2.8679213451456693	3.8159475230194673	3.395856371888933	4.263410557473228	1.8439390612777289	1.6954251484980885	2.139699930510863	2.6687092713688463	2.161740297581681	1.1421910495530734	1.2464779583931678	2.5984990531165444	0.4946083712011088	0.10822629901264354	1.558899637101144
512	0.5331685529599091	1.164654848019307	2.7216763427683204	1.3846540416090651	1.2370530335664995	3.206071368705985	2.464098447300478	2.304726356409519	2.2097754422663125	1.3269661631460095	4.97747896845114	3.39427899457358	2.484245532439431	2.355697625888373	3.8546671770049614	5.344277845241126	3.501681795816086	3.1151847760704614	0.42263692510710815	3.0617914122526297	4.2138986481133704	3.5755984692897425	4.265301216800729	1.677651877935967	1.8379142237990438	2.5508849556415436	3.050228349613977	2.4322862563712744	1.3417981829144703	1.6170895058812307	3.076065532547402	0.7026903611561752	0.4029878367739964	1.9342671583931172
516	0.43219458947735606	0.8205146172788331	2.833588116167411	1.2000751465062343	1.0633426877831522	3.0387995166350197	2.3297474325487393	2.258360141774385	2.1997017804875467	1.1485788793175242	4.876919734085887	3.2064609446632533	2.1247713512181097	1.9924662062884761	3.8186128043085144	5.348844037856551	3.3810369883051328	2.6925392082898827	0.1271683570512147	3.008343450580322	4.275427807503922	3.6092429069947154	4.183082570005138	1.3205825057066822	1.7677904322814482	2.643283598901912	3.2787933266827802	2.6226367884224238	1.3287780251333172	1.7079831318648202	3.3333926116706625	0.7480261902996783	0.489212809758051	2.1233968681130593
520	0.27563279797581647	0.6056320651976106	2.846686117614444	0.9853205655970215	1.0037475799013889	2.896496765453162	2.2562739792125135	2.112661833197536	2.029279703738866	1.0771388980373215	4.661429870280582	3.0200245304153324	1.7932307674909602	1.5827565153215508	3.6152734665192847	5.0744557252558575	3.2153179564359355	2.255328887967341	-0.14055556023396798	2.7831950117414186	4.040373791984095	3.517652264296882	4.073167313782403	0.937558469789417	1.5660117825070767	2.4631104407111755	3.3350808536250183	2.715585224924812	1.177124735721283	1.564878459794179	3.363575688452978	0.6653913838753156	0.3779635121816439	2.121975654966623
524	0.08642572142715126	0.5699042663490634	2.724932663713468	0.8544092752819413	1.1262837619955792	2.8554024624258116	2.3112273157894676	1.9416922281833306	1.7887012913366245	1.1818832129202677	4.465193260363433	2.9538471624183513	1.6308700997185084	1.3103976216610465	3.400934687610975	4.702413070250351	3.1062672059788405	1.9796845862951118	-0.23411393106480294	2.539345258023584	3.679858913667623	3.392817727105956	4.009401788125524	0.7012830358919366	1.3714237178509645	2.163003439210572	3.274100056965015	2.729918473027052	1.016448972043088	1.314462777633754	3.228356830075501	0.5339785204757169	0.14402288162108787	1.9815727422275395
528	-0.006996246968427312	0.6945243460286296	2.47246288628998	0.8777890183221259	1.4424072467626297	2.981149904353813	2.5120646890159226	1.7959046318488334	1.588312621874906	1.4767887555030341	4.4364218599844145	3.0918357294222587	1.6397463041867597	1.2985056605933536	3.3411052142665465	4.465859878708918	3.144488088298113	1.951233620485596	-0.08089790472825135	2.43857955316935	3.417095652535993	3.34470390429042	4.029675950366817	0.7053530794455035	1.3160985675008399	1.9295912932315828	3.18551301151912	2.6966836384399415	0.9698410009693557	1.105324265550389	3.02280735206358	0.4389213014488218	-0.10365862373168389	1.785335774682524
532	0.1421681787954559	0.90222632657189	2.145314211197372	1.0539507839296063	1.8956356000723786	3.283334723766041	2.802991621569977	1.6868430333464164	1.5121332368819986	1.909511442131767	4.657526004476229	3.428191176342208	1.7046365694877104	1.555810209160946	3.52987717690945	4.535246360772504	3.356570712198081	2.1260921901429977	0.2783340804702171	2.57697772329112	3.420279494233277	3.4371514233593805	4.106272687081389	0.9222615337928819	1.4645333253124186	1.8968967151433522	3.1402015606752687	2.636521094341349	1.0957436533919604	1.0437377664917076	2.833522789476902	0.43468251714632183	-0.2619167559686676	1.6179711777845223
536	0.5859687909590781	1.0948909493459567	1.8473411751836293	1.3218425478940528	2.3811707436524285	3.694502344340491	3.0755438726976445	1.6057604510773753	1.592399473938257	2.3802277981744626	5.095345961103994	3.8585119150018463	1.6905074076886661	1.9797720859134211	3.946190347245079	4.933894144952783	3.68439935707657	2.361255401371777	0.7107669693167835	2.9435045644830384	3.7245783711810603	3.6524758246712072	4.1624932184030685	1.2289795844520566	1.7885649159097228	2.0904176182421	3.1561844269221475	2.5540268356690117	1.3651231492862446	1.1561261386292188	2.712052815265762	0.5293617235170057	-0.2665636532729143	1.5433634480610845
