time	FP1	FPZ	FP2	F7	F3	FZ	F4	F8	FT7	FC3	FCZ	FC4	FT8	T7	C3	CZ	C4	T8	TP7	CP3	CPZ	CP4	TP8	P7	P3	PZ	P4	P8	PO3	POZ	PO4	O1	OZ	O2
-200	2.196640247521033	1.2813277212217455	0.41007664696155843	1.5426450928840651	1.880002017043002	1.4137138092587798	1.0491502258515166	1.25729107539315	1.4125521147350404	1.9187327574923965	1.7667326882579346	1.0178172562650973	1.3834096158385862	2.4040789543489853	1.7184693769936794	1.6073766906210243	0.8172879794467086	0.8670917727512945	1.9083598803976138	1.6986248450308425	1.256851550743686	1.1358240814142413	1.191584464879417	1.4762840233723504	1.320463534836011	0.694830654297357	0.8300232866311993	0.666783807978398	0.31924304285510635	0.24987074669694156	0.2681303017522353	0.7633612136641289	0.25672018463169005	0.22286239210128223
-196	2.6834649971921873	1.7763370230649238	1.0407292816589102	2.0750601239266264	2.695726626265844	2.2041420880935236	1.794234748125022	1.9287856768548326	1.804522390577991	2.725335352692554	2.5343816216378006	1.8459329558497213	1.7591055587224427	2.287683957999788	2.369184488036939	2.3346197546189575	1.703898663987254	1.42936432000723	2.039901728248181	2.283114189105686	1.8626333428085944	1.897649521804965	1.5785427053651486	1.7382414297086524	1.7875885918307668	1.2430977789964897	1.4858635626471757	1.1492835254262799	0.5523391948106168	0.6094677432885124	0.7367261033531107	0.9031255222407013	0.41377374425370733	0.5328668342488179
-192	2.6577994756352825	2.2238678876042677	1.71356069609024	2.4574031767790516	3.50338458130373	2.9287116453614512	2.470537417850017	2.397679799702056	2.053183550419237	3.526592245734882	3.20680474425345	2.574981682951921	1.9273562382674383	1.8374708844523238	2.9746630116699957	2.9636762067355766	2.464606278872682	1.979692215689624	1.864631171287132	2.747151844718161	2.375741237364257	2.5457520420650255	1.9259027194036153	1.828795905264326	2.1697742884213826	1.7080112652570831	2.065517420322179	1.5732698400830514	0.7865805010009831	0.9551860069954307	1.1825671166126936	1.0494146320550726	0.5917094930968364	0.8243395069290578
-188	2.161366695669172	2.4711058077411603	2.152157062818889	2.583762162360905	4.052356232902329	3.3655843649768373	2.8781773971369873	2.5338690216940263	2.078331942079376	4.0671863453221615	3.576984396486561	3.016916267407433	1.9037079763032185	1.2712136474939242	3.352610818027781	3.306747666593281	2.902388326946466	2.37923025484202	1.5120710096330103	2.964705936576116	2.6624953679574106	2.911728613177767	2.0985391087001113	1.758795972198261	2.3736157357369327	1.985416884177978	2.4147984920569066	1.8218207313317414	0.9843744610728904	1.2215195863400927	1.4992066583929067	1.196245428879795	0.7746668438426466	1.0190399859449326
-184	1.4024295771476822	2.4134187637431292	2.165042156475322	2.419756883233963	4.138140191120804	3.3800852213397623	2.9127111361397637	2.325393194049601	1.8750327778206237	4.138645161670066	3.542629948254816	3.0832133215308204	1.7798682406310815	0.868733165454975	3.38917969801663	3.2906796849138784	2.952002994713657	2.522502415964057	1.1837226122533921	2.8996326850161673	2.6909162930260355	2.9446301385921347	2.0149972387938466	1.6001791913639887	2.382595056240385	2.0638310857164512	2.4837438997502677	1.8567364168972742	1.141405341127628	1.399520870489987	1.6606963830980992	1.3503944839715631	0.9694290732703529	1.1051905127278507
-180	0.6671150905932232	2.0376980253271086	1.73466324368253	2.011330599475101	3.694503298014805	2.973903410078896	2.5901670390537186	1.8635985804236501	1.513973589889437	3.6759276297267434	3.1382281701010277	2.8039705682532965	1.651018496159643	0.8173193910944259	3.083037130201309	2.9747588559385525	2.686193936241694	2.368825668076297	1.039204594849405	2.6116335326060884	2.529382699302399	2.714607470334385	1.6892242388991812	1.441353794273529	2.247888320969525	2.0121722170572047	2.3330421388850255	1.7236851410262262	1.272395130759679	1.5244785508767087	1.7157936052871783	1.515416618335806	1.1861910790058878	1.1296310396284246
-176	0.19593848238589523	1.4247153961450658	1.0133892272159133	1.4621984921731719	2.828659527312667	2.273993724803762	2.0197873064544822	1.2832838264490456	1.1067756386470053	2.7940432954817296	2.5070414479855145	2.297766679684537	1.541993614118315	1.1054071160064176	2.5422427590080896	2.5093271668975903	2.261295789731451	1.9517798374489386	1.1149699659807477	2.2225551549110487	2.3004250468348073	2.3636922776626217	1.2250760762755715	1.3451970781695608	2.0552620835865967	1.933229560739487	2.089234346837007	1.5179349145712082	1.3931313717954865	1.645549293178151	1.7474591687906043	1.6822962718451395	1.420461651076765	1.1602528065951794
-172	0.07942359874461553	0.712492285360096	0.23171523154884063	0.8919172264468559	1.779062028207885	1.4709082804736304	1.3487859930317154	0.6975351554425674	0.7527984957762158	1.7424632266874343	1.8326611472589618	1.715020890674261	1.3875263894335392	1.52469920727111	1.9364987562878737	2.061933035413016	1.8379346085875055	1.36863565099399	1.3182120289899497	1.8620181036667762	2.11849927367352	2.035515541659523	0.7694298605566134	1.3297212090298616	1.887220735553524	1.9112722825432757	1.8782776546740034	1.3341790404013583	1.5110925397868478	1.7970099403787576	1.8244038774204954	1.8337840987636949	1.6498402315446978	1.2444658247999203
-168	0.22481383326514043	0.04545128706543185	-0.41702180995557453	0.3986171771952638	0.8188737014123095	0.7438434343631257	0.7153790575085693	0.16847363071821492	0.5012653457383635	0.802004454495214	1.268311616556427	1.1881647079987077	1.0847278806002536	1.787679310099886	1.4300049507276582	1.7510999396935827	1.5214784106941588	0.7567019443480562	1.4947204552105686	1.6196415383454905	2.0445074983476363	1.8213511659413864	0.4508463132919593	1.375747915609212	1.7972400143070097	1.9800424525814397	1.7735494330451063	1.2278981177799821	1.6270177323271116	1.9847193906265774	1.9701375911562518	1.9572083900627963	1.8460506154182108	1.3863823378846087
-164	0.41115933552884754	-0.46789267541055773	-0.8459875562289549	0.037666167968781084	0.15031909904675028	0.2056254441314957	0.2232899958218213	-0.28148695755461833	0.34451511415284225	0.17328843430636998	0.8926613308303533	0.8031564334618795	0.5819228872865843	1.6901409583335123	1.121953007726423	1.6125979382808766	1.3413525785912546	0.25665125186018134	1.5202007255319794	1.519032832125199	2.070895428197395	1.7384926036811017	0.3297829917687726	1.4450068437333001	1.796763534777878	2.1167557186089527	1.77501236944278	1.2000040977698414	1.7352473691998542	2.184385055748996	2.1555685942586402	2.0484032579203197	1.9863289544500284	1.5466887911847078
-160	0.4120652367201791	-0.7711195926270847	-1.0665914985430773	-0.17666028395396194	-0.15837825794764462	-0.10991125526096435	-0.06246000885094965	-0.6333274825318612	0.24119557379384884	-0.08741536714418084	0.7072609049106574	0.5961465820520034	-0.050392489753094606	1.2272266118536381	1.0207889054275165	1.6076803166807434	1.2689894405751014	-0.024933457311621825	1.3628723586959188	1.5219012460431278	2.138605350816971	1.743280525574531	0.38407280944176264	1.495153900186281	1.8549905968562108	2.258925670642586	1.8232047511799316	1.2076261013058955	1.8186917259075124	2.348687642843327	2.313950294374512	2.102292293962852	2.055444950636306	1.6618113475804528
-156	0.12542434005065117	-0.84794604564204	-1.1222017975130874	-0.24987527664993306	-0.16552753704717865	-0.2213145935908239	-0.1120907139928351	-0.8395640232823737	0.15932278294869315	-0.055737368621769805	0.6680158359827947	0.5654853568105069	-0.6177119001051613	0.60370147075821	1.0622311803701872	1.661512251473725	1.2549425331856396	-0.042023043973444175	1.0904966565256302	1.5575356444135477	2.1729023401712975	1.7650977328558735	0.5322332964810997	1.489224191720417	1.9113198470496864	2.3330187738643327	1.835421438351541	1.191591140599615	1.8431339217381357	2.4204764305038746	2.3684601723954573	2.099530691568091	2.0404531904202505	1.672070022176134
-152	-0.3603985300501642	-0.7034666520477699	-1.0226285431792195	-0.18750755441531422	0.005708156604809262	-0.1619444783413584	0.0656466705929823	-0.8278731086810005	0.10591561320505048	0.13085535135609966	0.7237598877753431	0.6829026920243105	-0.883116421854055	0.1243404668410502	1.1543019980851184	1.7047473149174233	1.2576334444718755	0.17659364596127128	0.8189260342902902	1.5580003222230436	2.1162087863898744	1.7388743118252796	0.6743648035189501	1.3971617186557332	1.8938597392904242	2.2791411819135683	1.7413185790920576	1.1021796437092684	1.756314988470394	2.3464028776055654	2.2574193420636255	1.9996532151280577	1.922731513890992	1.5425676068460528
-148	-0.7991083840221792	-0.35428151398856655	-0.7300673704788396	0.010962976115085237	0.24343323646119583	0.044745575523653575	0.42022502316236143	-0.5400088415817076	0.12458426473872722	0.3562751701419803	0.8419162609778509	0.9023445225821811	-0.6848591548794783	0.030620649379668137	1.2261377542056304	1.7009639697045023	1.2549091545846496	0.5383494482753503	0.6431034191107254	1.4859594069157325	1.9484111021440282	1.6275718171035447	0.7343924027021118	1.2007398575030912	1.7449881986430344	2.0691709466191073	1.5083203277653436	0.9172223187177141	1.5042569599319746	2.0940792507706973	1.9542870472204406	1.755028839448678	1.6813729958998997	1.2738463846470063
-144	-0.9074039436318768	0.16484849113328945	-0.2065401817113929	0.3409480145906203	0.4943190204537772	0.3838329305494697	0.8643872120014394	0.019704008425198184	0.2631347768815775	0.5748164639265355	1.0110585664017904	1.1674038142294076	-0.028256662118619266	0.37078282143439256	1.2559999195812854	1.651437039974199	1.2400417296572814	0.9198209620140706	0.5887921437656706	1.3445608581928346	1.6900852875954326	1.4302985632070806	0.6846248490214579	0.9024263001546066	1.446853037995912	1.7160476402825695	1.1517941922671702	0.6494420154387162	1.061878082455429	1.669702525691633	1.479659553606748	1.3421905006853914	1.3108530011459807	0.9026349760154383
-140	-0.5186189399976809	0.7819334248828025	0.51258706917093	0.7691929320942295	0.7583179454731266	0.8260028341419603	1.2938952413316172	0.7539698462523845	0.5286577926639856	0.8010588268082399	1.2237683503725012	1.4205597603218176	0.898086068746955	0.9688436364508471	1.2649885384092994	1.58039056855781	1.2125413387202437	1.2107127874324408	0.6070894583633341	1.1673777073950617	1.3913328612485747	1.1783083647542443	0.5489757643190781	0.53275048598251	1.0362182829444082	1.273764607074581	0.7312763314857665	0.34456756624011214	0.46345937135032433	1.1293518514730014	0.9038773156233552	0.7931503633501185	0.8432757237124556	0.4950801419633149
-136	0.31111290972362493	1.3780066932219173	1.280149218188222	1.2177833287964253	1.0450884077389078	1.3048037257629992	1.620585199079192	1.485341187541683	0.8582692124632055	1.0579817268362992	1.455708976884991	1.6157636601661944	1.795008297202964	1.5118464193320635	1.285279151532509	1.5127645692778655	1.174285289660642	1.3534887994926204	0.610863147623826	0.996708390580477	1.1121988268428469	0.9238516665021851	0.39117994805754686	0.1487911041794686	0.5987424835347073	0.8261296132210775	0.33607172881153463	0.07283006590098351	-0.18799669993142848	0.573603151780551	0.33638709698624497	0.20458951540791487	0.3584189107905596	0.13451771404159338
-132	1.3067711558727781	1.8035491659405556	1.873461957016179	1.571605678405124	1.3274579014641648	1.7142103867166516	1.7995991661412634	2.0119097182022765	1.1291590900522845	1.3237512078242313	1.655417795770118	1.7271208719516948	2.37762688990161	1.7088471607933027	1.3238079514459142	1.4557737075290536	1.130117055900696	1.3584165538823396	0.5270939456029621	0.8610134699063807	0.9004818178330083	0.722733376585613	0.291574835041127	-0.18185165478569598	0.239717259397862	0.4628393638369361	0.06023183077267862	-0.08892748482425059	-0.7461023907897649	0.12010342597440549	-0.1021141481801634	-0.28872007058681726	-0.03333073100973151	-0.0982005519175757
-128	2.0881261772841406	1.9222494315252656	2.0894670433696225	1.7099707083444822	1.5236448011076955	1.933158512003094	1.833294506212746	2.1797282640737414	1.207036968998423	1.5127716026259312	1.7522895291910066	1.7480491355631016	2.489624732407539	1.4333349430135625	1.34293281692955	1.3921015227456575	1.0879689427563772	1.2885094848526002	0.33322390829832366	0.760916767583417	0.7738726715576645	0.6144028886541651	0.3188614241178954	-0.40725308553870987	0.040427077459548336	0.2487973266518917	-0.02865925982809303	-0.08351804294957575	-1.0749025317709953	-0.1383664157473457	-0.3194402746241702	-0.5686269984193963	-0.23376111627210697	-0.1502742614528312
-124	2.34175419216198	1.6677215057228796	1.8464842988125016	1.554441567311069	1.5234568080585484	1.8674738359985827	1.7483570531572339	1.9433586548377537	1.012727734869866	1.5067292413817264	1.6787965255313437	1.6797051387340056	2.1547679846720387	0.7791240195630523	1.270761605869089	1.2846533027639475	1.0524311039102496	1.2198044030863666	0.06246004237856225	0.6689346415796876	0.7106046658694699	0.6043253525734988	0.5023265468312652	-0.5141288029087977	0.019103949841307834	0.19574193607024462	0.0810228882174492	0.09868390833258078	-1.1083072395952869	-0.17496210292511497	-0.2913042895591746	-0.5900282248859018	-0.2065782094746636	-0.02158424625311648
-120	1.9673790882030113	1.0833681794470702	1.2305499284193442	1.1098537417047245	1.2445681063700966	1.4894291124886374	1.5606443842586042	1.3855662310904047	0.5722578153467224	1.2179551093822343	1.3970237935080714	1.5164407453397513	1.5469485482259833	0.007684293183654883	1.0373730633293712	1.0909635993116218	1.0145583127155862	1.1950262754786372	-0.21525874679577256	0.5435194359408252	0.6550118906649796	0.656833647023295	0.8113377073784491	-0.5305178152041504	0.11944716393592414	0.2521775656532146	0.33056086218344993	0.4028391827903019	-0.8815039374030176	-0.04552153858970288	-0.08009646812720549	-0.405353753735415	-0.0042634848397615915	0.2245362991386057
-116	1.1241941423643194	0.31764081040294434	0.45056733375279245	0.4722191977499456	0.6830191594999077	0.8536493756676184	1.2533341614550813	0.6828169209406953	0.017771674275232574	0.6443128569548093	0.9167145467501545	1.2405831782490542	0.8979266859272279	-0.5868982061827143	0.6157043560695499	0.7813996056855419	0.9458080506287269	1.1968721121133812	-0.42736911665781313	0.3490302553901456	0.5381554351570963	0.704153595577072	1.151591417266156	-0.5072602020808024	0.233693777924842	0.3198977402716663	0.6023804530193883	0.716411827185985	-0.5173654543212192	0.13042066958401138	0.18059728994072605	-0.14270433747501807	0.2461783730728792	0.47401258229741966
-112	0.14892946146080413	-0.4268417645644943	-0.26566883854548295	-0.20279282280266409	-0.07178036850449435	0.08182731995188748	0.7894787172412244	0.03573206058063788	-0.4662131953389618	-0.11692100733801206	0.296738534416594	0.8341707566181339	0.39068588515825103	-0.8241943696193961	0.04374685499947985	0.3537174454341588	0.8037091473314862	1.154158231682283	-0.5323752747445962	0.07192180287560866	0.305806039991769	0.670130966401954	1.3863559926316846	-0.4904206084744077	0.24963891443167302	0.2919489137907929	0.757697520727226	0.9029129124733243	-0.174168526686579	0.2173656666751348	0.3336133650463028	0.05152263479337595	0.39452266593507834	0.5979474767847003
-108	-0.6093348249309989	-0.9675459837327183	-0.7701877336130191	-0.7555361967084823	-0.8628488757283154	-0.673434136597777	0.15701188107426334	-0.4026080657807688	-0.7249265890892309	-0.9008192397262299	-0.3670344045432216	0.3053590647617268	0.09364723390539009	-0.7152323704781474	-0.5809283241863732	-0.1580361272874977	0.5532840476372107	0.9799386238152605	-0.533220051372865	-0.26978379419877474	-0.05376578108802841	0.5026693331425031	1.3841191495282013	-0.4967043685293435	0.10328130397946651	0.10079099957529632	0.6912111622525097	0.8550935962068799	0.024177759824744988	0.12383844672169696	0.26385220818660515	0.08008342961119379	0.3358220449552009	0.5036196695964025
-104	-0.9531231498496073	-1.2089697092050302	-1.036124584443058	-1.0808745595345428	-1.5207123718014395	-1.2729457584667239	-0.5853283986572282	-0.5754832610859544	-0.7066082936566593	-1.5364617070506776	-0.9660389995026669	-0.29007369206624883	-0.03999836732779343	-0.4424169350421385	-1.1348354787784927	-0.6876928788942356	0.19184650432310638	0.6240203364829717	-0.47295853376187286	-0.6305324419314656	-0.498090891772608	0.19795350680440701	1.0770496102796736	-0.5095596896657865	-0.19282916139555367	-0.24858561095418402	0.3776114573481669	0.5445435033401257	0.036732572969440644	-0.15661571880376393	-0.04923700528826709	-0.06552845968152997	0.05975080638939449	0.177723228482719
-100	-0.9162985659353173	-1.1688183516556458	-1.1252045603000007	-1.1632969350054625	-1.9221852969276494	-1.6285422999273274	-1.2982984748486373	-0.53218716248616	-0.4888566720064172	-1.9083398532370197	-1.410052772776629	-0.8530227520386768	-0.12172475426458922	-0.25585120851770354	-1.5166906080100186	-1.1571390599599745	-0.24126352308872126	0.11091740401397446	-0.4194135059257934	-0.9552576517782697	-0.9455791687933672	-0.19923779318097867	0.5011534082157578	-0.5005973564860521	-0.5626603946785096	-0.6812660080875553	-0.11697287827999689	0.039280421932705895	-0.09357699728228022	-0.5469371066589725	-0.5223779069109504	-0.3143295041731301	-0.34761148603413905	-0.3035978071177055
-96	-0.7149825078078798	-0.9517780518343572	-1.1099964352239566	-1.0696333619768645	-2.0245380350496656	-1.7203075842339113	-1.804135794852954	-0.3933612694345621	-0.23894300996534568	-1.987166280497719	-1.65234899103696	-1.273763772609556	-0.25371909077482613	-0.33597084795050697	-1.6841469960607427	-1.502794977208615	-0.6755664331545882	-0.45822754386605113	-0.43927204498011707	-1.2003653019162683	-1.3087593283988863	-0.6163973792726036	-0.20448452182640808	-0.4592113781302298	-0.9092744565894956	-1.0868780585504523	-0.6632781012001396	-0.520869492169428	-0.27967595983465754	-0.9261173582536669	-1.0057318185209518	-0.5635222182351411	-0.7477409820751482	-0.8024987558130883
-92	-0.6040880068786024	-0.6897205096950855	-1.0127589677036495	-0.9069752670277346	-1.8655958128557413	-1.5922611911627271	-1.9671629617616013	-0.2917037300851284	-0.12938222256419518	-1.8223810149912154	-1.700957174775015	-1.480325695115076	-0.4728308606130863	-0.699416337631574	-1.6631035762759205	-1.6977810816815324	-1.0372111771145698	-0.9441103315358756	-0.5710799679642896	-1.348912235669031	-1.5302298030365655	-0.9839729045820524	-0.8453171827908587	-0.40999162093600106	-1.1634721726606596	-1.3688549960862098	-1.1232753963720712	-0.980318484215455	-0.44506168253111245	-1.1861592501256581	-1.3479465212168182	-0.7355168443229606	-1.0158022616489077	-1.1726317376094577
-88	-0.7203159314089161	-0.4807925212165355	-0.8051774481471761	-0.7680520395914642	-1.5366196593589336	-1.3312944140200913	-1.7697151854656756	-0.31430035750190854	-0.24873840746067996	-1.5081455669473034	-1.6114425618494674	-1.4763208590427288	-0.7360757570756084	-1.1893634766114036	-1.5272386035507095	-1.7591490701130188	-1.2798248497121734	-1.226873871566748	-0.8032821396573934	-1.4129011595339638	-1.6041151244671494	-1.260942098295004	-1.2498244015609885	-0.40286278622957333	-1.3111281361855693	-1.4845759831139886	-1.4057959282668075	-1.2299813001096227	-0.560988186373558	-1.278054710976103	-1.4590090476392932	-0.8119466284279371	-1.0944220992113372	-1.315005775946287
-84	-1.001076338147879	-0.3572108140509797	-0.45968195679954343	-0.691172657652082	-1.143835780116853	-1.0359932158063045	-1.334514376132018	-0.46910193444070775	-0.5533292279578363	-1.1430957288491903	-1.4616500102333334	-1.3419640030358169	-0.9499038433887717	-1.5535893401022223	-1.3590654100437263	-1.733974571618534	-1.39912628774257	-1.2585283486062737	-1.0668522092586665	-1.4204543793101208	-1.5702425201825525	-1.4407702648026512	-1.3427342142536598	-0.4796518075277041	-1.3837579453817743	-1.454727407597308	-1.4950067959233466	-1.246011730862912	-0.6448134167603693	-1.2230211465474834	-1.3406262363918555	-0.8270371535401363	-1.0076272462200238	-1.2103556364018484
-80	-1.229123946901338	-0.2930704347840551	-0.01252723109539548	-0.655364571347225	-0.7767068724095786	-0.7863782624417708	-0.8750056602320767	-0.6899734718068736	-0.8894291497662786	-0.8031536320435821	-1.3191688027454687	-1.1937056749723278	-1.024388787544282	-1.5764183958307172	-1.2141095369203248	-1.6717200237028966	-1.4234261476818293	-1.0837050648984903	-1.2540318934250603	-1.3963881695777913	-1.4856744967144255	-1.5377136430063791	-1.1746950119877935	-0.6393131001543833	-1.4226957523665957	-1.3401949371833497	-1.4403386079662779	-1.0877839299394616	-0.7265184503332283	-1.0877176495746388	-1.073207375677863	-0.8304995277417523	-0.8331332185691482	-0.9165865755781448
-76	-1.1692615717930765	-0.24277099905709085	0.4151798774250534	-0.6079418047814702	-0.491511522482655	-0.6230899675850217	-0.5942409619587007	-0.8752261974171889	-1.071904537355652	-0.5332368598826492	-1.2147976129378748	-1.1216360302263078	-0.922478256280738	-1.1906554668882932	-1.104255792690843	-1.596910591862048	-1.3870239222793512	-0.8168666938184997	-1.2585256067926212	-1.346457001147642	-1.3898366654592005	-1.5647324284148478	-0.8913525916483243	-0.8247195461431861	-1.4411509000632259	-1.20161878759273	-1.3168224063051648	-0.8587394335046513	-0.8089622834762128	-0.940223631869175	-0.7700162510504333	-0.847090182549871	-0.6528782232013419	-0.5360788689430093
-72	-0.7202900629931489	-0.17925231113476509	0.6642681939520039	-0.504825531161809	-0.3081239156096199	-0.5407277928051732	-0.5856195077415761	-0.9374874210530242	-0.9803630684896344	-0.35053107053947835	-1.1341195077872583	-1.1397472591234523	-0.6812069994893767	-0.5169517384828778	-1.0056753133178475	-1.497471209560008	-1.3041173186754988	-0.5899496659642861	-1.026087519916092	-1.2542370526118594	-1.2833566633247773	-1.5184951982306822	-0.6580073220806041	-0.9442285871508115	-1.409494515675072	-1.065354463748532	-1.1803824871779018	-0.653974650639217	-0.8508483746027604	-0.8127133229717473	-0.5246179090605989	-0.8591893293622801	-0.5120462166256036	-0.17259311632449817
-68	0.00593963776146808	-0.11034446181809815	0.6239540561181489	-0.34270203027031965	-0.21665061955589215	-0.49940815441881836	-0.7914060930298152	-0.8464897253599197	-0.6246778949224737	-0.2521009736848716	-1.0336927149423618	-1.1806493967765321	-0.39811167020419996	0.1872870768348467	-0.8854675866659291	-1.338401314217297	-1.1629853219233635	-0.4981501983940098	-0.5927228316601044	-1.0954095097541934	-1.135154959673682	-1.3839175666200798	-0.5808184728263295	-0.9209606028192987	-1.2765543428616049	-0.9171655154913865	-1.0458080742181088	-0.5240871893048588	-0.7882548550731413	-0.6935886723173079	-0.3801480522094689	-0.824772653881547	-0.41018706456572607	0.09892551575956783
-64	0.7299990039514548	-0.06674167496996698	0.30708244365408893	-0.16393116075135103	-0.1888809795379224	-0.44862961655835915	-1.040746924633719	-0.6432391984911809	-0.14331513607081178	-0.2212158733981639	-0.8725566841983733	-1.1389948100897076	-0.18914858949112706	0.6458631141568585	-0.7294815164268215	-1.0926766367981415	-0.9441325640683208	-0.5668701515190773	-0.08496220388419254	-0.861097154827434	-0.9122456885194024	-1.1541781396335877	-0.6632130129282092	-0.740924952543712	-1.01321017486346	-0.724313674528553	-0.8956134296693354	-0.46889871240485914	-0.5812342748272328	-0.5491331205808878	-0.3289255193511988	-0.7159161549612842	-0.32302835502130006	0.24309390721934626
-60	1.1529992789721963	-0.07207079213542919	-0.14036269450512295	-0.03197280682001609	-0.19014842760238748	-0.3530274322656586	-1.1474503249761965	-0.41666448011104823	0.264754890727127	-0.23145438672280091	-0.6427721364959003	-0.941385862834716	-0.13864608073992574	0.6884350163244602	-0.5557641372954083	-0.7721075992163872	-0.652263878129193	-0.7520160060015801	0.3231528989262438	-0.5768501147964926	-0.6148933156701388	-0.8535783865358703	-0.8187296965908957	-0.47047835469670835	-0.6501985175882955	-0.4719914186005115	-0.7115425449526428	-0.4587293553691482	-0.25533282692340076	-0.3598171761488152	-0.33618089471816515	-0.5504803643633445	-0.23657169878358852	0.2573941939531084
-56	1.116229412121672	-0.1203467097820226	-0.5083190785925638	0.002852758851150376	-0.1921888734018318	-0.21086309796978098	-1.0139290068776363	-0.2599112086886512	0.4344759274480519	-0.25401174957993444	-0.38356280230002965	-0.6033055767086114	-0.26827302507378964	0.3181648842408088	-0.4091305126351051	-0.4399128247121571	-0.3406983605366089	-0.9710785722057025	0.4758438157942306	-0.30674120706361135	-0.2964243881370984	-0.547680078554222	-0.931804535420552	-0.2337298238336789	-0.28603070902134164	-0.19201827000775418	-0.5072295056888205	-0.46653419615258923	0.08912041015774025	-0.14887328408324516	-0.37056580092331326	-0.39619487424003	-0.16961532788368264	0.1585011180213777
-52	0.6840422136202494	-0.17780424609592538	-0.6306068285279575	-0.07077749800693861	-0.1841136063457276	-0.05566819370639232	-0.6825754029206752	-0.22829002084314826	0.30874535363447914	-0.26879417828406743	-0.16880872803029612	-0.23754525124656936	-0.5338075147502881	-0.29981788917185037	-0.33956772003271907	-0.1932356054672509	-0.10806601467266659	-1.1417463989041716	0.30418223065825273	-0.13471776213011571	-0.05218915255602306	-0.32987880623500715	-0.9284856295985482	-0.15300393065923443	-0.05232495056293004	0.03684153398510525	-0.3380701831388407	-0.487767963370021	0.31402045409075	0.017499746710582898	-0.42155793202778585	-0.33908513102751353	-0.1667519505582246	-0.025666749040055132
-48	0.10360007706950108	-0.2072218949331291	-0.47085511565538235	-0.2225827569110245	-0.17750102236755735	0.058397997023245954	-0.3093975774582871	-0.31970187940942885	-0.04336999718325832	-0.27508363058256496	-0.07521589081370683	-0.007479449249546678	-0.8506782033423563	-0.9217337346647283	-0.3784733107071207	-0.12380108206009773	-0.06526991708488887	-1.2154459922621044	-0.13841535116058273	-0.13127620485063493	0.01713120746757683	-0.28980094121244526	-0.8177537301398076	-0.2847674481831614	-0.053641021116247904	0.11750038683550786	-0.28221321034705044	-0.5388892279370734	0.30836054604878077	0.057708721462222994	-0.49859049790385396	-0.43544304260941324	-0.2684276395219466	-0.25820007855075944
-44	-0.3430765262524979	-0.20048481175349858	-0.13696163858166482	-0.4037037779629084	-0.20616875536841284	0.07733635584856008	-0.08004838208015434	-0.4872909473990879	-0.47293785095018803	-0.2985398761841255	-0.14979702196448075	-0.04958581166861203	-1.1346387834512304	-1.338901874022857	-0.5278945551895637	-0.2778991155760669	-0.2866221957122769	-1.1929601400773595	-0.6969378572987812	-0.32330715574653307	-0.1510625477791567	-0.4777587044097725	-0.6825403553896358	-0.5886514768043557	-0.3155135206362815	-0.022539088445620557	-0.4029610444862375	-0.6398931129512282	0.045301783715551436	-0.08511025437086021	-0.6174831970837356	-0.6773873550478791	-0.4789741027183189	-0.49561884874143475
-40	-0.5010073172317823	-0.19504712472785213	0.1810579444367096	-0.5773833975519517	-0.31672280946875386	-0.034720946015672466	-0.1154918518726796	-0.6731334311656443	-0.8301413038275566	-0.38629349968655263	-0.39251261850439273	-0.40514039890998016	-1.3360074724798716	-1.461123939639874	-0.7655022124990554	-0.6355952008412603	-0.7684004883439414	-1.1154375048131855	-1.1804200381040155	-0.6805897933942858	-0.5519142732990858	-0.8808473326378297	-0.6282583459250917	-0.9448459720598362	-0.7676813583065418	-0.39463549752735333	-0.7122938614981397	-0.793889341734178	-0.3992725302629146	-0.41121464863905943	-0.7847115973687693	-0.991944906591344	-0.7544683198953825	-0.6963714939655553
-36	-0.42272668970191324	-0.25915354424850173	0.310995220352813	-0.7379775028670105	-0.5513581619647354	-0.2873220734494625	-0.418055324691048	-0.8402481653933783	-1.032808062806839	-0.5888733848962943	-0.7624248246970716	-0.9981529687476062	-1.4509849511705994	-1.3347954716360688	-1.0601454946454725	-1.1204872103058074	-1.4195228779239228	-1.0428853008642822	-1.4409356080868407	-1.1262532444175313	-1.1125918598695035	-1.4232302868195918	-0.7201498132643466	-1.211241599839553	-1.2726149526890558	-0.9378286576435018	-1.1566276521090928	-0.9783724521730965	-0.8778660871276258	-0.8581641890793764	-0.9899140571396843	-1.2744607893237998	-1.0198526356697486	-0.8352414944541757
-32	-0.3272624305568747	-0.451606481127183	0.18218135787743864	-0.9073553658465076	-0.9267752743210366	-0.6633477790297061	-0.8800332524015427	-0.9859413479707899	-1.0890767546813758	-0.9339790320657577	-1.1990760534530316	-1.6677610832069105	-1.5087964496666073	-1.0953515740396178	-1.3851985896423582	-1.6322803456103336	-2.088966364354773	-1.0313531134315452	-1.4302389585624558	-1.565720315794861	-1.7184258656031033	-1.9886865565635217	-0.9455548500983603	-1.2900458541724518	-1.6845986800577102	-1.537335153513011	-1.6315990645222709	-1.153204795786863	-1.2354897229472777	-1.3226523365959266	-1.208177921105833	-1.43739854926551	-1.2054258554542119	-0.9154944396746827
-28	-0.45675980929448523	-0.781624434405067	-0.15255686602222535	-1.1120015354691384	-1.4189854824479846	-1.1244329185706867	-1.3454029526120952	-1.1296397419065398	-1.0720196935290671	-1.4053750002664664	-1.6467341143040048	-2.2384531441439814	-1.546771403222158	-0.8916696883577288	-1.722286816063326	-2.0859467930580755	-2.6198520594255483	-1.1157420845472188	-1.2122459381014825	-1.9213460635313306	-2.2536971512160897	-2.4576857027945738	-1.223297235261386	-1.172457692047153	-1.910834307614572	-2.065203184635717	-2.020835632944145	-1.2806998458952668	-1.375608559950079	-1.7008415417644427	-1.4101040327710064	-1.4490292035711672	-1.2827808824577007	-0.9707753633784956
-24	-0.917242822715465	-1.1911112040010952	-0.5622631893267293	-1.3546714748512676	-1.9606165836424483	-1.616418715210622	-1.6848032431980628	-1.283520695306785	-1.0664695474401746	-1.9369809578628892	-2.0662262387560584	-2.5900070601875456	-1.5852242668183112	-0.8219571092834004	-2.0533244557991304	-2.436205380964651	-2.904799692449411	-1.298594113885977	-0.9252615547661425	-2.1552641337338962	-2.6364540987207907	-2.7426218917266683	-1.4484733306553954	-0.9377775764630583	-1.943006033760153	-2.422640555940916	-2.2380924168347116	-1.3422793116058824	-1.2942409482704416	-1.9256094645520607	-1.5704549511359955	-1.3406940664774385	-1.2762827841006938	-1.0479449007279118
-20	-1.6043593843008224	-1.5714653690716769	-0.9168832874990875	-1.59927320076569	-2.4521908698158934	-2.073779816160083	-1.845381612886941	-1.4304188453799336	-1.1185265751255158	-2.4254479347027487	-2.430183881346065	-2.6939468315773443	-1.620006795607752	-0.9052176452670354	-2.3475115239955886	-2.6767916611799834	-2.918482534669504	-1.5471759995498717	-0.7148588877749278	-2.2711341323732372	-2.8335173058495964	-2.8091783452634633	-1.5460157355376034	-0.7097547036371188	-1.846154804337015	-2.5662808353481563	-2.2541911545107407	-1.342711445279413	-1.0688340636924447	-1.984203810450572	-1.6715751844164581	-1.1823526591013334	-1.2436786858630038	-1.1778622835938717
-16	-2.253496402772993	-1.8119010879546864	-1.1523965568057495	-1.7813829138602897	-2.7876443792533783	-2.4285507140833427	-1.856543059430111	-1.5268095693186994	-1.2203549115841221	-2.7599844862873244	-2.7119746139720142	-2.605203621962532	-1.6325280625133947	-1.0967495413746504	-2.5570077831559925	-2.821395628481519	-2.7166776588514976	-1.798350210417793	-0.6731214506320746	-2.2984766902113085	-2.8553008961113706	-2.6794571808876086	-1.5048165283357133	-0.597186206263551	-1.7165505842739144	-2.5114083226693134	-2.100163931312586	-1.3019779887706218	-0.8145269134937492	-1.9123152446149223	-1.703920121659319	-1.0452089283303394	-1.2398246495415577	-1.351867076321666
-12	-2.585137122303112	-1.8502385569588458	-1.28446697864485	-1.8381547881447498	-2.886136047705883	-2.6259555750351384	-1.7980790092847498	-1.5286213120967178	-1.3283947672683791	-2.858050577577207	-2.8810493873335936	-2.4214680133718547	-1.6071248013928394	-1.3259706463714842	-2.6283402376572917	-2.8819522784903717	-2.4059309898667705	-1.9742000053153068	-0.8086809495535833	-2.2706365527999086	-2.7388563086978457	-2.4187784133878005	-1.3742426599138546	-0.648801503927577	-1.633257861782182	-2.3150455893241393	-1.8485680771885882	-1.241619106972635	-0.6339209063737468	-1.7711108878242123	-1.666329737270888	-0.9737350916119898	-1.2861199346495877	-1.5185134372519375
-8	-2.458690398684371	-1.700010414599793	-1.3757771218850783	-1.7413589910411134	-2.7212171485861303	-2.645121806142144	-1.7541347697793044	-1.4239172899535384	-1.3965355122593042	-2.695404045929134	-2.913021795547549	-2.2357189598857476	-1.5447320899109616	-1.5268818101479846	-2.5271055634591493	-2.859839670590268	-2.0998959488303526	-2.010139937094074	-1.0551291677538406	-2.209962839269013	-2.531245702074795	-2.1128148979249324	-1.2303171126774393	-0.8419178703032557	-1.6286196667560506	-2.0509478994086465	-1.5845620592165284	-1.176179882894689	-0.5855545982835797	-1.6215954978055842	-1.5689375360931348	-0.9804666017573479	-1.3648983205667193	-1.6081318814684218
-4	-1.9423637341096749	-1.4421954118556328	-1.48195540530841	-1.514225955954779	-2.3350565374547685	-2.5155348714259844	-1.7782911017343066	-1.2500703303247107	-1.3996098006197673	-2.317813867439098	-2.8105163503260036	-2.10726475183604	-1.4611384831731626	-1.6474772650131881	-2.2628149929136505	-2.7553470065169283	-1.8840227079508194	-1.8803830099314442	-1.3067373004346312	-2.126337284441695	-2.2814257087327516	-1.844287510030206	-1.1337140769945198	-1.1046823235277787	-1.6885133939073846	-1.7886455013892555	-1.3798927033871384	-1.113140937855788	-0.680350123118249	-1.5078990421371348	-1.4361070358257775	-1.059582707590924	-1.4400645458102925	-1.5724978407258696
0	-1.2631704775389505	-1.184885975707181	-1.6075482327882546	-1.2202237813659473	-1.8293205453463144	-2.3144526423194107	-1.8783377361557854	-1.0764355632307478	-1.3340277638133002	-1.827917928849001	-2.617170327254585	-2.0563533254203894	-1.3716772760091989	-1.6459220606256353	-1.8968318652900005	-2.5843775207120125	-1.7973561241547389	-1.6093575913804883	-1.4636995755434055	-2.025081629408645	-2.038106674770657	-1.6730868774134349	-1.1035393448624515	-1.356070753488482	-1.774925108243049	-1.5813385208259245	-1.2763895956238616	-1.057820317458655	-0.8969968534710795	-1.4524087869213993	-1.3033835855001663	-1.2034451931133263	-1.487848397313185	-1.4164090120794286
4	-0.6736002547423465	-1.0153473590011306	-1.7010422902075393	-0.9315303540552775	-1.3333635296536002	-2.140732521374345	-2.0209412523744206	-0.963692424248429	-1.2023482292336496	-1.3511271442632924	-2.4110314785166125	-2.075885529045392	-1.2789369789258407	-1.488186236438919	-1.5254926643003568	-2.3882553517125444	-1.8339173747490762	-1.2672800985765484	-1.4676945172447449	-1.9164235543503385	-1.8483900977197383	-1.6247878033624048	-1.1199841471051732	-1.5398956498368077	-1.8535038186006871	-1.4629718028325354	-1.2816425529546542	-1.0176373694476193	-1.1994667022939034	-1.4598761760092964	-1.2076373069790851	-1.4072130882974092	-1.5158740243786575	-1.202374693695863
8	-0.31731274643892887	-0.9687506532052322	-1.6861978726729965	-0.6941651088354753	-0.9591627096755149	-2.0720205254693345	-2.1470515673788984	-0.9239460206546263	-0.9974113677591832	-0.9919560526598888	-2.274005407314108	-2.144942039796334	-1.172454234977765	-1.16203403179515	-1.2424344985111035	-2.2248351517772402	-1.956149334737101	-0.9465216374341762	-1.3152960505656102	-1.8169934703728596	-1.750770326008807	-1.6881760316188077	-1.1472138137463248	-1.636098261517137	-1.9083435487249865	-1.4483563863426412	-1.3733217681543999	-0.9995826457535791	-1.5430141648435827	-1.522163387270188	-1.172128435990245	-1.6563922125004458	-1.554870005496633	-1.0214228604277469
12	-0.1794782425402158	-1.0257455084652343	-1.5079218111113815	-0.5103469478119922	-0.7638171891955093	-2.127012962693163	-2.190616363716662	-0.9072389579755551	-0.7063358408260789	-0.8004574755486192	-2.2519953194027593	-2.2340600434165476	-1.0410762998999163	-0.7009360176509305	-1.099427458848358	-2.143754715275406	-2.1105523056149713	-0.7280086260534955	-1.050131079883464	-1.7429944232803314	-1.763296957332466	-1.821548099687227	-1.160841581274784	-1.6506108003904085	-1.9395089100507206	-1.5327199658797048	-1.5081709585259135	-1.0024259065114762	-1.8702959967122827	-1.6196943480606283	-1.1943075626737503	-1.9099349927364715	-1.6286646086580978	-0.9448384618746135
16	-0.1431732025107987	-1.1360766858981617	-1.168201920420935	-0.3483409574773809	-0.7349262815040171	-2.255630487469143	-2.099847549858917	-0.8296400287662612	-0.33210199987487143	-0.7619216422871482	-2.329752439338888	-2.306232923407058	-0.893263456950354	-0.1959705943881869	-1.0867649289349544	-2.1612987463743	-2.242231601776043	-0.656985102425287	-0.7422920446728288	-1.7010551648107783	-1.874004001654398	-1.967516417304227	-1.1633027762606356	-1.5964281518684542	-1.9507439087253577	-1.6909167723879501	-1.6341295201051766	-1.0110762093765993	-2.1100966877114584	-1.721289034312305	-1.2447303502127656	-2.0971751160125147	-1.7238955454217522	-0.9837951039271363
20	-0.10260993961415334	-1.250576254548287	-0.7337371092391056	-0.1721586431686661	-0.8060480335865674	-2.3653290212040217	-1.8573591662243152	-0.626888213959099	0.08411439486962849	-0.8139786103678447	-2.4374892650098716	-2.3203046263286837	-0.7643050532117642	0.2192128295132217	-1.1435997457241385	-2.25026153949991	-2.3054420889821747	-0.73487734609078	-0.4635181415299245	-1.6833361344752655	-2.040102476691277	-2.0702462144081406	-1.176559206853082	-1.4791908226814179	-1.9385296057395334	-1.8779518556864838	-1.7024877028396932	-0.9986867283402222	-2.1893100683250624	-1.7861086085047304	-1.2782722679289837	-2.137792581882866	-1.7825463965233677	-1.0808819505104763
24	-0.05782982319893964	-1.3421126570195112	-0.3161688140992877	0.025688871676436693	-0.8967800713785787	-2.375576728545092	-1.5000346861160359	-0.3046134106574693	0.45789685729767216	-0.8844413138947774	-2.492070907022945	-2.24751257328981	-0.7067416888513299	0.41470670595369863	-1.195389267764403	-2.3557412564882383	-2.2750339450617556	-0.9297442412744477	-0.26534274153474013	-1.6738908248601356	-2.2024860326472653	-2.093362802942306	-1.2209582297970154	-1.2978539434090248	-1.8936891507975078	-2.038040632824413	-1.681506748722438	-0.9396758651850722	-2.0618669934667717	-1.7751829579356964	-1.2556805578953851	-1.981342549089998	-1.7298678116038781	-1.1417154044889668
28	-0.12357064305339727	-1.4079581463552204	-0.032185491093198904	0.20964245445250757	-0.9563428735429553	-2.2706470432173624	-1.1239937515490905	0.04939119132804085	0.6877388340752414	-0.9303951239937516	-2.450544351112775	-2.094369406180731	-0.761374412044847	0.3273023358664511	-1.197724339322228	-2.4286656318381796	-2.1568121855640943	-1.1965392797777958	-0.16640776353783807	-1.6620030361175664	-2.309972757229403	-2.032149548168266	-1.2942739692435639	-1.0576813194273897	-1.8129601432803817	-2.1216061061699487	-1.566948648311291	-0.8258024433267314	-1.739241476436169	-1.669349904614032	-1.163076278611061	-1.6434606272212051	-1.52334057900153	-1.0883340808093496
32	-0.4435649502999365	-1.459477063308888	0.03690621620039414	0.3131109468184186	-0.9879808997005648	-2.118360275642255	-0.8620636441400269	0.29963096900630665	0.7000708562342	-0.9583792066219206	-2.343228334232843	-1.9147834729488395	-0.9288299656305462	0.000304087791988288	-1.1614941329241377	-2.456171744821101	-1.9903315255458798	-1.4917044601925484	-0.15291859170929273	-1.6527407127614349	-2.340635770610238	-1.9138179969152054	-1.3634872402098694	-0.7842216471899526	-1.7096829371202331	-2.1038401073744715	-1.3838947976458331	-0.6741616112854238	-1.300895687633523	-1.4843553267195873	-1.0184299920118414	-1.214124914918638	-1.1936691969298174	-0.9052718258889995
36	-1.066537854362915	-1.5082793197698416	-0.12853780356379416	0.2724246971881703	-1.0406650278520044	-2.040115112875938	-0.835657296455079	0.3292468181880493	0.4895036804238205	-1.014730570138552	-2.264027351385321	-1.7981805755991906	-1.1601961821827858	-0.424748389840623	-1.1448925704660526	-2.469892734013754	-1.8387650204964197	-1.7718521311847675	-0.19127693724023195	-1.6662977891813693	-2.309464210401463	-1.7856827929235302	-1.3753718103016288	-0.5266193734224586	-1.6136674840240257	-1.9963699528835395	-1.1783863276294138	-0.5208308087550665	-0.8716964699671468	-1.2730821338936258	-0.8621459581542539	-0.8271596410848404	-0.8486098625692275	-0.6518045647377135
40	-1.8705508661726988	-1.5586272438752082	-0.47797819851360374	0.06543508155514448	-1.1708220213893565	-2.143649811100866	-1.0959312888132398	0.10445458415600485	0.13079275157808234	-1.149653312641533	-2.3184347094175113	-1.829729313999152	-1.3731921876569855	-0.7663272599899533	-1.2151068418341886	-2.524245971028625	-1.7640681222246228	-1.983625406979132	-0.24609640178535883	-1.7232638553980173	-2.2563414516702287	-1.6939445691256059	-1.280893680199587	-0.3440950504198482	-1.5558547934351254	-1.8429025365077019	-0.9989002321772686	-0.40092581409319783	-0.5700940475375491	-1.107172486370918	-0.7351146917856765	-0.6005344375707103	-0.6283647998203917	-0.4298738528365631
44	-2.5948679381659954	-1.6110635955189423	-0.9048674083752194	-0.26834133199652976	-1.3983823025683622	-2.4558250842079627	-1.5840841491759259	-0.30277544183581573	-0.25209712918529326	-1.37749302039454	-2.5574147636694913	-2.0396544881822765	-1.4928400478819421	-0.8851399995390705	-1.4020348751909761	-2.6572565965320387	-1.7961946680495782	-2.0624515958212526	-0.29542115256109436	-1.8254398061440762	-2.2215099278629062	-1.662331219290871	-1.061178919973979	-0.2811889045291715	-1.5472946127926754	-1.6999939637178765	-0.8762614704896788	-0.32739290512395863	-0.4527555990709065	-1.0449752781234098	-0.6577094180667687	-0.578236340016534	-0.6327142103433155	-0.32644155539110054
48	-2.9670677110147334	-1.670356388643168	-1.27940904771127	-0.6389371140560893	-1.6865501361227295	-2.896466247875114	-2.1367373412544266	-0.7458102684264584	-0.5419285283711419	-1.659953232388916	-2.938277237149434	-2.372502082556761	-1.4898209534224016	-0.7503403406272402	-1.6741222100905695	-2.8608531879674697	-1.9133986186356247	-1.94999670490034	-0.3395371130477042	-1.9479076813155263	-2.22558044825363	-1.683135505241458	-0.7439588885597642	-0.34717076929178253	-1.5694230755282492	-1.6147535998583809	-0.8146993497306491	-0.28426080870384973	-0.48890289540832377	-1.1042996617092868	-0.6245990379776349	-0.708060262799722	-0.861839888304105	-0.36567434576217056
52	-2.8506627010852394	-1.7500685409229935	-1.492613788650946	-0.9438885426532264	-1.9576839159176138	-3.3112692749345265	-2.544495337737754	-1.0714355680117431	-0.6803086978902347	-1.922620410833411	-3.3378162299761445	-2.6998705795787457	-1.393159743606328	-0.4580894399044552	-1.9510070036267322	-3.08014487442553	-2.047275538044017	-1.630810733492462	-0.39871847528880383	-2.049447531294148	-2.26488398933787	-1.7246363119451504	-0.40056157010989507	-0.5099717365740785	-1.5836721618722787	-1.6092302758595696	-0.7971513847252097	-0.23819422661724532	-0.5798237309121844	-1.2531857458899651	-0.6154693945604385	-0.8671114422840207	-1.203416821302485	-0.4940588163776672
56	-2.3252456129495096	-1.8704882812958425	-1.4968614540454952	-1.1134133310817238	-2.1386542266255635	-3.5512051492677115	-2.6458423070863697	-1.1913135021649521	-0.6886261684197723	-2.097748751112385	-3.6157479194904987	-2.879650347114958	-1.2738945451998631	-0.18451413465644578	-2.1470167582664375	-3.2457275308678257	-2.1162550395941033	-1.1669285267931686	-0.4962787615643994	-2.0977022594895773	-2.325143092960755	-1.7534929469659832	-0.12511685459019245	-0.705961285239256	-1.5567796191011256	-1.6800814824601673	-0.803615746853359	-0.16343878168326587	-0.614872632858454	-1.4258748256923095	-0.614562927124983	-0.9218268967242771	-1.4772032462017557	-0.6077294930373163
60	-1.6528888899079723	-2.050314182826994	-1.3294029202275646	-1.141531345346365	-2.2102513257489975	-3.556600561699158	-2.4121060310499103	-1.1192207308168174	-0.6464151127707297	-2.169828409438702	-3.6951687242673974	-2.835460655682947	-1.2079883783359258	-0.1012104598112635	-2.222087139241454	-3.3210968887402808	-2.074600929744436	-0.703895388256557	-0.6389228089413793	-2.0952613300828986	-2.403885120044665	-1.7611057713867653	-0.002279178466481426	-0.8630860426092778	-1.4875853024118106	-1.8129093601231612	-0.8320220687840508	-0.06501707418239003	-0.5334737287403886	-1.557040806653872	-0.6265038236059131	-0.7914111594246084	-1.517857070905328	-0.6076317414201314
64	-1.1504435510199698	-2.3012645186497043	-1.1085807057048258	-1.088904616467699	-2.22873472604718	-3.398946515084867	-1.9785482833499828	-0.9587342118853065	-0.6444652660311153	-2.194815153302619	-3.614051094467317	-2.612487071117117	-1.239362832755004	-0.29625117703981846	-2.210011953496184	-3.3355262195296556	-1.9497263382323213	-0.43440610060687385	-0.8079516867265976	-2.0883161968912045	-2.5249061520724903	-1.777631278318309	-0.07527615856000319	-0.926829395338356	-1.4160697424422237	-1.9997527548845813	-0.9063693858151224	0.0174076482214117	-0.3547359696015091	-1.6134509999547482	-0.6740954501298903	-0.47789245723231083	-1.2499738900097077	-0.44754415637509504
68	-1.0398637030096674	-2.6297786169413797	-1.0005872224340873	-1.056944725229115	-2.305257076165259	-3.25639890802289	-1.6020907123171093	-0.8538352825542036	-0.7406288366692155	-2.2800064029349434	-3.5177712351675536	-2.3768229424549094	-1.3679959739478755	-0.7360461931718744	-2.207071775586127	-3.3812420282826423	-1.8464177800291002	-0.5220149146251848	-0.9653952097360733	-2.1499235575755047	-2.7340578963869624	-1.865892524776684	-0.3277506522009973	-0.8775976278082352	-1.4064097368971549	-2.2484331074213966	-1.0670535537482095	0.02868808239905946	-0.15736608167494684	-1.60629522394895	-0.7794567922939931	-0.04882417606901444	-0.7177811246869529	-0.15201221368080414
72	-1.363109108344369	-3.0408656520362976	-1.1633098096087013	-1.1447155446715165	-2.549244874240045	-3.3291616355766083	-1.5545802077144666	-0.9259625053869314	-0.9421640610749388	-2.5300948555963774	-3.5893859772657963	-2.3462564885983666	-1.5637206991769848	-1.286752697556926	-2.3231267870423835	-3.5688695817487477	-1.9054417562060677	-1.0173662875238654	-1.0734062167723317	-2.3416118562706156	-3.0721843165080065	-2.0906965679789447	-0.6833571178349308	-0.732737539348746	-1.5087367258126931	-2.5724449092766855	-1.3417673077085546	-0.06461045874733952	-0.01898471633767115	-1.5733238418910815	-0.935071764015666	0.4165732850047721	-0.05187417926208334	0.20842571503945712
76	-2.0035023638686447	-3.5382041841821277	-1.6859583812108936	-1.4089890682886528	-3.004632942243133	-3.7381143475567975	-2.000287527756156	-1.2308325736441554	-1.2197861640651113	-2.986582271664927	-3.9540598292656157	-2.6841819218577356	-1.7989110901237135	-1.7822508766953173	-2.6214127474404068	-3.9652538199447513	-2.234149927220642	-1.8178410484194258	-1.1167067261158283	-2.674280636711225	-3.54138349592642	-2.4789874491092005	-1.0280349228652768	-0.5350559936366013	-1.7217947201173027	-2.9674706384123977	-1.7143708424199817	-0.2425190055207779	0.04737890499789151	-1.5429559907104287	-1.0851638289710401	0.88333493248125	0.6054372772189764	0.5661216959965224
80	-2.7885010172059275	-4.11754034910128	-2.5497100288866976	-1.8472818089575829	-3.619213333528991	-4.461647499263988	-2.9175140784036384	-1.7526131824113198	-1.5422164162799228	-3.5986952690818925	-4.610766876023727	-3.412432423559119	-2.0743908829767777	-2.1037905163101436	-3.0830354612712596	-4.5506396178747535	-2.845662348238367	-2.694021218173836	-1.1158388824900896	-3.0941257398687476	-4.087726105859904	-2.9941625519497435	-1.2500762907891732	-0.33578985844710346	-1.9819601724176015	-3.392617455500016	-2.1133623069811676	-0.42749497186493857	0.11597496241852559	-1.5065525732150582	-1.1353323430960858	1.3810613120496544	1.169338104156775	0.8956534839905234
84	-3.5900268464048035	-4.755131709491028	-3.6252703575157734	-2.404011005054113	-4.262385834422837	-5.339183793892904	-4.097640980865388	-2.422448390566645	-1.9020878028530244	-4.240010727667805	-5.4243001800915795	-4.385875213993868	-2.4135224758247764	-2.231139892667084	-3.611721744955376	-5.2167706357852195	-3.6366503146861384	-3.3736367140470835	-1.1203361721363279	-3.500758877498714	-4.610553252977392	-3.537162294994084	-1.279249188054386	-0.17756210222713673	-2.1859576646927796	-3.7687103653170744	-2.4276940761307935	-0.5106604086380746	0.314041911762815	-1.4157550299186041	-0.9871992443909539	1.9769662568723485	1.6400133329946793	1.2239478795621113
88	-4.362138260318447	-5.3943910462559606	-4.708333003554497	-2.991234771805768	-4.781145083753964	-6.137608989478392	-5.222747312711047	-3.143639079740076	-2.310502046473672	-4.76126049746994	-6.180761321675351	-5.344127164699515	-2.830919735436843	-2.2382311764473983	-4.075154294215619	-5.8079819532622805	-4.418041694930722	-3.6506178286889597	-1.1829593151743256	-3.789002408951755	-4.996386038563316	-3.976755370590151	-1.1091641159664145	-0.08269988724571259	-2.2371580544255716	-3.9994940656773945	-2.5457644398311077	-0.3978998949018477	0.7467291932326404	-1.2090935676565606	-0.5828901514595572	2.7176592281391803	2.076004023078906	1.6060137708170312
92	-5.104609476553018	-5.947605594877539	-5.5831332065765515	-3.5166182429219295	-5.067094313226104	-6.649584753414049	-5.990732654705177	-3.812407960803062	-2.769119494122537	-5.054503904932696	-6.6797900031241655	-6.019597992004124	-3.2986862576170526	-2.246609443714453	-4.362383354617144	-6.185649856208907	-4.988369452279845	-3.4685292156385574	-1.332486745331168	-3.8945035836121478	-5.16259668954138	-4.198257912526638	-0.7948910573917441	-0.05137486370347995	-2.093016380747746	-4.0094652074674055	-2.4015769897862103	-0.05409262315682906	1.422628637536748	-0.8547580220576417	0.062162909499816815	3.5739970116979607	2.532001488968639	2.0809900708110685
96	-5.7844986769543825	-6.3203911621736495	-6.089276775244951	-3.9059786697953345	-5.098693834783285	-6.775015813888381	-6.230467780595265	-4.330341805015424	-3.2396526254876554	-5.0947971215362875	-6.815819723087119	-6.247679694614309	-3.7327458764247217	-2.3588204324295607	-4.425672043117023	-6.280663951275416	-5.2128624784464535	-2.936582557893459	-1.5550172289688564	-3.816780557532745	-5.086444365057132	-4.145771492981419	-0.4256351579410301	-0.06594877673426362	-1.7854900315028133	-3.777152528763167	-2.0028476664520847	0.47996044037757185	2.227719062902772	-0.3808263530653003	0.8596047737353157	4.426975239067103	3.005243055385513	2.639614575397381
100	-6.287515624384338	-6.449681265759577	-6.1698474728259525	-4.115600575546607	-4.9391584271660545	-6.5504197908958615	-5.958111271120545	-4.614188182625197	-3.635558596015189	-4.940094935342401	-6.611115915773136	-6.026744350476072	-4.0175299543037335	-2.603936427217807	-4.288619507452306	-6.109916671585662	-5.070833193374135	-2.274715894678037	-1.797693963280473	-3.6101164726663377	-4.80651329734348	-3.8390853308071193	-0.08357240983605424	-0.10070247922744777	-1.404688593178966	-3.347535124910103	-1.4277870619011657	1.1055059405072056	2.9650010987762987	0.12562283841841326	1.6818551974749152	5.105269419178305	3.4230527791383842	3.2212424196930725
104	-6.454547865783911	-6.338459952563822	-5.88541792337317	-4.138308037800067	-4.698398578225574	-6.120233043477341	-5.355617986508882	-4.61262415675024	-3.852991571235266	-4.6967859149606035	-6.191193564996181	-5.503290162497129	-4.060342301607752	-2.9250719473420763	-4.0237126248813855	-5.754371628538014	-4.651507365880584	-1.7176012949493622	-1.9963484952114745	-3.352082959294983	-4.399346340516253	-3.359951249222627	0.19093036603406044	-0.13609231974097177	-1.0570569011702993	-2.8171093392772533	-0.7935050705902812	1.7080501274853785	3.4399354371005204	0.5521382675535862	2.412100070585448	5.45565031581565	3.6784889605155646	3.7414886856983025
108	-6.1863455616209695	-6.065406784002726	-5.389766202670224	-4.004420270346354	-4.480513561380662	-5.670082554806732	-4.687613475408566	-4.329674709832783	-3.8249330424059607	-4.469973552862351	-5.721818909503991	-4.896388041531852	-3.84084271414924	-3.213489047520265	-3.7155578042635273	-5.3164343699696275	-4.106461037758403	-1.4210184776668509	-2.1103348678713796	-3.108754388589748	-3.947246303129254	-2.8188795972226126	0.40889218346357237	-0.17164316730078877	-0.8218291381113907	-2.2998881281960264	-0.21428537314672558	2.2002983037709525	3.5451693445344152	0.8086246827690574	2.9834663792625156	5.408196435625402	3.6913812067293525	4.132672299441494
112	-5.542348370864093	-5.757329926260038	-4.874693381399858	-3.7746724987096143	-4.343882549762731	-5.355068670104019	-4.1963157547861805	-3.8387231729863784	-3.5636932759909428	-4.323574532083291	-5.342350469452535	-4.4031839259557835	-3.427788487363122	-3.365176192370446	-3.431065550724599	-4.882974135468306	-3.587242594245085	-1.4152245485814425	-2.1457745974724545	-2.9165868685518532	-3.516875734986709	-2.321806663373231	0.6105656608425031	-0.23228639305595877	-0.7299051266361706	-1.8929316949736146	0.2276191258644115	2.541954034109527	3.2967932141037655	0.8605215527742913	3.3849961672196973	4.999239908947957	3.454029551368525	4.3691234478313286
116	-4.761704909700263	-5.533023343421816	-4.501494396288628	-3.5242907911966257	-4.2914585958850795	-5.251842962356826	-4.016855706563737	-3.2688350594960083	-3.1685943523516307	-4.267641533567282	-5.123870836672845	-4.129549969737463	-2.947967760272551	-3.3341703330737285	-3.2089161791846426	-4.509468544065125	-3.1973838725426162	-1.616839643210963	-2.157475704468059	-2.787545435543301	-3.1561100403256557	-1.9500892113087978	0.8271114805319835	-0.3666954329292398	-0.773749289943291	-1.6560937124401642	0.48760887857351715	2.729810946248149	2.8029861379426717	0.7293408494655067	3.6335990337185002	4.339811314116272	3.0328996104914685	4.461905945003081
120	-4.169830788574973	-5.445003972611329	-4.346735943310215	-3.3183772480153353	-4.2853889357136365	-5.3461165293185156	-4.144230832127155	-2.759868376439595	-2.7857637335061733	-4.268689144801209	-5.062521444890481	-4.07364128991646	-2.52107977230615	-3.1568965832161258	-3.064297906768396	-4.224782456221877	-2.979141704667111	-1.8817596388037012	-2.2262577954351475	-2.727009051113621	-2.903624288857408	-1.7584441855856847	1.046789643505792	-0.6355083568740418	-0.9367724037361038	-1.6115348298393468	0.5430455194114125	2.7679443289491124	2.186352485858775	0.4624425161130235	3.7305991555439113	3.548481455426932	2.525365584673259	4.427633274343761
124	-4.005697240252798	-5.447443948343694	-4.3778657802677525	-3.182870141576452	-4.267651547147579	-5.548493371306343	-4.453806865891449	-2.404032939563335	-2.533171170514758	-4.267066944793098	-5.097331987862896	-4.156257618900989	-2.2017600480757338	-2.925693266157646	-2.994782678672421	-4.040540208151888	-2.9284086153481783	-2.070582861440982	-2.417911046599219	-2.7444951464979397	-2.7945318151490754	-1.779481406487466	1.2063055007995862	-1.0894240113409606	-1.2168883054527377	-1.7539212659422578	0.3749555935929705	2.6409249239048154	1.5101067981740413	0.09529463922759722	3.6338624862477427	2.6896426609796906	2.000651592925525	4.255341519102487
128	-4.26727961416512	-5.411693082497677	-4.468587387246954	-3.0856711786565727	-4.175312031694679	-5.725350365488728	-4.757060992628247	-2.2017364446364622	-2.434854739717451	-4.192397583867118	-5.135121809392241	-4.269674767204727	-1.9614721487113942	-2.73539947772818	-2.9784471913479416	-3.949566115898055	-3.0151512546708	-2.0970427937014477	-2.74678968689742	-2.8459179329545186	-2.848567955454542	-2.020251030589664	1.2153704135727201	-1.7454715923109423	-1.6258119303663499	-2.056401724391825	-0.03274467579203772	2.3115744532397633	0.7537218313261003	-0.3656274965114954	3.2692000783396913	1.754082079273456	1.4646205865121493	3.898403396300666
132	-4.674573409676108	-5.1823577750017416	-4.4502282030281695	-2.9403314516217867	-3.9480192561607494	-5.734050736255336	-4.8672904845374445	-2.059667105242956	-2.403430217396888	-3.9744453329830685	-5.071902739117284	-4.316597450802078	-1.7226314501185471	-2.6271567278336194	-2.966515772005507	-3.913229217186086	-3.1930878081766316	-1.9450865934854298	-3.158559314382582	-3.0120649261721226	-3.0447492522614774	-2.447846644897052	1.00332629427318	-2.57039903945458	-2.1635231917117013	-2.4666707453439103	-0.6723648888778507	1.7465840533982215	-0.14741152487730289	-0.9271787977651471	2.578270428823745	0.691931126754934	0.8706846215199944	3.3007433331123472
136	-4.789273249932173	-4.648034084029002	-4.179311264930431	-2.6379878454362786	-3.53415011467332	-5.457316384842206	-4.653989780119923	-1.837102646957831	-2.282844776111981	-3.5543336778547836	-4.8101420281082445	-4.225451935590304	-1.4208189213166467	-2.559706681464608	-2.8820547984791265	-3.85079168301145	-3.3944849882254036	-1.6605910020864025	-3.543855419748304	-3.1810140529428326	-3.3005459225293494	-2.9738655015249145	0.5621038661116469	-3.481244078429942	-2.786184780715804	-2.8989331649068495	-1.4829528294315633	0.9545246338586727	-1.2244681089003975	-1.5719321926483791	1.5767254789598246	-0.5229547010569856	0.17005833940485723	2.444515222099677
140	-4.239496220375402	-3.796014537764007	-3.5944957642402002	-2.099969143333952	-2.9077150748273044	-4.836370932766144	-4.0744056598791305	-1.4196200334946614	-1.933830852394463	-2.9056799338412316	-4.280466068904776	-3.9494879146043074	-1.054256555756532	-2.4353458819891602	-2.6393437318922057	-3.651644935925136	-3.525758019128712	-1.3288307156391657	-3.7816922569163784	-3.256202212695628	-3.4793476970565558	-3.458050480694921	-0.03829564144479382	-4.366803158225371	-3.3953800115690913	-3.237987748553993	-2.338122123537117	0.010464224937960636	-2.413085454570387	-2.2289571705809204	0.38426479600209945	-1.8394873095799842	-0.6331490262258542	1.387788292242021
144	-2.92829393601192	-2.724919789110229	-2.7387123038764316	-1.3255774941355383	-2.091333622420696	-3.8965077301830155	-3.1784834781506377	-0.7810561041185685	-1.31297766830828	-2.0584144540315186	-3.4684019001176387	-3.4641618641176017	-0.6885404569408017	-2.161024803427604	-2.1813540403605303	-3.215472213256225	-3.4798431308626783	-1.0427252027888196	-3.791832914315702	-3.1424636761480733	-3.433918229016347	-3.741282692046479	-0.6705234033821644	-5.120374189800569	-3.8612460992600797	-3.3648815070074205	-3.0675873678959555	-0.9505248045764739	-3.5481972604813605	-2.7780611444905863	-0.7964880446351792	-3.1208932320954776	-1.4583295546905695	0.26641982726543445
148	-1.1163058252760811	-1.6116665561039678	-1.7395100549648488	-0.41190141335442754	-1.1711387604708932	-2.753631584844624	-2.0891168064778065	-0.0006863520812609628	-0.507257877499662	-1.1106550665470618	-2.4351050792248756	-2.7719442774406002	-0.40908551112841324	-1.7169363455339268	-1.518021579724493	-2.5040690835673596	-3.1690614143469116	-0.8724812843229228	-3.5769131093315893	-2.7942624021553706	-3.0698165816049268	-3.700341930583682	-1.2001092403629599	-5.672466263754571	-4.0727438823869875	-3.1995520510954916	-3.509857407291416	-1.7726889803953012	-4.425042141232628	-3.09291290455992	-1.7483205751147235	-4.19054125681492	-2.1744847242767995	-0.7477260213093473
152	0.675439177238314	-0.6446561201032042	-0.7551712970740887	0.47251999258904515	-0.28324168849005316	-1.5885583122200497	-0.9635449623576271	0.7778620700270539	0.2990479163725858	-0.20979238993606153	-1.3136439290258972	-1.9122824620603787	-0.24997015234301476	-1.1879565685796776	-0.738535342736055	-1.5740424354866793	-2.566459649282031	-0.8407276251547411	-3.2289054312246286	-2.2463948669938034	-2.395299190195737	-3.3001842415457654	-1.5365018805811548	-6.00704191598602	-3.9878668684411256	-2.7400813033541764	-3.573003044644196	-2.3334400594925415	-4.89356135086516	-3.1019472997550057	-2.3227829874521873	-4.908403861051075	-2.66304849905953	-1.5136309823921332
156	1.9030545901888403	0.04348262015927707	0.08817367978484059	1.1541485757298537	0.43441194186204707	-0.5896700605763507	0.052777822927499767	1.4217480385170598	0.9134148336237199	0.5006673919434864	-0.26968195966343306	-0.9635162925235625	-0.1494728323023659	-0.7290774565409092	0.019200527992051623	-0.5634349570354102	-1.729151482984776	-0.9058891511933795	-2.891497604699182	-1.6027359921998185	-1.5248904189710668	-2.6118020945410874	-1.659810538869684	-6.152099117005284	-3.6515161898927464	-2.0721754975453592	-3.269212237687195	-2.5825807983044395	-4.929552542638305	-2.828999989042764	-2.4927773412710397	-5.234401689665265	-2.87857102621009	-1.975179309626494
160	2.2539443912819936	0.41417807236052034	0.7383657675220971	1.5300179681295687	0.9056837535880021	0.11796347767134047	0.8692269899356924	1.8756391954750375	1.2288643090693518	0.9471028423239136	0.5642399177610696	-0.023845093264577392	0.03405052414880242	-0.48402449366435396	0.6324246509797278	0.36884254124024035	-0.7826083282738903	-0.9678848957420555	-2.6943161419554404	-0.9846382712300003	-0.6282072051400035	-1.7801318123696128	-1.6105030734408896	-6.151382907595472	-3.168636075602868	-1.3364745344751525	-2.7013349464878904	-2.546326392420631	-4.640522468294793	-2.385798448261106	-2.3453288019094245	-5.242588506813785	-2.8706769870759676	-2.171998256921627
164	1.7860208704678426	0.5228295313032734	1.218009349608843	1.6143541295301047	1.16035282318886	0.5260279165338456	1.473421927546752	2.180069679478153	1.273405310276782	1.16861426535245	1.1512562007447857	0.8241605737858938	0.44254362471428876	-0.497722237045603	1.0580924722660123	1.1217538090040866	0.13034592535965175	-0.905001757244204	-2.686410181892393	-0.46649634720325245	0.15219911894518667	-0.9555155014709171	-1.4511778318006057	-6.032289966611973	-2.6468002729347813	-0.6657605154394776	-2.0073437640054306	-2.297162765425197	-4.202570904611696	-1.9169713210344412	-2.019848580029157	-5.077829824978784	-2.754437678058531	-2.202381843728461
168	0.8821490980764375	0.4856713401930177	1.5892608125615988	1.530393715809284	1.3292305435953093	0.7482972126187878	1.9229327391712456	2.430227273527352	1.1912192076171555	1.3080303635951238	1.5722836216330875	1.545741554172329	1.1165646286430424	-0.6729955060179823	1.3595277036674371	1.703063602916059	0.9094299055026773	-0.6334033592444687	-2.8032653260980944	-0.0365959144204769	0.7682349066411733	-0.2261493051302837	-1.2286331622574966	-5.787762150456885	-2.1409685557670595	-0.12493460593867124	-1.2947148051952095	-1.9111728619960415	-3.7648246193246875	-1.527811046557687	-1.6289222199321665	-4.879512297708492	-2.6476340227037944	-2.1622185652501513
172	0.05186259360928438	0.431010990246717	1.903645629844941	1.4499772750485709	1.58459519939894	0.9695368980724793	2.308361762894481	2.7042727402121627	1.1654003829142754	1.5473843773874805	1.9889099547715758	2.163307899735316	1.9385470102957638	-0.8033612350208107	1.6751764970446947	2.2201237622475096	1.533652540149506	-0.15962880809535857	-2.886804334981417	0.3921683420770393	1.2806373802277	0.41179358855230114	-0.9573512649207194	-5.3818359239121705	-1.6314932066734171	0.3133938602641307	-0.5998358711357065	-1.4364830219240714	-3.3749513540889304	-1.2347561089812344	-1.2059304683756062	-4.712026107335455	-2.6101715498827285	-2.0941824860151876
176	-0.3143128744772798	0.4543747890444643	2.166929239524147	1.5102944335953203	2.052165026251887	1.3579883541153543	2.7041840485009607	3.0063252373133227	1.3241234984345585	2.0162012526152697	2.5594329769364905	2.734225266229069	2.66062998099923	-0.6728240234553964	2.1419153159422812	2.8118233609733383	2.0534851499210394	0.40533652799311837	-2.755519621567762	0.9255432463166398	1.810889239507534	1.0299556229336697	-0.6308955534265205	-4.776439177851539	-1.0480369302992125	0.7426629643763295	0.10650789710810757	-0.888649342200651	-2.966503374239425	-0.9668108200459148	-0.7072562557483767	-4.538621414169745	-2.6188852720897327	-1.9754426429464467
180	-0.11359022529056668	0.5931674823090062	2.3389751852109884	1.7504948333413506	2.74355601571723	1.9830392549038907	3.130250922883009	3.2593221582138736	1.679651852181711	2.7230827739628896	3.349399081356813	3.3067943966346673	3.015285245911917	-0.17540609792292586	2.8145852017866777	3.55863260324371	2.5429513390233907	0.8831211902256251	-2.292610162668747	1.6184393126634062	2.4581384596751445	1.7037291483779406	-0.2501595312001492	-3.9625210661979886	-0.32316249527402846	1.2598208157203201	0.8734973646998435	-0.27151623299711986	-2.4112846790469793	-0.61587834202721	-0.06420680119277851	-4.250031460522144	-2.5890192920168213	-1.7478260949829152
184	0.45856028679466965	0.825699684919398	2.3638081490917724	2.1003827995676487	3.5468850046252984	2.780798666608919	3.544562807670712	3.3526334677927383	2.131218189580739	3.548186531645328	4.286975372934973	3.8817162415728994	2.853877060360571	0.6186639054891102	3.628305187601495	4.424901474271313	3.042612544960964	1.1107479305833874	-1.508027549750946	2.4345319209621623	3.2317809976999126	2.449450963511776	0.15551540216282705	-2.9782099648623346	0.557969151518662	1.9041074466314947	1.7170307592910128	0.39642035861064606	-1.6022299487669531	-0.10362774107518762	0.7518926243872066	-3.728552808884649	-2.4245979724703974	-1.366926308995437
188	1.043154356230119	1.0872290106980038	2.2115735951853566	2.424565309125143	4.28063868395561	3.5855588822437205	3.8728444478483506	3.216031304822806	2.5257522996075856	4.3006029020448535	5.190353380450305	4.40534876664856	2.2356729451000974	1.4875893555276452	4.426194656641095	5.269179807711004	3.5305607229740086	1.0296822760334199	-0.5421859012266322	3.2594795144756836	4.040095319084408	3.203641406553917	0.5318890200537463	-1.9027459573389727	1.540624018594124	2.6332764559065476	2.59436034501237	1.0715727779036697	-0.5178870545663318	0.5749872312333859	1.694051023020906	-2.912246458330268	-2.067072624709732	-0.8381943681535381
192	1.3204737868348864	1.294865247318243	1.9070603799355017	2.598672145004535	4.786399829224096	4.21252726444984	4.0583944218214105	2.8755814956542833	2.741372816793909	4.8147611496480955	5.857364639752592	4.801233756341185	1.4227691852887736	2.162962908052227	5.041666494991963	5.920276150061285	3.940056790894598	0.7342562656937885	0.39579620857445635	3.9628593821608797	4.743195998614181	3.858441581521189	0.8290497043658961	-0.8270013907533613	2.5271623070808324	3.351587763907439	3.423571816383778	1.7006381707169824	0.7669946531958184	1.355979200754338	2.6565744809789513	-1.8259067489300678	-1.5163564643722516	-0.21643730943394077
196	1.1759144038075298	1.3760800326890619	1.5262387952417713	2.577498191047985	5.008930670489652	4.549982059435251	4.104764927990957	2.4570498404457153	2.7516484191086636	5.033012377429584	6.171531184827317	5.022832380964807	0.7738307694924932	2.4721355375817	5.38987492154202	6.277194007283933	4.212755669448043	0.4454359400947122	1.1286833257788886	4.472816932829537	5.239742742660813	4.332478035478781	1.0383750174055157	0.1828480954322128	3.4309544476670184	3.9731182951751394	4.135884751368198	2.2523016872761312	2.1262228435240154	2.153301948832844	3.5343813806944646	-0.5665260539056578	-0.816694734418757	0.42951589714326827
200	0.7380083780729262	1.290539857467103	1.161906597064942	2.4150600372375206	5.014879690860375	4.6089134099944715	4.0818695918976395	2.1285211986207515	2.634095900560851	5.024909960457853	6.163142665561387	5.091945635337432	0.5795372709901172	2.431539529383414	5.512140736968192	6.370378955016193	4.349712360844204	0.40704437987555575	1.5953900773776668	4.814942824604913	5.53069160972409	4.629065025086416	1.2083646028527981	1.1059213848802412	4.219626416043245	4.476641643665828	4.721856105326994	2.7390808989987923	3.4466793450119604	2.912002079287306	4.28223084322283	0.7398792486584127	-0.027114611050574094	1.0571656200420951
204	0.2868463687807111	1.0429643366230548	0.8818778969433942	2.230843299955431	4.946187006860223	4.508373725952656	4.091691960494666	2.0171081968878823	2.5231797631455746	4.939376341746803	5.9937624780007495	5.097923742774732	0.9276562905732373	2.23842000396157	5.550550446801637	6.348846896354735	4.425741184504789	0.7574603538462634	1.8741886568434458	5.093888269915047	5.721607670643441	4.843365657022166	1.424955006816458	1.960637922105224	4.922852980582466	4.91781185815867	5.239334570054423	3.2113299288733725	4.672242152815539	3.632799139387634	4.934693324027913	1.9834594676484962	0.8009737709803602	1.6675393539289058
208	0.0948210654248912	0.6866919380970495	0.7062490564635051	2.145720714873714	4.942045676151684	4.411599148102505	4.2140989197193095	2.149410719213152	2.538393729476792	4.923819529499703	5.875983700221941	5.1567988265494265	1.6674718814711906	2.167875046025055	5.669637665739252	6.40214298539254	4.556383598267966	1.4486967288634496	2.1309368556581094	5.430844293234237	5.963304504597423	5.11213968893635	1.7624250605908929	2.7752709318664053	5.602790818373844	5.392219529842985	5.776216015537306	3.723504533903498	5.804109081873133	4.354962814779922	5.574080929988078	3.095528833203218	1.6279936987781998	2.2890300692939967
212	0.28593495415975173	0.3147103182476386	0.6163557156260109	2.222234720341545	5.0753793588289655	4.449933517665144	4.464565742664822	2.446680062792453	2.7260873248891415	5.057273851977705	5.973086342036106	5.353014455631667	2.4889120992764036	2.424875968532928	5.969930156893928	6.662311537134358	4.835439669798524	2.2571558895343835	2.517772668203782	5.893844112774503	6.365800841471843	5.534329400394837	2.2318527642167982	3.5513224512083332	6.3057484467565175	5.971516594115265	6.388551695906591	4.28951023926158	6.862226945717755	5.110152231665977	6.264217837730513	4.044141282361546	2.4133331714734476	2.936425201631649
216	0.7870647291339158	0.04128658016032973	0.5902755245564505	2.4451498923556425	5.342540727478178	4.680878150565952	4.795149314217874	2.779306881563247	3.0459139270174482	5.337569700116461	6.338602526873764	5.704354271791738	3.0776085775874513	3.0360329074501102	6.4474892453488515	7.148824196886257	5.286898122790781	2.890985958429722	3.083978168330647	6.467591269376468	6.943533879869165	6.11627004986552	2.7637689043838485	4.247338284259412	7.030940514932908	6.658449156162665	7.058567982972286	4.860249030240037	7.843064765201827	5.8855175823389825	6.997751695131448	4.816015231371003	3.1068866174457823	3.5796003251298583
220	1.3881206477404495	-0.024624427718338292	0.6351851804908856	2.746891253211861	5.702925667669368	5.096039759167428	5.136412130739082	3.0449099463833864	3.4036700639621014	5.7201766823352855	6.92361591498415	6.169733031908273	3.2659003652132563	3.8385448358896608	7.018215638561227	7.785293559445586	5.860287651524997	3.142844430617937	3.74645160682835	7.077857476484375	7.623297195261081	6.774822694839797	3.2370445646574484	4.792312609970886	7.734296302341676	7.388775806845623	7.700277785887037	5.3398046358713165	8.70405957885444	6.622189028232972	7.690855960501889	5.401852117251527	3.656984319990635	4.145028103853658
224	1.8692885590088326	0.19429348360121484	0.7980120757935933	3.0606875342341766	6.13839910864754	5.665826783180514	5.456698880723892	3.2264406599600997	3.711293211149905	6.179028972283973	7.64020011880239	6.694992048526458	3.1057357709673648	4.572347629447143	7.589456539066004	8.473881700102087	6.473530276166893	3.005414478343454	4.335151661418076	7.6536574170472225	8.308384874348052	7.397746544280249	3.541510811447339	5.122147547187449	8.364026048523977	8.079591730699624	8.212345102556837	5.63423393734353	9.386713957929244	7.252772312926303	8.230896928987049	5.797054752972486	4.034325589484717	4.552615154216201
228	2.119370931996515	0.7245341521090206	1.1443028421121337	3.367032519422644	6.687514288230395	6.384630187127429	5.800305828708907	3.3972389612256526	3.9391436477389443	6.743895513673984	8.435721376101753	7.265522938504462	2.835878841869635	5.022144781784415	8.13119981620165	9.176725364404238	7.07524917723559	2.68519663132783	4.690463054258793	8.185982683494979	8.956386543549407	7.923264483474684	3.6413705257032736	5.220363126926051	8.903618790081559	8.693017937646966	8.547327973720364	5.7074980591678335	9.86228463543948	7.75374076792979	8.549509980550793	6.016265377113857	4.257799614646818	4.767763125779938
232	2.187796587188747	1.533948894442581	1.713258142914124	3.705133428755789	7.426821689928277	7.280218582846022	6.273743136778729	3.6730635073432274	4.130700577797302	7.485387783225236	9.325940108595377	7.92552469159886	2.7621033121944505	5.127690302300408	8.698927857370814	9.94666478506775	7.681004028001128	2.502984517453765	4.755034434711001	8.74091909109048	9.61482236342022	8.384059884838143	3.59882115409134	5.136581407929816	9.389329886572542	9.26837155863086	8.74939820941624	5.60813377871802	10.163517926304916	8.171956995359002	8.67103288368636	6.10406301864634	4.397450912817181	4.83063982697617
236	2.2534623089162675	2.537221186907731	2.4788448747992575	4.145188321138409	8.411758401613914	8.38000486165502	6.982880574716113	4.140987862622403	4.3758034595637305	8.458303430182923	10.366078350598187	8.747087456553423	3.1105673234606592	5.008814799060501	9.39340589059057	10.884507151779514	8.357541063188789	2.7310914924332703	4.607773292352086	9.41610715396099	10.387462589740975	8.884566284636497	3.5419354349356467	4.969140993923852	9.887501691650227	9.897156690405147	8.932772613860491	5.44800709302611	10.375233624012573	8.601761796214769	8.702820755920555	6.126821025638441	4.545113075225132	4.840335833726592
240	2.5283174450936627	3.614503374510731	3.347099057330027	4.740523326349201	9.617816900766174	9.659246420314895	7.955330828608568	4.809731948153225	4.759937274359267	9.64295003363729	11.582750291190937	9.765465711733729	3.92902373275595	4.894724356691081	10.283953640722524	12.050827949616089	9.162761665098673	3.453181973321959	4.421112526221797	10.268196080032329	11.351723642299126	9.523523306643892	3.5951497464010247	4.820114600409727	10.445673916193126	10.655056926528744	9.211453414548492	5.343537317136307	10.586483928654998	9.123677230688074	8.771948792245048	6.1455645406057675	4.765819060690852	4.900782572770757
244	3.1512086311888603	4.637717712137324	4.18869637385449	5.486634717440303	10.92292496784463	11.010671587801312	9.096335388105738	5.60355900303377	5.3158602580326	10.925146075321932	12.915848699385245	10.922926875193257	5.072552191325117	4.996691214343796	11.34461209293964	13.391510929629627	10.081051801024842	4.5181693916688905	4.367210853994605	11.257202120015798	12.480865447004469	10.311560604764152	3.8100654982693034	4.74700354331282	11.048965426205607	11.534112901177016	9.623117422603379	5.353592859103106	10.833349200553696	9.742856001097454	8.948115326224098	6.184958442331259	5.059367167096931	5.06159208927149
248	4.125957001759474	5.500496850431428	4.893874632877308	6.3133992989405705	12.14727970871095	12.264731376200057	10.211560223546902	6.402523501443825	6.001629337416922	12.132431953316308	14.214704477661126	12.063805549680978	6.273417933837656	5.400739179327091	12.44513889985346	14.72986980533995	11.001358004450804	5.6142320491188835	4.529082286843975	12.245463340360033	13.624656642847143	11.139651270398033	4.136483182000232	4.7384877085259705	11.612119645364833	12.42150494300395	10.096457455893173	5.451509461944269	11.069703074163503	10.368648502874413	9.201936698569101	6.218252643144416	5.3571481569456925	5.291189657203774
252	5.327071653267966	6.141478523007441	5.420786367081653	7.112621289415404	13.12899014019233	13.255134549053533	11.08797928871697	7.101817589949273	6.715591890545981	13.106726613332036	15.296251258377747	12.990157094583378	7.257456284319507	6.03472803499571	13.404428448212736	15.836642225336146	11.75689980399588	6.424331171982027	4.865694033735811	13.055308309018496	14.56660934585224	11.82174393530189	4.452388275349376	4.727014052854255	12.01528832263062	13.143046345906352	10.484151813740022	5.547327027620322	11.18762490308941	10.852272006292054	9.42464349274559	6.180526717794107	5.558465943607824	5.498732076113374
256	6.556504233019172	6.557020170823045	5.809319958324821	7.78300474109199	13.790919269075319	13.894239390579598	11.592982262905826	7.653238754023377	7.339865189140741	13.770065272851115	16.032499272876322	13.552703823204586	7.847421149468172	6.720002634248224	14.075158083665302	16.5404738962276	12.208572356871631	6.776999933298655	5.246036993133203	13.553630794637794	15.12912460322109	12.191116302228203	4.6340165021246955	4.631570804346447	12.165267913621589	13.55059620297065	10.645676585976254	5.547490582765173	11.079297991436642	11.06497284956607	9.498973822452943	6.007310375305411	5.5885038234758335	5.593729958716545
260	7.618851165609221	6.800046426770742	6.148497565958469	8.268405893430922	14.161220514783464	14.214650118225228	11.73952385799483	8.068425158157016	7.787259082206736	14.146621668384777	16.415750462094252	13.72815319409951	8.015239695339638	7.272706967111813	14.411689721914762	16.8157004885503	12.324725119945072	6.713878137803726	5.530138001784814	13.716211284339622	15.26731296499378	12.194843261447309	4.625430572275768	4.407457817393968	12.047724693398337	13.603761638627436	10.532152149312193	5.416377530728037	10.705085727366788	10.97190568061159	9.377252555060064	5.677017197580972	5.443625913227601	5.546081528966241
264	8.378204324550193	6.958935720040239	6.51712940477996	8.568422295871697	14.336503946347753	14.347456895844024	11.677778214535	8.388597467224148	8.027457216976272	14.328690492693163	16.5582484780919	13.63401981726198	7.872177104148101	7.588435630712868	14.481106721556396	16.792076068443926	12.204288451853149	6.444421275080718	5.642456040441668	13.632819141300656	15.093102417032739	11.926055878092729	4.467759597942403	4.071170319768891	11.736751526764035	13.393871273556773	10.218892071672922	5.2004461157153505	10.123891804883966	10.65424058131596	9.114953018063616	5.229464994578852	5.194015012978902	5.406609044729751
268	8.777206398738121	7.124194604052932	6.933592301982888	8.720627762711535	14.413990938034441	14.446674310449481	11.615241975068864	8.643640496365382	8.087335566129292	14.41121002373482	16.623617130270613	13.468254055351396	7.6043062018092735	7.6724877163771215	14.413227044908927	16.67853160461927	12.024682014623506	6.216843112508326	5.595670685945532	13.451338734044006	14.813199959548507	11.572376222003262	4.271395195667179	3.688244095073455	11.355752916275769	13.0941819814057	9.86434743298066	4.999570833934914	9.466415381373036	10.264673207116418	8.83781430874135	4.748426425389305	4.941441046636609	5.274256216084418
272	8.825506188044887	7.352065544639723	7.337479572844273	8.768278099810468	14.435038530144386	14.601797067015843	11.706868142134894	8.82647035277634	8.025090197328927	14.435737573416548	16.730539279658863	13.405019726287415	7.387923698846065	7.604668598048592	14.322269403537012	16.64592166512641	11.94259449804609	6.180687888753173	5.458081231642033	13.295200314333236	14.617289506246747	11.311082811408081	4.151045788774988	3.333193770576194	11.013017626613749	12.865868535937215	9.621111845521039	4.9055199499255435	8.867400146984526	9.943387006450537	8.664680459080817	4.318288792197955	4.757946956065952	5.231820093297272
276	8.5764274380634	7.636196117195068	7.615066985931275	8.733249642257304	14.372083627654407	14.787208519794794	11.97300240354793	8.897848106807555	7.89448593053831	14.375892602864516	16.884452777195072	13.50340935158832	7.321725350014177	7.4678621103568865	14.246296846660952	16.73591228074393	12.004589050501872	6.318754657050828	5.290938840859193	13.2017955446716	14.580571137809178	11.213552446664087	4.1640767946014625	3.0458850783694498	10.749505015889893	12.77462956064267	9.55294320555643	4.94706295671763	8.397766092078928	9.745212530327343	8.636342026840351	3.981579770526091	4.644865024283585	5.293119417178151
280	8.107575396095282	7.902055243568515	7.65824220631177	8.60938260765793	14.161097490796958	14.876316032997552	12.287359206648299	8.8157920614825	7.719938735544429	14.167768442623379	16.975931124742434	13.678787196909695	7.398700695431405	7.29523847645434	14.137343370983885	16.846675830268968	12.120749442969826	6.479056341979358	5.102296339504415	13.115129437712676	14.6347608196792	11.21505066901138	4.28545664658993	2.8118431497153535	10.528066608551024	12.765350309567463	9.606431936805661	5.074494349065575	8.037094095919226	9.620053267032501	8.694332100851655	3.722629776138983	4.53640221404107	5.393716321678806
284	7.512417774306894	8.026117304565103	7.419501285894025	8.37491700918984	13.751932109444748	14.709790192658714	12.43832012850837	8.56634614689012	7.490156154795228	13.759231532644092	16.84445186176872	13.751260722727693	7.5240292359169825	7.063306790638545	13.903037989800547	16.800304370425106	12.118706672589243	6.481612189140874	4.8495302077878515	12.93269821716497	14.621606789866219	11.167389841494993	4.433243263495857	2.5789863998149793	10.26906964570395	12.708408323627244	9.654506658974324	5.19447611450972	7.703551272969836	9.457981085740034	8.724522568609904	3.488831749690692	4.346351612561674	5.432947145096604
288	6.893021566153922	7.877199629922774	6.931867105148864	8.013553599152488	13.14352985878355	14.178747141326127	12.230560271855179	8.17529294810937	7.172226410877465	13.1461629535645	16.368652302423126	13.54339310087702	7.565654258700073	6.728371126353561	13.470958675705896	16.44933505673602	11.847475021967885	6.234508975500833	4.487472999687066	12.575390783985053	14.393695794958239	10.941065760645508	4.525525558489917	2.300507778081547	9.909278844610382	12.4870261830729	9.5839185472751	5.2333168851330925	7.320902329081195	9.169330573773493	8.637668587811124	3.2361712374044043	4.029883374530113	5.340656267033717
292	6.341164096081164	7.36602590608519	6.288075908043812	7.530603389800531	12.38325020524653	13.275523152212507	11.572505921709965	7.69450900996166	6.73775289741752	12.374434439887928	15.529249152076595	12.970479932462647	7.411612015131473	6.276786788351855	12.835075346012518	15.75741000965484	11.268813104788729	5.788036808659317	4.024357308717648	12.036172836432874	13.89920326538396	10.510993930981822	4.5282816772573735	1.9746829221460578	9.445233321184817	12.068810432480843	9.36856267471091	5.185355650207796	6.8768658464376315	8.74610898670726	8.431684472730598	2.966956846375731	3.6185758022500827	5.123509394107839
296	5.909100517612694	6.4824318722137555	5.590812192152867	6.954088193502185	11.535219163381255	12.088900535579535	10.510988208935938	7.172842007647151	6.183917029980372	11.510636300589315	14.412394487232808	12.077113121058513	7.016024571824815	5.7506828162914685	12.058635681224793	14.810824356832338	10.48353097176161	5.300439821212403	3.54336022436076	11.380382509109094	13.203189816518666	9.974266980737807	4.470221985021148	1.6556456047218742	8.93509290346645	11.519627542021693	9.084257102918947	5.1172156204726065	6.435098631824227	8.266970613588354	8.19617936926025	2.7339563300725214	3.2060744681475053	4.862995135427195
300	5.581862912390305	5.309637533133761	4.906444060335808	6.3251771767184515	10.645338985269099	10.755551311040644	9.20409772456462	6.63611744158892	5.542887673688659	10.607113811415413	13.159460988198894	11.006107302534517	6.417004092227577	5.235974298609049	11.237027139903159	13.761382068222158	9.677924131754555	4.939970480844424	3.169141761407866	10.701729747455827	12.437510459015785	9.489226317289566	4.416236389454323	1.4255479538211866	8.458946206670557	10.953360529901575	8.855545975261524	5.123792635379097	6.091080650209879	7.842365245092509	8.053854921987748	2.605354779341301	2.8923473285129546	4.6652674557201115
304	5.274131284749284	4.007913102521373	4.248350609543722	5.685722813556307	9.727579092261513	9.400952315437241	7.852792243204611	6.087753280528338	4.875704753009853	9.685617422445581	11.898657768725867	9.923546766022113	5.71850441442569	4.817776667828959	10.447072956411763	12.740961042661267	9.022620178330914	4.785463797884907	2.9964702053710415	10.064907048563162	11.715352982506538	9.174473739348887	4.418900001813321	1.3447043861770913	8.064171770716584	10.452229473427552	8.768239952837908	5.262372003620526	5.900417789820895	7.536009292649431	8.074784258482758	2.6122918063013256	2.7203385761243593	4.593061435547189
308	4.862871157766376	2.7708053518911075	3.594287147984013	5.069863306596798	8.77925965953616	8.104198435349412	6.630076391646897	5.527365670554021	4.252078045599984	8.748256661262385	10.699992152855723	8.945385910337436	5.047691809307805	4.5322017555250635	9.714290594370258	11.800956696279668	8.583003976132732	4.782875525796714	3.0275912208411744	9.471151328016353	11.065102549272774	9.031173683253165	4.482836235172405	1.4103784525548593	7.730736712964676	10.00916192388701	8.803957916920092	5.507661328715342	5.826250061584078	7.313636761319999	8.218916872254601	2.7132542064828216	2.645460122105035	4.624876964336492
312	4.246020783194623	1.7674102738580304	2.9239847586241177	4.501699436266137	7.810341338465598	6.899271947607868	5.6357269144820945	4.9714336269747035	3.725221386087274	7.803205947248261	9.573990797666376	8.10315797667284	4.502983081892779	4.345933903212142	9.014490104804077	10.908509226914228	8.290876367617354	4.7815756677067345	3.1574680725487894	8.866226173903993	10.421835873040422	8.935361839622997	4.560731876302642	1.5491882523524085	7.378316383806845	9.52744386174874	8.837050415615838	5.755136475337841	5.7419471595752425	7.052372437791395	8.342979410088345	2.8015670705634417	2.5578637058528058	4.665681827209544
316	3.4005951795551916	1.0905407639626528	2.249381536526668	3.9955317873213096	6.859486562576481	5.7994494291749366	4.886908995687864	4.456167209818595	3.3135332977559586	6.880388242516385	8.504132249342119	7.359843235507538	4.114783753496668	4.175297249742812	8.30265996744112	9.993673299353361	7.990824679226963	4.626530158759808	3.2225370325743254	8.182852724396435	9.678284620645247	8.704904534296643	4.580195892214193	1.6505318838409253	6.912301999760029	8.878698326582464	8.696810700393739	5.870561108072545	5.492897496660332	6.60776565790806	8.27002237139315	2.7552463938768015	2.3437030256226357	4.600220191785219
320	2.4060985981274556	0.7291595917412024	1.6142439801468378	3.5529413133563454	5.979645713967788	4.81747149204848	4.337283600347019	4.018929948196683	2.9940500183806917	6.020605072079706	7.481406192964292	6.655468923931419	3.8362131021919343	3.9286827941886955	7.545073967003987	9.00896928420034	7.52965639120673	4.246031750449234	3.0849027555780686	7.386646252102464	8.757881142439256	8.199441889088439	4.482367027409918	1.6210788447459754	6.2786369165210125	7.980742911216528	8.257598856104693	5.756972775229445	4.980612265409782	5.896213039770475	7.880562762391089	2.5001540120898174	1.947586293071709	4.355809677570753
324	1.4176000320883233	0.5768411740997988	1.0659909221438366	3.157819024696341	5.203143106675338	3.9637322325767665	3.9063556095679424	3.6696696188782854	2.709693186594351	5.246472345457544	6.514392836335943	5.948404773952669	3.5707087426632937	3.549074164013082	6.734718305750377	7.960752467083649	6.835240346817384	3.6858882810993	2.7026727131318515	6.497474177168453	7.663283328735566	7.393630962778189	4.249019135237834	1.4294375145108291	5.495750890207815	6.847909433241696	7.503369312415677	5.400208459571351	4.22042797930416	4.943681704437349	7.171967965138371	2.05033707101053	1.3995168173741526	3.935850371914129
328	0.5975798949412985	0.4702100443889293	0.6192964895825143	2.7713172365791463	4.510183322963468	3.2253441729175796	3.50477980682511	3.368645421106194	2.3856279789774786	4.535760868064906	5.610664830347372	5.227878080520359	3.2202966131921644	3.0297391338148776	5.883081898141031	6.895724755996951	5.941206440230609	3.0746109407999755	2.1431815570126926	5.573921189540483	6.472877962936119	6.3826536971116665	3.902826060931834	1.1138135166657355	4.644033897118936	5.5854964115266394	6.530740244589347	4.868086802589634	3.3362090503384785	3.8722860715375043	6.253774150317915	1.4987188539812963	0.7907361368242314	3.405192843422978
332	0.03983405594901402	0.2479656630454404	0.2394764566335774	2.3373665750618513	3.829359760152963	2.5501222546089237	3.0542318743841426	3.033835403412079	1.9527256439498466	3.8233015440732876	4.751841533107734	4.499724376761846	2.732994072689697	2.398971313141788	5.002066122777491	5.86043499420651	4.952417361153575	2.545468323956611	1.532818432752625	4.675749290105268	5.294025407776449	5.32359741774207	3.488142243161671	0.7499929647583663	3.8212761782489335	4.335919846078001	5.4947457174808605	4.269156922052225	2.4941203531237277	2.8354117798743546	5.286962972644133	0.9632985567567477	0.21682082061861857	2.8427677082768033
336	-0.2690838270546222	-0.18572296155292228	-0.13898859883026277	1.8068017913977366	3.0797803324190043	1.8609218550428348	2.5061109002736304	2.583307974968863	1.37533187518973	3.0401141566768666	3.8928260704938245	3.767647018456966	2.1320719665103463	1.7022137598929972	4.0978875056755575	4.871739375212248	3.9831490416097752	2.1664800589222537	0.9831903552027721	3.835710515828457	4.211249817706239	4.355766762226623	3.050481073307187	0.4061141003845726	3.0973722856521766	3.2166225828974855	4.536801326741479	3.7008590604804477	1.8201591922581775	1.9468899916132008	4.409958828282428	0.5263342844072176	-0.2714781456292045	2.298723215021477
340	-0.4267098892882617	-0.8226548412533795	-0.5666685686109559	1.1698188752203194	2.23200177582836	1.1011728020522644	1.856976862033691	1.988435621009651	0.6733971817181095	2.1686766092859706	2.9948134346690476	3.0297615451612563	1.5102702341096026	0.9966458057036209	3.1849884906464214	3.922907580961699	3.108551017542288	1.9209288310189563	0.5427277670509172	3.060000411890941	3.2637164510342003	3.5487666040468175	2.6287944250493336	0.11431153089749495	2.49548506106706	2.28745960611742	3.738288393119102	3.2188517966064567	1.3499251569997865	1.2465974061009961	3.6954595949331672	0.20276208170719878	-0.6783967000999571	1.7854530766231458
344	-0.5508067593973105	-1.5507311781831687	-1.0318275664027594	0.48110207793839493	1.3503111566783774	0.2868261628061833	1.1561557025329527	1.3089536395403636	-0.06868571770731109	1.27975546990583	2.0738949723334987	2.2962095679483556	0.9927199457854017	0.3595057716829724	2.310503476985143	3.0210635585804333	2.356435054551672	1.7443178848095826	0.2018007630975272	2.3553905427592654	2.461675160868608	2.903985969840992	2.25951933290305	-0.12457898227709734	2.0074672648290934	1.5607033928567828	3.120438567866279	2.8397796082324676	1.036716816192051	0.7173937541015356	3.1556944767433306	-0.044261958338328265	-1.0317131254850795	1.304195639178536
348	-0.7098982912260202	-2.193891996566668	-1.4478605949086514	-0.14070051872969574	0.5848464355007912	-0.4723898458475067	0.4958295213578615	0.683571932974159	-0.7152563315452866	0.5219960795574833	1.229238507028307	1.6125502545651766	0.6850364190925928	-0.1018420231751284	1.5673862656121271	2.225738281352597	1.734899874121691	1.5846558769271681	-0.05691790193850093	1.76079833062979	1.8235109998440142	2.3984143673424128	1.981286163096183	-0.3091299824062436	1.6298022229054085	1.0388607952592086	2.6791348389694774	2.5658461982795515	0.8097201565326184	0.3358556917770917	2.7815399099694744	-0.25232249434662	-1.333909865826232	0.8831036068554607
352	-0.8869950152890868	-2.5818114215516212	-1.6925760464850181	-0.5496336207818031	0.10815927358976284	-1.0080242131532258	-0.019785284946079673	0.2729782157204795	-1.1196755142553054	0.060268252935834724	0.6197468622773001	1.0641316148594075	0.6283413751950542	-0.26484215192685784	1.0756418677829225	1.6507470566080211	1.2662808863140564	1.4429622852133768	-0.206722273900722	1.3532383407759065	1.3977514470096521	2.031805510159491	1.8280110313039053	-0.40735378758580365	1.388895865748441	0.7448128443033052	2.420730346289977	2.40726422655774	0.6395628436153615	0.11527220130665625	2.5798993045520544	-0.41186076298679336	-1.5343108138447434	0.5938757046964392
356	-1.0047866080664902	-2.621771090563892	-1.6834880071097698	-0.6361518486174123	0.02356495702277578	-1.1777087420293177	-0.3173294059371015	0.1804885412666079	-1.1838737696321608	-0.011412309453880361	0.38733601472336454	0.7458129506354665	0.7826071957856424	-0.04344599683044536	0.9286135411659132	1.412599679241451	0.9925651525233108	1.36599945677152	-0.17199470059362532	1.212860342778276	1.2432899443707603	1.8361529065503779	1.807128305640992	-0.35881185441024926	1.330553647496693	0.7136329990489274	2.3646397530935794	2.3803880154592143	0.5626031742196698	0.1039193046449509	2.5756714278995205	-0.4586883771759686	-1.5487506350515725	0.5247892724138955
360	-0.989440259819561	-2.3390393198086046	-1.4430659972950242	-0.3876652409779502	0.29891997500289846	-0.9538798904177651	-0.3879137625437137	0.3924265493975544	-0.910838005627296	0.26848563484116666	0.5666210041045452	0.7086847406614571	1.0424758169557091	0.5472652302276326	1.1314038009688585	1.550948854345339	0.9443105435371707	1.393048998176615	0.11651400447277149	1.3640845979583	1.3764568532523807	1.8394154263785665	1.8772915554333292	-0.11563795775781639	1.4771127663512151	0.9484399533167841	2.5085017617788243	2.4803221163116413	0.6460211856744037	0.3365221015063204	2.774438851027442	-0.3168745330916466	-1.3188452687344447	0.7208225708882279
364	-0.8305636623393686	-1.8670977306909997	-1.1099036903969202	0.08851981140675798	0.7668200115870674	-0.4620482313888298	-0.2929339103455418	0.7738306502832039	-0.42116466058255075	0.7316875439290337	1.0374920342000424	0.9161768532509932	1.2790743080270566	1.3493473495747927	1.570750113336178	1.9726998756193872	1.0972119542076504	1.501628156685438	0.6403378828094192	1.7319579080722949	1.7231718258267166	2.013261074705212	1.9490195463563593	0.30227246804214847	1.7822946265044721	1.374293919908232	2.786607973692641	2.6536569528338516	0.9186164713554905	0.7744383196351547	3.117952338929685	0.03554961821402163	-0.8715120531966772	1.1326626510633364
368	-0.5935996159825367	-1.3926563227778261	-0.8813963510194697	0.5985614046243368	1.1966907947844323	0.0616182944112985	-0.13490840758594846	1.1269904346622521	0.08182004073466266	1.1513868541258034	1.5580168923142492	1.2423604695424795	1.390902038877226	2.0836546368443805	2.0426890798494197	2.463328116873346	1.3522640432548678	1.596837993404895	1.2472832171420503	2.1484546607133685	2.1160144752483974	2.2484550419306184	1.920619006076196	0.7785043100728872	2.119587654484371	1.8291891767095612	3.060137025736421	2.7987620759873937	1.3159319129144686	1.2800223795044603	3.471134415445823	0.5223014937565413	-0.33718499456151624	1.6123322207751387
372	-0.37713473940045694	-1.0778088542429056	-0.9090062952933281	0.9431039071113843	1.4040335381345384	0.3786846389746383	-0.007865355330219039	1.2882043090721207	0.39128431579028505	1.3484929765987395	1.8700348091595365	1.5213510951732399	1.3400909866831239	2.4472484526835965	2.333451503584309	2.771780007040014	1.5634978970153768	1.555007453807138	1.6857364135143105	2.4158453880350983	2.350909465576365	2.385103696523358	1.7349989370410575	1.127491948142126	2.32196735749514	2.110681051647361	3.1591503540386827	2.802839510516894	1.6820090966673367	1.6520222383751264	3.66087507277317	0.9804121231121607	0.09243456995991585	1.9670036981511636
376	-0.25021046336898123	-0.9957600210798502	-1.2056221931536064	1.0074689362839	1.3388113941723163	0.3647792926161607	0.04368571926054614	1.2079725235004555	0.38659962914134616	1.2767411438178593	1.8236204339715456	1.62385737485981	1.1579745978683262	2.2478570881357416	2.316232913845067	2.728647225166492	1.6047024686352833	1.3000680175382615	1.7164179043349794	2.3987200199600496	2.2790758552230597	2.2873630465931276	1.422201987490523	1.1751879423988414	2.2580873909205814	2.060754770798071	2.960276357806172	2.5988273554991386	1.8349372102186083	1.710318918678381	3.551590910527724	1.22893452334072	0.24937777158241015	2.046382422048957
380	-0.20896153099231268	-1.1117407055442599	-1.6223930079506654	0.8149538615631974	1.103584882810945	0.068046457893709	0.034665431739784945	0.9692867969836333	0.09159463620902288	1.0391914818275876	1.4513169490411602	1.518587585429851	0.9185906029397233	1.510611530304725	2.0125911184996284	2.3324546755076025	1.436869856067687	0.8638855793122763	1.2490484682972613	2.094259018378886	1.8833451223507236	1.9195859383755574	1.096774217697525	0.8543004968055009	1.903627986870132	1.64329301896052	2.455812209604724	2.2077639047195112	1.6608653026609663	1.3843969071721531	3.115175954583057	1.1583422393163727	0.07052941602542918	1.8150988771388123
384	-0.18374471320014407	-1.3133196797591378	-1.916041130950425	0.5136175142672053	0.8907520152490837	-0.32480630196581634	0.013305606286906947	0.7359671574131018	-0.3336577705065484	0.8261486867073574	0.9470151638916704	1.2815947500296652	0.6969528776692266	0.4947210835840945	1.5814511736042656	1.751561994898715	1.133267995834147	0.3886803974828792	0.41992372168378256	1.6373673636104906	1.29161929758126	1.3749316896057187	0.9033266879163103	0.2575872235947262	1.3636653388880087	0.9681415533418104	1.769694919886503	1.7373276905065524	1.180622574686451	0.7539861183203671	2.453053468232905	0.7890346030341242	-0.37113988305801804	1.368237134340028
388	-0.10007782255177877	-1.4751883707948554	-1.8822399330300885	0.2952151589092707	0.8712619521078312	-0.5999801739803434	0.014087961019769701	0.6518482549422235	-0.6747125370156919	0.8059269169486896	0.555934070137234	1.0439248058665405	0.5272796736756132	-0.40850627319194843	1.235188838701211	1.2337870566689226	0.8389762022770829	0.05799433946868495	-0.452878116417933	1.2299550740659877	0.7127232533580175	0.8314078429211912	0.9323466992680601	-0.3940249075478158	0.8244189599203428	0.24179817675100662	1.1021381588766093	1.3299171891013883	0.5441566095918654	0.013778680900714227	1.7517759755729183	0.26126193934281844	-0.9054132677106943	0.8790971614577086
392	0.051760863382070824	-1.5228217801747148	-1.4805195294193962	0.28981020973468447	1.0964127751325197	-0.6400547607474509	0.02376744890172773	0.7507848124622082	-0.774949965904615	1.0287153694883147	0.43873301037645174	0.9103464461230745	0.3877064575897083	-0.850362179516555	1.1273761959222643	0.9744856332971066	0.6870125514804869	-0.00523164867033933	-1.0204695437416162	1.033355829490942	0.3306854656930383	0.4595414686521625	1.1568754882214431	-0.8557899572700326	0.46029809001103106	-0.3278231612511835	0.6328887327427772	1.0896166535523881	-0.043446946779469066	-0.6168571695012401	1.1980500191004586	-0.2362962061161322	-1.349115487507202	0.5118051158380958
396	0.1902870084011404	-1.4602979384746622	-0.8797553755483014	0.49379205579064844	1.467872496713595	-0.4867888080704454	-0.01652455884516514	0.9312025285098405	-0.6204818471501697	1.397364374447458	0.5874685630271299	0.8981951452466185	0.2177216405139959	-0.6867662650888968	1.2732795444766234	1.0174258921684902	0.7198701482717665	0.1851102556085006	-1.0826077433909458	1.0837639542873796	0.21647122447673234	0.334466575731786	1.4310585224260481	-0.9821432208060018	0.3472403875167044	-0.621654210905297	0.4363559771488106	1.029469010614952	-0.4230974901961248	-0.9906616185925698	0.8985043741429325	-0.5596349821266388	-1.5898133476172718	0.3463674774961727
400	0.18044750346878366	-1.3544725145475098	-0.3918180753829011	0.7682635764752379	1.7903239681818928	-0.30890306752415664	-0.1743112947116168	1.0087280247969566	-0.3514309218593805	1.7193603472215324	0.8397448637741657	0.9325610375701313	-0.04181380186848845	-0.048687782015661214	1.5454359015546923	1.2427074877834856	0.8644276835551398	0.4723087239261722	-0.6990652066700886	1.2775976625611192	0.3056843571097672	0.40402090447463523	1.5594270189967852	-0.8025624731781923	0.4301811445819268	-0.6476626975873736	0.45675557736471684	1.0707930299426867	-0.552996216808317	-1.0844082804957749	0.8473049380844545	-0.6717792732444111	-1.6235873658196591	0.35739171414741633
404	-0.0759562922586568	-1.287127849190195	-0.3175372175305862	0.9152599550027284	1.8792825889823794	-0.2913914017472939	-0.47159677624845003	0.8259708264477967	-0.1858384604530442	1.812973733139356	0.9845283602653119	0.9037150717806862	-0.3993526985099351	0.721721468533816	1.7496430829696608	1.449748274003922	0.9801248287250687	0.6369096024645287	-0.16098219115621162	1.4385395013729196	0.4555104065361803	0.5345543013427935	1.4068826401476089	-0.5008232580891805	0.5669373259535696	-0.5073664175575239	0.5597752914600859	1.0989509793192265	-0.5075698482096287	-0.979274628074139	0.9577330922741866	-0.6386746152011613	-1.5285561046154983	0.4558758128100533
408	-0.5582028613302362	-1.304178473040884	-0.7843503336176977	0.7906966785494897	1.6647008615425787	-0.5149130808227722	-0.8519238808103722	0.3545569172490559	-0.29776909872215857	1.6093764264481898	0.8942217804266333	0.7475415449342333	-0.7908315638602759	1.236976381993512	1.7378386215202772	1.482778068613523	0.9492791867131027	0.5175947533890912	0.16741727250268892	1.4259067737818285	0.5415197597183042	0.6018178447787738	0.9838784908249666	-0.30771955770048454	0.6204045399260912	-0.3190823189308753	0.6242400392030591	1.0388801071640672	-0.41255429282932643	-0.7916753868142306	1.1290578813657115	-0.5686148986765375	-1.3995913231799335	0.5589998946381605
412	-1.1106309862706334	-1.3921338284630442	-1.664480562776045	0.39005124470460734	1.2334890334457982	-0.8979792572237871	-1.1924052208359017	-0.27388787200442244	-0.715151546580036	1.1944954365136078	0.6043186172486562	0.4971734272802192	-1.1000510426404237	1.2485413519807929	1.493965741200328	1.3234769072496675	0.7532518487032329	0.100900515659214	0.0502049586399435	1.2200342385960403	0.5335875140069776	0.5684204683257711	0.45359837894358035	-0.368284522557262	0.5425608144413229	-0.14834164045551335	0.615084288951517	0.9021682716480253	-0.3608794799276425	-0.6020717009602312	1.3033959832662483	-0.5372571931625989	-1.2883239951985275	0.6408724172624153
416	-1.5090151987123808	-1.493144508406686	-2.6205718451140387	-0.14054948056021627	0.7881197909484212	-1.2378317086438793	-1.3585990633041811	-0.8272718170260245	-1.2954311338143116	0.767810521571444	0.29329678342201815	0.27104610136264096	-1.2131863801843743	0.7533155064636923	1.1446315021225955	1.0964870425197222	0.4862656283022503	-0.4688911724173141	-0.4902724313278702	0.9339908933900382	0.5047159182203437	0.4990226017750622	0.05097009228712252	-0.6606745703229239	0.39902943271981195	0.012736441535383745	0.5924504384341686	0.776019690461698	-0.364005773340541	-0.4256610561591196	1.478029843413414	-0.5470443354146527	-1.1860842674827201	0.7330359201997383
420	-1.5721447428111115	-1.5445589980229708	-3.2625837243677482	-0.5745161161222707	0.5438868389702931	-1.3256936039832676	-1.2722849813764123	-1.0916118594265622	-1.7949938728789647	0.5405849800766519	0.17686121121099246	0.2041107858034488	-1.0802072259333224	-0.020548256062245893	0.8899852014959844	0.988806066400752	0.29869991465494333	-0.963957486103076	-1.1843150824209636	0.746793149016323	0.5720168933731484	0.5064066635697737	-0.04346040997857372	-1.012378809280232	0.3220822802994913	0.21218131429030535	0.6551178677231226	0.7620045523478215	-0.3639256050935205	-0.23458066523453824	1.6736965137186584	-0.5414170609156156	-1.0527603599671578	0.8812951423328965
424	-1.2599909273760797	-1.5164240560392561	-3.3374082957883315	-0.7197582107491609	0.6213668569135603	-1.0690143081377903	-0.9558966731732933	-0.9862311457529561	-1.9938242385116098	0.6295171960195696	0.3798186769432717	0.3625509729768587	-0.7528964262073345	-0.7326219063381737	0.8946015812221831	1.1334105701440897	0.302547692488704	-1.1921995848119458	-1.6626200633987234	0.7976255396732008	0.8091386536196579	0.6627957804158349	0.19376102040961943	-1.2060711353369211	0.4209532727103885	0.4779942023606855	0.8551914074287094	0.9009814239642543	-0.29364785477885885	-0.009897941698476019	1.8857464742733716	-0.46070140483888544	-0.8679047204993335	1.0906385155798375
428	-0.6947380286796099	-1.427629348011488	-2.8518886494158844	-0.5162055479368186	0.9885945891216228	-0.5501762018618236	-0.5278606401467721	-0.6097437723977703	-1.8084943248865053	0.999974367478054	0.8608267881594155	0.6950125676727522	-0.3750088503429428	-1.0900191041128955	1.1995651691668237	1.5283302030123698	0.4983625101381637	-1.094225880721232	-1.6577845769988835	1.10424673278486	1.1883314817943682	0.9363363361560281	0.6079310759454377	-1.111627695138051	0.70651048243483	0.7766871432722078	1.142274376846259	1.132617589952	-0.14005169237063136	0.2192257041164607	2.058028692771506	-0.2979226402867123	-0.6642791612066149	1.300095435674789
432	-0.09111984051110204	-1.3303166594296645	-2.062050814190795	-0.06328743680234226	1.4820705614818255	0.014238387310319229	-0.1488659527119563	-0.18815906298338672	-1.3311365809211246	1.487900491772587	1.4347822629943443	1.0534383031951213	-0.12305397509262744	-0.9683097576489418	1.703996415604439	2.03973340473176	0.7711884955962712	-0.7657673935629916	-1.147103187525901	1.5537285765520659	1.5909429748422028	1.197777745083812	0.9452454423881124	-0.7671244125071668	1.0779825421773426	1.0224580738955924	1.3776519263771099	1.3184434142203836	0.036311015395040724	0.3808248331468624	2.103105301315536	-0.11511502385878038	-0.5176581131263275	1.4095067942318649
436	0.35964211730755186	-1.2741699186580302	-1.3392828669112993	0.4354675699206764	1.8908970308246988	0.3873390843625627	0.04966084274032392	0.046280946465707615	-0.7755731324641684	1.8843387317766207	1.874900217090978	1.2695015636817186	-0.12722328273123654	-0.4413910198988547	2.221386665457822	2.480905288154651	0.9554944014267198	-0.39781674642259596	-0.35981708674184826	1.9668246457987104	1.8766004991835479	1.2922539678372258	0.986905393492953	-0.36210682896743623	1.3775187696010178	1.128624436389999	1.4088146650984803	1.313892003556826	0.13576468791062982	0.4041331102181416	1.9535148094446804	-0.010449336815320422	-0.502154647036167	1.3383278812951191
440	0.5829004034584327	-1.2757672039246883	-0.9826979612335257	0.7770887593676904	2.0561528153958712	0.43344575057267737	0.019535066510589474	-0.020297562652243837	-0.3660366227922007	2.03452133618718	2.033071035974167	1.243479248722089	-0.4054720093503508	0.2750273339957167	2.5752489501784193	2.7167901924205493	0.9311122870778784	-0.16864621596672633	0.3487355700271201	2.195897573649007	1.9672325799865233	1.1341462106680502	0.6662251336443288	-0.13272805478440833	1.479494925578294	1.0677047940953812	1.1611816853770138	1.0495638820852133	0.08537131526373672	0.27244585683701217	1.611312623724185	-0.05746195823347589	-0.6402475817728125	1.0795487138195066
444	0.632858572792597	-1.3089717593523296	-1.0743485662038514	0.8547801353807976	1.9371041010586842	0.1804578746769484	-0.1940224910844277	-0.3249917022129221	-0.23276798368336685	1.902949924432879	1.9092793416455975	0.9935872529693386	-0.8449078776962194	0.922469673211912	2.6797823838286825	2.730015270969923	0.6920508128813407	-0.1496862020289619	0.6782695633929722	2.1976368371791617	1.8914897394108487	0.7652562241306884	0.10498333695847237	-0.23247165919261412	1.3586647476225577	0.8978145695906885	0.6896589977018326	0.5735341892067201	-0.11076678307700732	0.04540608066777415	1.1603897780685275	-0.258532732072411	-0.8833789207089832	0.7121210080287275
448	0.6260448082376566	-1.320733663085451	-1.454413887166581	0.6954140645589455	1.6146955449345162	-0.20916077441813258	-0.4884560691898932	-0.6691641790661381	-0.367921589876141	1.5750074346831564	1.63266706054466	0.6370173676620104	-1.2483614651633148	1.2940908637752762	2.562976115431573	2.610127919282863	0.3458564868778034	-0.2810072593746771	0.5210580216603766	2.039294952965899	1.7601139501002068	0.337163507087129	-0.45385914926381427	-0.653211413164795	1.0955662699695567	0.7332572918498752	0.155219807828971	0.02817019626836512	-0.3727499237186259	-0.1692914362447909	0.7284575682368102	-0.5442914352980069	-1.1386644811491964	0.36051404385144725
452	0.6491562707723844	-1.2624846664978964	-1.8235696508143253	0.42568263304047377	1.2378624646405059	-0.5360097275552443	-0.7614019493906636	-0.8328385928107673	-0.6566492898574703	1.2012644975850797	1.3730376924181176	0.31820094505080687	-1.4241130316064865	1.2904365030133234	2.328130477749355	2.4803967413267114	0.04684331256245329	-0.4243111003653324	-0.01058813461223266	1.8418015195121906	1.6900349812753692	0.02804111309720417	-0.7753978948089711	-1.2378898827770333	0.8197618702218652	0.6767921430666547	-0.25930982762670823	-0.4225931156933089	-0.5970221742815432	-0.27849575806876214	0.42159789694200683	-0.8172981718409394	-1.3239535059880883	0.12734933165345705
456	0.6957241875249289	-1.1189897032142513	-1.9149661015799704	0.18925759148498483	0.9434728598616123	-0.6724690181920104	-0.9551357602800118	-0.6991718393793226	-0.9601335501271654	0.9163128114453827	1.2396097151930403	0.1298611309825951	-1.276142117139379	0.9261374450189055	2.082330698477972	2.412904733287884	-0.09350931620830864	-0.4595103848299906	-0.6737364513553145	1.6981737570803213	1.7266448692597203	-0.055657528200294744	-0.7520728688325523	-1.7754064753530399	0.6273476465598677	0.7553132157329405	-0.443910567831794	-0.672952471464563	-0.7255842667380221	-0.26128441029384203	0.271827190428128	-1.011722681352201	-1.4158792459980025	0.04100257892985323
460	0.6738041622316083	-0.9226108170103838	-1.6405488211219894	0.06565338356608318	0.7911052087837488	-0.6245512946572904	-1.0700918409033193	-0.3189351848656187	-1.19474935229971	0.7741048912531231	1.2250635593002004	0.06992069614161678	-0.8530719854751371	0.302407859992414	1.8760321092924048	2.3846936165683386	-0.06785984320196901	-0.36449313071731654	-1.2383475272384632	1.617929454533285	1.8122380926153956	0.06313543750796818	-0.45208525543513256	-2.119343513859987	0.5240939246297014	0.8982452131481035	-0.4136653830097793	-0.7187715750666849	-0.7864630202464274	-0.18473920179454942	0.22858509363636384	-1.1305325002737316	-1.4601567946761904	0.04910408320546327
464	0.4799998092453466	-0.7448136191636853	-1.135018465037491	0.036105498580374054	0.7446930389676092	-0.5153446184498565	-1.1439928979600842	0.11720282554837919	-1.3607114519096877	0.731955884039135	1.2250002591676086	0.05811946824420407	-0.3328575483501367	-0.43136742602157396	1.6889600711142037	2.302150005250252	0.029787952005161645	-0.23055294097865503	-1.598676677482284	1.531494136758349	1.8222812368161132	0.24949581858108977	-0.0744559390453199	-2.259368890780017	0.42964324246650937	0.9752035712416135	-0.2896705858546506	-0.6439499242736884	-0.8768361188685075	-0.16525523322820979	0.1988818491444399	-1.2358161179812437	-1.537495490007052	0.05965653419333963
468	0.082165643365359	-0.6730506403142603	-0.6790404898665507	0.006031430311174289	0.7018105966015117	-0.5091731535453939	-1.217980262542266	0.3766271164445089	-1.517119165404872	0.6830660087505828	1.111752745682474	-0.005841169957225167	0.050654280802867754	-1.1200994224878777	1.4617480002690968	2.071790213122504	0.0638146175323078	-0.20832985586973912	-1.8008991434405324	1.3446652855302175	1.6446804958780985	0.33536279116836604	0.1606612350460677	-2.3106462897136644	0.23540435671977095	0.8701550938571467	-0.22360621336271758	-0.5624722228154289	-1.1000522347333161	-0.2989941827854565	0.10966376932590118	-1.40138911847111	-1.7075638727945286	0.0029091564864976876
472	-0.44495287425234964	-0.7818380574514027	-0.5477651343821016	-0.13218374516969372	0.5517961368934392	-0.7222139817123516	-1.311349388626417	0.3008893720659499	-1.7261439518262927	0.5169619308771086	0.8144444206655883	-0.17991195573682892	0.10819675746065131	-1.6447392660576987	1.1482186288454115	1.669613357143274	-0.06368500723257095	-0.4112818230735517	-1.9811409661818769	1.006241438232495	1.253113147432812	0.21342612749097414	0.12596245078232482	-2.4319312511078888	-0.1211120557707481	0.5494828210309022	-0.3111504904520609	-0.5514400587464501	-1.4964731893904086	-0.6027554258387235	-0.045980244758865266	-1.6600146251728796	-1.966964239876422	-0.12497912315762547
476	-0.9553612446506279	-1.1040121289036162	-0.8673194624937616	-0.4350496221525666	0.23250061214874068	-1.1658725709089939	-1.416719909905792	-0.12254703759009264	-2.00722145527466	0.17677989557456295	0.35897168426481096	-0.44880509263213486	-0.2237866813254806	-1.95649587614095	0.7537543754620655	1.1649425000342668	-0.360560952706767	-0.8352472165000597	-2.263558143622834	0.5459591732546117	0.7301027756377468	-0.1072038856422314	-0.15541736742358025	-2.725220911774874	-0.6119000896263654	0.08520848282520206	-0.5438338504412216	-0.6147915705417641	-2.01198386638019	-1.0007063125140478	-0.206858097984661	-1.979933256872487	-2.249075407071875	-0.2641141705997316
480	-1.3137029376240759	-1.6119338233304659	-1.5539728363857388	-0.8772333838249325	-0.23945274888617785	-1.7483330920900948	-1.5165930948114124	-0.7661808113781099	-2.3295104444817105	-0.31233695070564194	-0.151281192516802	-0.7406030874627375	-0.8561264254889402	-2.088670248480277	0.33713757906671715	0.684484837711234	-0.746371088527734	-1.3440687622468113	-2.6816201142317575	0.061010561729412695	0.22608658614297714	-0.5122903572499872	-0.5341647849901697	-3.177039615239244	-1.130254504211201	-0.37922617697337785	-0.8230811932763814	-0.6945097428906964	-2.5240249570063558	-1.3644245828512407	-0.2852178506802695	-2.2847509326470856	-2.464500659442407	-0.3347868612896779
484	-1.466967698208189	-2.2117116395423078	-2.359612697365915	-1.3615132535891818	-0.77226048512985	-2.321508878568685	-1.6022093255599128	-1.4288140499280528	-2.6345829897167254	-0.850424645184122	-0.5920460209203886	-0.9716261600758714	-1.580786701025987	-2.13217305598763	-0.018377777142616916	0.3446163526417377	-1.0983502837106967	-1.7275483564629446	-3.158408157003813	-0.33406394635734477	-0.11662410170197426	-0.8463586547463896	-0.8181808570231897	-3.6683463957676126	-1.5457408389165934	-0.6967369300417506	-1.0201985810271514	-0.7146376949387248	-2.9055302069739337	-1.578170057126954	-0.22162908259702604	-2.4992096361003804	-2.5529577667630194	-0.29031467364446734
488	-1.458216305865782	-2.75779866475964	-2.9939782543885634	-1.7601065591242733	-1.2321822612170417	-2.7426900794401194	-1.680139060546875	-1.9235082816197437	-2.8698284553550875	-1.2994246450041802	-0.8738169051996777	-1.089772221674859	-2.1535725539194415	-2.1775107328751164	-0.24354749856494176	0.195954486232977	-1.3127341237303427	-1.8064577533889616	-3.5481009393756464	-0.5615659937985518	-0.2295101726221035	-0.9907436941882184	-0.8691045619956328	-4.042036046313394	-1.767850990600387	-0.7805956582388411	-1.045438763840013	-0.6302227361979946	-3.0872878950373788	-1.5917589624271178	-0.02016390296196278	-2.5906784469046005	-2.514368766158543	-0.14580093287373222
492	-1.3790376151553496	-3.08997153455697	-3.2574417508852473	-1.9649491260509433	-1.4930422268365098	-2.9221866057050736	-1.763471241313349	-2.143026584936668	-3.0070636196509364	-1.5345933398602656	-0.9680724715586901	-1.0938403578797982	-2.3907415806491383	-2.25184106258247	-0.31002509515689813	0.21037462300591872	-1.3496067489882004	-1.5300703010075494	-3.7123031522484293	-0.6092526897307057	-0.13972392642983902	-0.9162068939918842	-0.6651871783628307	-4.1882724656219175	-1.7835602715284373	-0.6351215227304261	-0.891387579574719	-0.4556803691803282	-3.0841052454329874	-1.4358494245517086	0.2524663501564222	-2.5818028384827953	-2.4031126438503265	0.03047593675309945
496	-1.2962188687976743	-3.0877473276381475	-3.1165351788990834	-1.9254145573641372	-1.4828393421881974	-2.8416955399292902	-1.8553430987245225	-2.0778026528351075	-3.0398011130832967	-1.490480180791953	-0.8979263282993601	-1.0229324076575173	-2.2384178581943632	-2.2940020503300276	-0.23390722215724377	0.3126810185167392	-1.2415654627924726	-1.0125741933053123	-3.591346970073956	-0.5216833935917811	0.05857384190076029	-0.687002835923413	-0.3038485340553202	-4.100168694634641	-1.6514894920614689	-0.34230434808138227	-0.6318958981772602	-0.2593712800153165	-2.9728255196854994	-1.195897576173764	0.49998378627428336	-2.5285510953005925	-2.2915008010229885	0.15625187715181235
500	-1.205373403366942	-2.72329091338192	-2.691783898233196	-1.6616084533701496	-1.2107784717508174	-2.5456559593778905	-1.9386615704227328	-1.7925140812439904	-2.9703302308429222	-1.1853442162150571	-0.7092333418105847	-0.9288078523073904	-1.787115211743156	-2.1852676813266014	-0.05940520375869815	0.43187439332643107	-1.0698647472072984	-0.4862202095630461	-3.232864848557772	-0.36594840791815586	0.2609297924606461	-0.42201724541926533	0.049245104069355505	-3.870020618204601	-1.461838241701059	-0.01773642930380781	-0.38384759329204743	-0.13144525852395234	-2.8403546738438084	-0.9647892093141719	0.6400973780683578	-2.480632060463691	-2.227218622306501	0.17924228265330697
504	-1.046159860830685	-2.0879771656725783	-2.176520580518608	-1.2550762860081779	-0.7673641423878481	-2.1203792041649896	-1.9827948758609286	-1.386745568588953	-2.8051559854255967	-0.7178168874737278	-0.4485094535947953	-0.8529568889063663	-1.229741927856809	-1.83655774129667	0.16087944765003945	0.5352654443578132	-0.9276864505234175	-0.19431044112261062	-2.773775093704899	-0.19856139967377526	0.3999621261989024	-0.24054378210371438	0.23268175066375577	-3.6362633613332336	-1.291711923199007	0.2358060771233816	-0.25818315083168597	-0.146315499770779	-2.7381706168660807	-0.8055441955255531	0.6314218028339138	-2.4537243781128026	-2.2149374429094073	0.09658447628669956
508	-0.7662984113419549	-1.3722933496160419	-1.738021726988565	-0.8240833857711045	-0.2945320896818693	-1.6707307058114125	-1.9631111572292896	-0.9625502800481267	-2.566908591465346	-0.23424063563811431	-0.15933068056410596	-0.8185058811503292	-0.7794577459683072	-1.2843251195906427	0.3784421374779819	0.627268789615029	-0.8876535274029027	-0.27792441774771015	-2.3911626278587685	-0.05177263902467453	0.45970481518075706	-0.21906633619789487	0.15044830701513592	-3.5151426703395954	-1.1804273098706597	0.35700240641104874	-0.32280713238277475	-0.3370314231946402	-2.669035427984234	-0.7409698944457592	0.47438493251239144	-2.4305019317297836	-2.230026477905491	-0.056855719392996
512	-0.3857564618384823	-0.7984067777502994	-1.4512892924860543	-0.488680391269939	0.06415655447735971	-1.297996279300389	-1.8803771686762711	-0.6072589143680027	-2.3096909464696163	0.12217417328506099	0.10963575514292746	-0.8350101688283864	-0.5861943349343387	-0.7206346970483701	0.5527646527639493	0.7208638173023083	-0.9841514800973487	-0.711969969859248	-2.238137954783205	0.059933330712397107	0.4573391962425616	-0.37476166988168336	-0.20341284521721348	-3.5516672044728437	-1.1319293947251607	0.3306536368128086	-0.5896390661611458	-0.6904743892403012	-2.608038180442314	-0.767809746711064	0.19344571183955367	-2.3862574040247178	-2.2515497150795434	-0.24040242968898642
516	-0.008018244968972205	-0.5287122117045282	-1.2943725553257734	-0.33211785471034166	0.2173749948020186	-1.0758440467374903	-1.7634245112719633	-0.38377535246276206	-2.1159644073469126	0.2645709805961369	0.30423954052405955	-0.9031529403772287	-0.6823571903167035	-0.4267581094457632	0.6547660811105465	0.8100783208421695	-1.207751867106054	-1.3219898905755654	-2.387316459350413	0.1275500204919091	0.4145080734754861	-0.6720033271035561	-0.7549290041936885	-3.7105810548559264	-1.13293540191714	0.1775207813072505	-1.0201348040574028	-1.1567827433944067	-2.5373279984308987	-0.8764096476362163	-0.17997206702093313	-2.3179056585918203	-2.288024181311307	-0.4335606385251919
520	0.23259815514966933	-0.5915946349466442	-1.1933727234274532	-0.3694375744075308	0.16353416401582688	-1.0260568831287546	-1.6512434440884574	-0.3207673720367436	-2.0638439603196903	0.19803178260396068	0.38343426488389604	-1.0107898686638213	-0.9811484192872122	-0.6285560115203485	0.6757605654821315	0.8675314762146924	-1.5070855579472942	-1.875611300501353	-2.800430767618313	0.14412718974918146	0.3417924633933436	-1.040060636755508	-1.3837590182653776	-3.9054601093870978	-1.1688522070937928	-0.05820628240910024	-1.5388346871624843	-1.6641571479743105	-2.4675669607804904	-1.057588932228221	-0.6100920423363136	-2.2537355366072283	-2.3742330014366684	-0.6370523555884052
