time	FP1	FPZ	FP2	F7	F3	FZ	F4	F8	FT7	FC3	FCZ	FC4	FT8	T7	C3	CZ	C4	T8	TP7	CP3	CPZ	CP4	TP8	P7	P3	PZ	P4	P8	PO3	POZ	PO4	O1	OZ	O2
-200	0.6345255358888218	0.4564993667997967	0.3628895869629728	1.234760281306358	1.2980326381336103	1.0323469612760208	0.8107546547447283	0.13755474949916607	1.70952927634639	1.1394945354302428	0.8800420738889472	1.0361015770502326	0.04229630891730762	1.5130526981299823	0.9694472526869635	0.6011757835468743	1.1194649906504903	0.04866691293946192	1.383704420410901	1.0893706055793766	0.197878628469597	0.9223680472928266	0.4793658244427938	1.4279111587712747	1.2187683551534965	0.5580349550463279	0.7827227095869255	1.4549716674309807	1.003090021461887	0.7432215195011095	0.653794286984582	0.8244198539900122	0.7748371939169847	1.0123834584425127
-196	0.7478831987572232	0.3724701991214012	0.26163417034850095	1.2129619090927168	1.2227052419309714	0.8916875101464715	0.6348005517191211	-0.1248683404750095	1.6298032957890118	0.9434692239782903	0.7002086025679282	0.7178574782367174	-0.24993954535799986	1.518633481006212	0.6826310140541103	0.387110768771327	0.6999781710118083	-0.05739727229289671	1.4446616136316328	0.7621961812802905	0.09193262434636838	0.6042639001848905	0.29389136955447387	1.510343428613202	0.9704030727681684	0.5066481219851492	0.623552976464468	1.2494420973703644	0.9245622730754032	0.6948211175542169	0.7476093154151717	0.7220177632222464	0.7002491337262731	0.9475835537828134
-192	0.9200541949884878	0.3469153037849202	0.21340280717376464	1.2583004204452282	1.2059094875406984	0.8592131712201301	0.5449210391591798	-0.44346347339246256	1.4987461529085346	0.853787062396702	0.6825261098795704	0.530954538435317	-0.4295009065751451	1.6081885058808154	0.5529723749504671	0.4271649409476505	0.4657018768950471	0.02425033779280153	1.6648774104999577	0.6363130791811226	0.30770578902757617	0.4604786622819222	0.23892949461217697	1.7036335425279625	0.9089181996285725	0.657599089869568	0.5719442353113507	1.0828862162906334	0.9813247298260126	0.7612969856114792	0.9060185528768602	0.78713953296292	0.7138816696263025	0.9482404565712245
-188	1.1154073448630053	0.36645904090865744	0.1882481868282621	1.326374289024884	1.2154724567243178	0.9119574404579963	0.4963556515559655	-0.7818779925633014	1.3307639326829297	0.8558619000760949	0.8066573122639231	0.4402285803170575	-0.48853599901833517	1.7411882833389076	0.5691527709896326	0.6728883964715913	0.3903693844952928	0.2015202040352778	1.9766421268148784	0.6915310603802116	0.7337103467536691	0.4622922528039241	0.30857646387393445	1.9669326494147708	0.9980232094362578	0.9032177902305806	0.6167148336098759	1.0258519623605342	1.117854234734147	0.874401626763448	1.0918915244191423	0.9641219353175962	0.761949000819031	0.9727327203033328
-184	1.2902615037767047	0.4223222721881333	0.16865807729100668	1.3624914850167658	1.2069141834304957	1.0049060557743186	0.45136195307260935	-1.057048198892184	1.1592925757702721	0.9010814405579348	1.0084807847310524	0.39674389262167004	-0.45311283950846587	1.851759071443227	0.6705842001196818	1.0123635504912079	0.4008562256705983	0.33181789433626685	2.2550523224162813	0.8401992299801413	1.1931943863307355	0.5227597342644176	0.4148756553188879	2.1989309732232574	1.1266094417738097	1.0978183718620642	0.6799042803764548	1.030754682799511	1.2083837955483674	0.9275227165646328	1.2161023586087139	1.1164139481014308	0.7477487306789494	0.9267635918106901
-180	1.397976156519888	0.5073295818871457	0.15678210516923435	1.323949572081543	1.135078546519273	1.0793116065431887	0.3887586285789494	-1.189729687547979	1.0194010708820702	0.9226689315388931	1.1960649460158708	0.3530901959564486	-0.38296252392401225	1.8731893253716647	0.7732537369278795	1.3133313622694842	0.4045791317738697	0.28417310046928423	2.368550056199551	0.9659748649050505	1.5163332185608478	0.5337524400586546	0.42646974217506795	2.271997684464563	1.1571898431171947	1.1216963501266681	0.6517571790452367	0.9470564699103954	1.1175438137449405	0.8265149572485775	1.1815656393737062	1.0955358716007981	0.5876085743373538	0.7209418993867669
-176	1.3906154597458693	0.6018801316324068	0.16286618966467672	1.1923688620026807	0.9635990237703018	1.071164962925146	0.29739373847263323	-1.1564006776223612	0.9245922542116495	0.856103418096115	1.273087021474485	0.26945045522371	-0.35159686119001626	1.7603704884906723	0.7998799065422039	1.467542883028819	0.32011669793369585	-0.0036717383098287012	2.2325959149259815	0.9701646541896688	1.603600021128301	0.411063044225456	0.23262323380389527	2.0866272396811136	0.9870820020549766	0.93373793127825	0.4465577889135198	0.6015490874361601	0.7722980360559637	0.5399042950350356	0.9379518604439414	0.8192604759512805	0.26241606407669044	0.3277505925963527
-172	1.2276699512003582	0.6652665121448265	0.18796428990591368	0.9739746426787372	0.6761095506764103	0.927858767551028	0.16775417285527003	-1.0074485514954383	0.853291449776646	0.660832820654403	1.1694343060531995	0.11937770217319439	-0.41116163030766556	1.5023262462832847	0.70371770681093	1.4233579599683783	0.1065074798755952	-0.4941986488739572	1.8410460902462147	0.8052493313485937	1.454892989300076	0.1309651878149822	-0.19602580319027071	1.6168514449305988	0.5918207153637065	0.5867094978778318	0.051847834009159134	-0.09503756439533001	0.20357060381037445	0.11959075152482553	0.5155627714491836	0.31511509338928634	-0.16675217407564194	-0.19573968599491
-168	0.8990524388502585	0.6472659094681056	0.2170158917193147	0.694609938298311	0.2900465421506222	0.6336253269410518	-0.006260693988788547	-0.8382552244957001	0.7588379959974788	0.33912941727846985	0.8721981622609546	-0.09972187851524	-0.556551395441614	1.1261141271769768	0.48140191910318053	1.1987603872550983	-0.21728689913726298	-1.0538396808720254	1.2664666143867076	0.4852282392648762	1.156037446918017	-0.2566623383240816	-0.7787168006309749	0.926427838847518	0.032088123180913836	0.19842442820042724	-0.4546838093245221	-1.0720971795670795	-0.46588635327016115	-0.3202683023472993	0.019138175945838543	-0.29396015331437103	-0.5871172532517107	-0.7298302035978771
-164	0.4558956015520687	0.519777654289189	0.22945368232016025	0.3963551213271041	-0.13389518823196972	0.23356205166022095	-0.21257854944440802	-0.7291261535355678	0.6018172487323276	-0.05545428008741412	0.44486647731996587	-0.35385033398935	-0.714780030830089	0.6932634693762344	0.17323960320126103	0.873925862490052	-0.5711570367697896	-1.4962360821140908	0.6324225052125213	0.07329185288521495	0.8341117480199552	-0.6445263011872112	-1.3456463779807433	0.14817436002037354	-0.5762417301888062	-0.1057796475600805	-0.9317089891752183	-2.100298876228017	-1.0811088057879188	-0.6570799334148851	-0.41774088038832935	-0.8522937872349143	-0.8912186600118521	-1.1476350993745337
-160	0.024594636571896707	0.30962535660772117	0.22132158223540618	0.13489904965674235	-0.4968374657007909	-0.16120004613231564	-0.4036810089886617	-0.6877875906745445	0.3851218511871609	-0.4269688714691569	0.02059615584478258	-0.566659806728196	-0.7683233599337967	0.2860591106345054	-0.1487828936396715	0.5665876255035552	-0.8346233942894155	-1.6484894710882083	0.06802544725647873	-0.34515979798910523	0.6044152959822379	-0.9078134275404499	-1.7073298649597313	-0.5677375779123035	-1.1131478519945646	-0.2505301528804269	-1.2336841790523	-2.880971901295581	-1.529723282766543	-0.8195995071699069	-0.6950877291296241	-1.2473851410843588	-1.0312783692071854	-1.3743251527420155
-156	-0.21927612964581336	0.10838072719628608	0.22229859176777528	-0.025924188950770668	-0.6863224489050198	-0.3998063196578529	-0.4937651442936003	-0.6308723076151168	0.17028357045573358	-0.6632468087617116	-0.23542517364190618	-0.6309874041838874	-0.604697166346669	-0.012368186345762219	-0.3998093594947288	0.3976808478328512	-0.8832446314446433	-1.4107792341853171	-0.3338917485390234	-0.6893089992285952	0.5335980640290762	-0.9475407576479727	-1.7326047376757645	-1.1104948492623101	-1.498769279510649	-0.2375638627968535	-1.26988112605869	-3.17542266043986	-1.7883993342069546	-0.8199202993672782	-0.7894717434978032	-1.455436583659055	-1.038744089365033	-1.415553089382615
-152	-0.12218470095541785	0.04125951592637974	0.28841051386495786	-0.030334183869665417	-0.6197828634826535	-0.35163888246447683	-0.3873357167001414	-0.4249665130376279	0.056734796470213227	-0.6762824041458225	-0.18992146801681703	-0.4484825719000695	-0.1723272796094711	-0.14407439493520494	-0.5064811693755549	0.4519177961860589	-0.6369129999292723	-0.7952030281017108	-0.5427834973936415	-0.9024217105969704	0.6275592430482861	-0.7255964260855255	-1.4059882128503676	-1.44614624611995	-1.7127416090638046	-0.13325817849370222	-1.0377773020292171	-2.91279434422366	-1.918433303757801	-0.7426316719379015	-0.7569473962746215	-1.5359696111046546	-1.0012059186452937	-1.3447606529616172
-148	0.35939276127676356	0.20554415829738848	0.4715653347984104	0.14619225226685587	-0.28645503448642634	0.027247939190019426	-0.028654448615684714	0.035729069172535766	0.13204461302797804	-0.43890985735705385	0.19651657293295102	0.019936207631560218	0.4852067815928112	-0.09756408607169041	-0.4281491030373746	0.7478556614114065	-0.09748075132792422	0.07306955736308637	-0.5894427284617514	-0.9569146012941975	0.8456380345928745	-0.27489882638190544	-0.8331419208472635	-1.6147257048846964	-1.7795867874991629	-0.02306451642650509	-0.612748859765824	-2.2187728825817308	-2.0120069929823043	-0.6939591747882963	-0.692143736522311	-1.581277724088407	-1.0091005538258622	-1.255838390994352
-144	1.1058055134510905	0.6106272920450453	0.7822695950784869	0.4801053988732996	0.2371100926373241	0.6583503468104204	0.554628191978147	0.7552782278065457	0.42040142310812884	0.0014836757872047346	0.8419989326199456	0.719844816297801	1.2351800172138068	0.08825802035698482	-0.16634757774792808	1.2300035922467123	0.6444695575655283	0.9969431732756545	-0.5384509549851465	-0.8466830232224383	1.1298851938331052	0.32031080045891686	-0.18599249375591612	-1.689037437942927	-1.7315459207686477	0.042597982924915415	-0.09953576301239875	-1.346133943973775	-2.1206352657182985	-0.736478148031471	-0.6643217189228771	-1.650711174611957	-1.1005790205825112	-1.2056446044999853
-140	1.8551442576300539	1.1522529096122034	1.1655931443349923	0.8981597400877113	0.806416747918217	1.3563941682902165	1.2389779059600163	1.607142801995516	0.855453191027902	0.5365756140513132	1.564745899064533	1.5047453603900312	1.9019523811004366	0.3377850941235998	0.236156165003586	1.7840455725449733	1.4357196056357155	1.7716468527886793	-0.45204079037024236	-0.5789982661887741	1.4297387563847634	0.9587242579096541	0.3752731075348873	-1.7226697163003963	-1.576171990229838	0.07905352840730066	0.42221191418861026	-0.5498074875301739	-2.210836643359214	-0.8462213256451738	-0.6686392409609265	-1.7295137600148063	-1.2359175650863952	-1.1800075739632112
-136	2.29871320144118	1.6383625227571479	1.5064939222447473	1.2932214704287772	1.2565062014327293	1.8931665372734365	1.8345122291024327	2.3674449860882056	1.2945022550324772	1.0310927603438236	2.1447181647511226	2.176058286894897	2.325466865390357	0.5640459642474601	0.7030587178599571	2.2671406211833687	2.106935018941975	2.2455046120216857	-0.3647389998763943	-0.17588296488224742	1.707311625938476	1.5508747061674255	0.7652626614323079	-1.7175832943466856	-1.2917963233757959	0.15436579248078539	0.9248178577915547	0.02629693777180337	-2.1762347166429867	-0.9198242402695249	-0.624060033176292	-1.7372001365670553	-1.3169581856856203	-1.1026154728707656
-132	2.2145576421138577	1.8611851883627877	1.6682562785944544	1.555024739154079	1.4593905173648927	2.0848786778263975	2.1511001532604004	2.7984890867150116	1.572281952703038	1.3645112480045252	2.401603692667002	2.550500863311581	2.40953659402942	0.6978431326413442	1.1381769151561647	2.545114749204696	2.5237834389863356	2.3592603147068925	-0.2771211259521003	0.31685388008228405	1.926397914791159	2.0327935167487934	0.9915618871449844	-1.6261304575872253	-0.8530864694037809	0.34091421875711797	1.4194290602132833	0.3920115520593535	-1.8994160842623578	-0.8285974243224824	-0.42022770537136955	-1.5771604736562972	-1.2389622895431245	-0.8802130200097315
-128	1.5725475509994866	1.6823291736089725	1.5465680321746977	1.601502176056083	1.3643311227684687	1.8614405346603609	2.0723607487808535	2.74541520379237	1.5686286648246885	1.4624062739643342	2.2542798462219427	2.5259449418190134	2.1436486190079735	0.7063491326618303	1.4414342605437727	2.5242938931629033	2.6219189100825617	2.149761432942125	-0.1718638832998348	0.8199664929668624	2.037274832350272	2.3621623456443896	1.1212130756680494	-1.387542482687588	-0.2718573801806305	0.6587973816451071	1.9135220002499982	0.6671994311653674	-1.3289475407426303	-0.49175721282779883	0.012117340198858313	-1.1970915764148902	-0.9458374953231715	-0.45771750692199586
-124	0.5556496367730839	1.0927321883269319	1.1151772709347532	1.400458213131358	1.0059090827340664	1.2854354349107153	1.6023136336880064	2.203103775184158	1.2586485115698376	1.3082650866856567	1.736565823938957	2.1141993946102797	1.5976735313132469	0.5952832683792564	1.5268386563852763	2.168503755816558	2.4117062030937664	1.7205034450961487	-0.0397483817229463	1.2227615087154973	1.9717613408851236	2.5050749715500493	1.2221077649732515	-0.9757135485810242	0.37302234674688406	1.0423856947330363	2.3682689606955005	0.9851573680800385	-0.5290550576204106	0.06751785410285305	0.6439611895515225	-0.6278687103631787	-0.4626143563034771	0.14267896079756903
-120	-0.5190356956728982	0.22032429222270344	0.44247412569865613	0.9762735342172751	0.48146644113098697	0.5166230188677714	0.8647801854234515	1.3231044974300512	0.7243512850593113	0.938366351142663	0.9698489283870907	1.4300099575178067	0.897036013722598	0.3986942161984415	1.3439696993274448	1.5027856788840535	1.9592909763459905	1.1987014978662087	0.10245759759307267	1.4073181116812383	1.6612044530888819	2.4307992396971723	1.3176969256511013	-0.4297010589717955	0.9422650313429333	1.3552544082756992	2.6898498467244067	1.4057675564559662	0.3314280501580977	0.718128321741893	1.341485973785925	0.023123508260877442	0.11321317375925012	0.8216966369863895
-116	-1.3429912294812825	-0.7184246164303234	-0.3291831902299122	0.40055808323818454	-0.08877223707674445	-0.25775203043711403	0.05558634535345146	0.35811078458017115	0.12114144831112875	0.4258344162680111	0.11010186346389421	0.6433051212281361	0.1892823870171488	0.16306586522417016	0.8974412060967581	0.6057988985979157	1.3564478124703792	0.6960149985860538	0.2144823962995332	1.2892831531398314	1.0711367103235938	2.1214652007900554	1.3817008698864797	0.15287248751667537	1.2815995184012352	1.4476793967889916	2.7639231612041377	1.8863942575511552	1.0459074947653433	1.271936890251803	1.9160098981166416	0.6177002175948147	0.654701469675773	1.442617889576734
-112	-1.7514858201628842	-1.5011368952044395	-1.0341718170758567	-0.2289277607383124	-0.602803645996225	-0.8948943592365806	-0.6340237839903693	-0.4354134191010347	-0.38747608563823305	-0.14098902011084144	-0.7069852930339119	-0.08618650563652978	-0.3929552723976996	-0.06767546368440246	0.25372731621578437	-0.4081711162752226	0.6903415304874324	0.2827220850005356	0.2535733574187183	0.8555147626257995	0.23149014950957583	1.5883421857786397	1.3679701055321083	0.6540656669315592	1.2831596103696474	1.2248465983937658	2.5124154027448955	2.3162331522636457	1.454669114254865	1.5608090122870582	2.2018046323499134	1.0426892015834663	1.056070325092468	1.8850867700666631
-108	-1.785376305840869	-1.9799917886335086	-1.5429044922974728	-0.8143828490676908	-1.004213807431645	-1.3393174376051817	-1.0880359383769358	-0.8930190183027473	-0.6972005349676431	-0.6800537092205294	-1.4003870451856761	-0.6621336920233415	-0.7661479692189216	-0.2629427903212407	-0.4721288073063719	-1.4133968317586645	0.024698486489284733	-0.021868459825139467	0.19891604730929344	0.17771856441927708	-0.7569344620667379	0.8824806787144859	1.2481951682048114	0.981406984235595	0.9312012172076588	0.6909248811443763	1.9394048403412054	2.58122681919714	1.503425355930168	1.5024602375244016	2.1228418296623124	1.2458500830666892	1.2653497425557263	2.085930819013316
-104	-1.6476901728037883	-2.1265783256245583	-1.8040969326246585	-1.2803881136038786	-1.2886855569728222	-1.6217483241144024	-1.3001902070597424	-0.9979497765140799	-0.80085223710997	-1.1336290807712845	-1.9495645712268095	-1.0728182765577516	-0.9211493111241812	-0.4103335429798918	-1.1503001422450023	-2.30007027999	-0.6065857991162537	-0.2462040477735514	0.06432194991561324	-0.609923063168802	-1.7504227117213547	0.08659113921714652	1.030605790397238	1.0974330874392086	0.3064357034575864	-0.05651242644227887	1.1354247302952545	2.616135829042475	1.2455441920304742	1.1208484144522344	1.712947006669182	1.2347284524261284	1.28423976573954	2.0468592592059562
-100	-1.5812088211192206	-2.025559420239958	-1.85360824593807	-1.5895026882094867	-1.493454690977314	-1.8230566932426833	-1.3600953783028447	-0.8735212661623382	-0.7826774100570105	-1.4815328083780195	-2.378462308600673	-1.3750864232631648	-0.9267018413988587	-0.5179135786331898	-1.6817257361867899	-3.0000102444246037	-1.1951173513756241	-0.447095571819648	-0.11212444277111222	-1.3644134963873404	-2.6164834433299275	-0.7114901524700175	0.7500318269866617	1.0165619824492969	-0.456208287517771	-0.8797704555233915	0.23560045600058688	2.4165365634941685	0.7890447358237105	0.5124208318170711	1.0805393430131724	1.0439555618631668	1.1401481599631995	1.8081769897585225
-96	-1.7361700490986476	-1.8247175170605117	-1.788399453416244	-1.7488617852879176	-1.6765577750792322	-2.0266311117503135	-1.4007596934238709	-0.7158106547402983	-0.7737257461086641	-1.7451316074180019	-2.731430285233318	-1.6537215667933822	-0.9010471082826309	-0.6149766429633244	-2.0361313768477878	-3.50338458130373	-1.7499053434060103	-0.6850948316443253	-0.29731309338845574	-1.9937988469329997	-3.288703433316695	-1.4533294402622754	0.4338776160253071	0.7751253227691014	-1.2328383891450727	-1.6717601972333738	-0.6466874463920209	2.009776825599019	0.22367568257602788	-0.21776276771878708	0.3407593956927048	0.6960050446104015	0.8511045553653582	1.4070534670591037
-92	-2.0949020332850994	-1.6659204917808936	-1.7175542072801087	-1.8028534605284938	-1.8906842422433878	-2.280019039119604	-1.532685156767244	-0.6979745608827421	-0.8877065755366189	-1.975703353662036	-3.051106445238591	-1.9764752338099285	-0.957027969328274	-0.7458075266128056	-2.260721916213002	-3.8570928476226167	-2.288826698246537	-1.0010570262430207	-0.49020156140541116	-2.490277522475471	-3.7918958568204264	-2.1324171966120136	0.07447662185700474	0.39931884307178817	-1.9607485483256477	-2.4030616222745276	-1.471037384133888	1.4176149332494796	-0.42518854033885567	-1.009338495567205	-0.4429591584942913	0.18438662542043197	0.40930762783660796	0.8502168633929595
-88	-2.4902453359673737	-1.628493424118735	-1.7122786001843584	-1.8111306383182648	-2.157900566374945	-2.577965014624687	-1.7937654211532454	-0.8891211129628571	-1.1657652825486688	-2.2268512192770333	-3.3619909201616913	-2.3622841775380032	-1.1435567111707192	-0.9520049071117995	-2.450294965279664	-4.139906395950329	-2.827089540973247	-1.3960092032472662	-0.724384723264946	-2.916070453910823	-4.220032204463851	-2.7867262293075763	-0.367062955167997	-0.10379046920559418	-2.6444840364446573	-3.1174003999204585	-2.2736310901458636	0.6454848630820689	-1.187889572959119	-1.8574376059366415	-1.2730611530587177	-0.5085157143151813	-0.20484439976949212	0.12005386471239987
-84	-2.7031059196889853	-1.7060205893359006	-1.7770445301966213	-1.818399424730272	-2.453124755387876	-2.8685891555840466	-2.136083120675024	-1.2246149747447532	-1.5541659554343235	-2.519864314392959	-3.660321464833894	-2.7732584406452903	-1.413222905405649	-1.2465469805716436	-2.689424746398942	-4.420552242562323	-3.362494698618061	-1.8210838987148883	-1.03980767464372	-3.3470852290524737	-4.6743616939784	-3.4617338093141616	-0.9240500903641413	-0.7254059296413045	-3.3149418747177344	-3.8775157830568934	-3.1198418061642945	-0.29273524806500695	-2.0930938667857584	-2.7761933733466204	-2.1821992342213115	-1.3699251378758053	-0.9871482824197996	-0.7898700813378315
-80	-2.5844783717707176	-1.8245686246582387	-1.8558679772250894	-1.830607886460923	-2.7064540317868557	-3.0778484266774218	-2.455296271800851	-1.5447457989792253	-1.9257029246348327	-2.821343176394249	-3.9129698177726784	-3.1337306420362108	-1.642585273410244	-1.5917286832676483	-2.9968192501699646	-4.718205916890166	-3.8650596044231813	-2.187782282074037	-1.4376506769122732	-3.8056251906633265	-5.194143282174135	-4.164497841811093	-1.5783601959433073	-1.4177782499757519	-3.967820157523721	-4.694436061450911	-4.035124291722691	-1.3356752361907325	-3.0986816804852966	-3.740031471346513	-3.1726074138649363	-2.318953985081483	-1.8745399666188651	-1.8313301755444877
-76	-2.1346499865996624	-1.887361998561285	-1.8662171316713114	-1.8102066471172897	-2.826005928533966	-3.1385269085798875	-2.6431686811470754	-1.6780275064063932	-2.1355848258459598	-3.046972267087408	-4.064699639548411	-3.362001648997724	-1.6967943863944117	-1.895853395443838	-3.3020183956701628	-4.983832823568155	-4.273795593915514	-2.396704190878835	-1.8471405459498218	-4.221351612877268	-5.7167014931350755	-4.833718287661757	-2.237786287379918	-2.0711767621200243	-4.521898735073782	-5.482936368450617	-4.955903994445553	-2.35548352600488	-4.058008183724241	-4.643868911462614	-4.171290863949704	-3.2018768706544414	-2.7366702487515826	-2.8811056541181195
-72	-1.4989016018217163	-1.8217468215724064	-1.7436984733426406	-1.6964220957840845	-2.7357997825214806	-3.0140514297681813	-2.6377773218314635	-1.5287474355247441	-2.0873532242526447	-3.0950243394911126	-4.054753770127721	-3.4013485822632505	-1.5065464935413064	-2.0392751642238838	-3.4708864601241833	-5.114444242916127	-4.506867874210852	-2.3744010865345104	-2.1325278228324374	-4.447058666445596	-6.090545162082568	-5.345826135489903	-2.759569637960735	-2.53049015359953	-4.827631461352662	-6.072516426013585	-5.73221777422383	-3.1845624366466425	-4.74870060675458	-5.313083158430237	-5.03228996913673	-3.830328454837407	-3.4057350072704864	-3.763481130634842
-68	-0.8877396561143858	-1.606817718263732	-1.4749311171486545	-1.4436809980182639	-2.413362020121446	-2.710576289009114	-2.447549098511084	-1.1255838842583936	-1.7777284338890476	-2.896106474240158	-3.8392844103201664	-3.2381319917939853	-1.1162526579330758	-1.9253395747211992	-3.3705375109451667	-4.996623503467502	-4.485381591916467	-2.1033770984950255	-2.1479811614164683	-4.326054085299687	-6.138255580663283	-5.558820233615474	-3.0115849895736027	-2.6524743966844935	-4.727815616115171	-6.273137553589341	-6.18512342798758	-3.6826383974557717	-4.95652102172671	-5.565556512132402	-5.589841351701216	-4.049231519012513	-3.7353608513937053	-4.311820973000417
-64	-0.4680052685842542	-1.2710282770491408	-1.1005544634689257	-1.0563193532977107	-1.905475730853504	-2.27134346388516	-2.135496134134758	-0.6026312693639698	-1.2982801166180928	-2.451272243032934	-3.408586970306499	-2.8977358268056244	-0.6660770161024359	-1.533372994366215	-2.9392270967661767	-4.557210433898202	-4.160978306755282	-1.6326845843101796	-1.816365237418513	-3.7757334613839375	-5.736535534680458	-5.3719940049917065	-2.9375581667166792	-2.3778867661521748	-4.138871182482483	-5.960586055965371	-6.186902984257501	-3.8050985240234207	-4.571904170891133	-5.2936744556288975	-5.73159645540826	-3.800683011949608	-3.6589574721462976	-4.437287319424368
-60	-0.2849566929298455	-0.8669742323920941	-0.689618883776	-0.598796068110225	-1.31116139557727	-1.7565805867668425	-1.775297279644087	-0.1257261779710317	-0.7937390784250786	-1.8361412240400314	-2.7910952497585817	-2.4243690906350377	-0.3135499052237587	-0.9448380446421012	-2.2230281773707916	-3.796567668866126	-3.5366899877900764	-1.061907646359163	-1.1882473200361579	-2.8407638001245137	-4.872777449703035	-4.771859633795718	-2.58887337984678	-1.776365752503633	-3.106357328201513	-5.135264860539341	-5.719635948999249	-3.628520241159302	-3.6463391688792055	-4.519486415896522	-5.447840200021161	-3.14865826765465	-3.2153193869474066	-4.164571274733271
-56	-0.2550353997467225	-0.4405407000386358	-0.3017399303447473	-0.1727795894552072	-0.7376002054665349	-1.2186810939537656	-1.4062255585452639	0.1960484827575505	-0.3967636515613632	-1.1665023535841006	-2.0422899671490113	-1.8581249666984558	-0.14173978531337558	-0.32316324033208627	-1.3585811819107936	-2.789343826880924	-2.6712777547150224	-0.5041339980748708	-0.4431906629340144	-1.6853218036062996	-3.651350965817846	-3.8408753774944944	-2.0985045380062286	-1.0336146328579032	-1.8022249891555688	-3.92427562676513	-4.880375849799817	-3.3110833084432967	-2.3783028065716567	-3.3917610559660454	-4.828613269058923	-2.252613061939652	-2.5289523537682075	-3.614926090650411
-52	-0.22702433111569958	-0.013896681333265236	0.04030606885508892	0.13055634465633884	-0.25094735559047887	-0.6835945231344718	-1.012751576727716	0.36233404187274637	-0.17081408159521752	-0.5428240881566311	-1.2234754531488143	-1.2214947908079288	-0.11049266131637739	0.15052400491380954	-0.5100035058496635	-1.6534638363100242	-1.6642811256351302	-0.047017443806434654	0.17828610494423425	-0.5252864943593565	-2.2483775558926062	-2.7253212859964226	-1.6143319566023042	-0.3779439320558846	-0.4607409227182718	-2.525942796051807	-3.831346979004757	-3.00814198688149	-1.033102509751286	-2.1233911460671755	-4.009791364082793	-1.3011611667206822	-1.753425951345425	-2.9430868551335068
-48	-0.07421170156338877	0.40797397391312573	0.35082477242586757	0.2765808694532202	0.14907604418309792	-0.1501040603901048	-0.5434803352939512	0.46751281501036324	-0.08995419717965629	-0.005918593130963914	-0.384049861653582	-0.524546562300983	-0.08307466634995282	0.35691761880406986	0.20525678940449066	-0.5064479695884988	-0.6288298948623998	0.27013981274111926	0.4831522094925908	0.4642837333878091	-0.8414608814929166	-1.5786782463270257	-1.2265219657448825	0.020496927149998127	0.714542148693391	-1.1280152769219327	-2.723421328344359	-2.787509195919369	0.16283626813307503	-0.9017640329481792	-3.0993745248744164	-0.43838098534529707	-1.0058351729747315	-2.2593028488337725
-44	0.2320373052460713	0.8144415596426463	0.6544759257005124	0.30276930255741935	0.5139682279961783	0.3905197074090368	0.0388204230878132	0.628221748673292	-0.06441699697204824	0.4691569197253742	0.4407208848793369	0.2130499178752629	0.08097485432446211	0.2930108301394302	0.7599215488321149	0.5653660879166125	0.33413794552364656	0.45451632027312616	0.4186791469016923	1.21550547769744	0.44631737357942525	-0.5112168776002927	-0.9305248833051	0.12483925340843255	1.6230775076895378	0.15467756947565708	-1.6371984440476237	-2.5932140284869436	1.0984982224386557	0.17762581959224075	-2.1301433986288627	0.2791388623819426	-0.32826772249311836	-1.58338117199722
-40	0.6093672498576748	1.1691337794350007	0.9517762636950184	0.29420417472946536	0.8986089206896046	0.9266886687723965	0.7078797203311532	0.8975058175315315	0.0021966844741673447	0.9371359920683158	1.2171354263093526	0.9401903128728297	0.4253628243197389	0.07099477928833811	1.206766363911826	1.51188194370026	1.1524044246188399	0.5407736883815344	0.0989671943073218	1.7735577776953537	1.562907572615012	0.43232124934718397	-0.6446745379383932	0.04163063679555612	2.283201688723995	1.293542977881884	-0.5716327414385409	-2.2791740836774013	1.7914506151745928	1.1209229202580153	-1.0665613385928971	0.87760245578445	0.30601689142212957	-0.8563286640481526
-36	0.9137154198465632	1.40917861105856	1.2008352249344911	0.32983454978637317	1.3086888757089397	1.4084252083505013	1.3572887147967472	1.217486378456904	0.15438340565327205	1.4264147245633219	1.8968032550605805	1.569476004452676	0.8539220073121327	-0.14150874280964829	1.6229982335121866	2.302620166687053	1.7863498881061721	0.5670447335231836	-0.25292977626838087	2.2419643345495452	2.504117959375952	1.2608654467220162	-0.2705472402894528	-0.0395885928465778	2.787736408824679	2.311308139687579	0.5186512457150676	-1.6933379130526136	2.3389613569334355	1.9896764705014522	0.14041645789457463	1.422744032128742	0.9502593850939592	-0.00023362963052154023
-32	1.0214292977293664	1.4709765873963707	1.3317611183875042	0.4318520415846967	1.6793585973301566	1.7561314061649493	1.8345942450934365	1.4417738878088455	0.3580670943756611	1.9004939746557545	2.4140980182732745	2.0000758120584483	1.1768041819424904	-0.21053875929605456	2.045004601083808	2.9069302008668836	2.22460793887193	0.5605362043533674	-0.42140319837033957	2.701108687256894	3.273203603109857	2.0028259703614415	0.24127452014565454	0.05044359328527988	3.22787546296551	3.2261543192473217	1.662182803725755	-0.7682075481092905	2.839660637361796	2.829477064618342	1.4840640984259499	1.9648045251830832	1.6311348635499323	1.0077145074197547
-28	0.8980809427475172	1.32907473705426	1.2882705894369435	0.5485708699681411	1.9019142341278767	1.8967859697136393	2.0134096094796177	1.418802376979697	0.5187615143076237	2.262908214577844	2.7054591110587767	2.161363596227652	1.2219170301104516	-0.10787115218822663	2.4327213702770365	3.2891282952235814	2.4778315958406343	0.5397859798154551	-0.31195813338672834	3.14776205221807	3.8519217870735383	2.6710982255254123	0.8571418502147701	0.3703635921664233	3.63024305380754	4.011378278141287	2.8221898007665014	0.4301569152938868	3.3311977302369953	3.6175787357547975	2.8608796524296833	2.5032749112823773	2.3162517489127685	2.0912709183345504
-24	0.6162483676610414	1.0238822672742598	1.0712122890129783	0.5817810878370216	1.8858385038446726	1.8093352272128735	1.8650027466417236	1.0861980887645715	0.5323191867740042	2.4051308571173258	2.7428967883476782	2.0540349431630593	0.9458138918839001	0.07390837352689264	2.684761994259225	3.424060574469702	2.573393576800535	0.5243175016516894	0.0012900471887576977	3.490310183295968	4.201497544171291	3.2454974569395736	1.4756802283223003	0.8409435727822171	3.941738118710177	4.595134246668665	3.8884065053041774	1.7195062593915742	3.774855604177902	4.26045941230856	4.085043420014626	2.987694255915049	2.9202179835024027	3.0885829847557886
-20	0.317827730568488	0.661514995812135	0.7582213859488341	0.4454270590026631	1.6222838122417125	1.5541884859899917	1.4914191923633737	0.5271531330150746	0.3417965463115004	2.272219175323989	2.5636939937714356	1.7679541066355882	0.47767758248843806	0.17325705246097498	2.696692936764503	3.324349871825329	2.555017226444099	0.5471270070567474	0.3197458080325174	3.60139702841345	4.291126240386651	3.682002535106913	1.982021088364408	1.2905460563501439	4.066517819628049	4.8982362623523805	4.714299666900028	2.872327320476342	4.0874123470105985	4.6400971295507505	4.9535913342341065	3.3467838679692505	3.3423535739435706	3.816416015526219
-16	0.14101549947421607	0.3775120368009326	0.4811645138036395	0.11891937970893178	1.207539912989768	1.262959834724846	1.0938752862015482	-0.05226242529071852	-0.031647361735073834	1.905169839817289	2.272612804397092	1.4589551650405523	0.058549243808981646	0.04995117323900153	2.4267430244211585	3.0562338751878038	2.4800491270392593	0.6518889649145023	0.43112158666481853	3.3951668653599123	4.130272854867473	3.9381678004971454	2.305321926018611	1.5460184773512562	3.928655852889325	4.882352816652737	5.176559912009789	3.7000343706174177	4.193827618500959	4.677430617920847	5.326189981364674	3.524030914946061	3.511566391662101	4.14803742315148
-12	0.15100653431437044	0.280705838686809	0.369831233282956	-0.3338644794141075	0.8078256229032159	1.0864504548299132	0.8871596433175408	-0.41298484697977444	-0.49812808507085393	1.4327696525639397	2.0075104185918016	1.2903573480452615	-0.08595121630187298	-0.33349841748914366	1.930599684609347	2.727443688182226	2.410531991594656	0.8760417081649468	0.2277772718877625	2.8848025725963344	3.7811956310173636	3.9994137186164402	2.4523441729618685	1.5209704599126652	3.5227017313709257	4.57829903400365	5.22661779991441	4.114111889942456	4.067676533919557	4.3754391559757835	5.179282652176254	3.4991886527407154	3.414548388443303	4.063682545892531
-8	0.311397253680808	0.40542763369242757	0.4904000150696898	-0.7916837910691227	0.5807907566665789	1.1241246433486867	1.000599024153723	-0.39307701488434593	-0.9401602721319388	1.0146075461520463	1.8801627111649106	1.3635616268063613	0.13246712055140167	-0.8841823317138823	1.3442186083233985	2.4462974009739615	2.395781034142885	1.226633426430331	-0.2338123315630009	2.1866869871244097	3.339093676719745	3.889090289787314	2.4945840772589096	1.2532794443913156	2.921914331688427	4.075680722436946	4.907696711547246	4.139385212937729	3.7364995385246194	3.8165924452743085	4.608185279655734	3.284905902198353	3.0929992120853367	3.6479945090697283
-4	0.5100612031456604	0.6964886170922433	0.8107953051123624	-1.1348708839373998	0.5949065670252269	1.3705476487842676	1.4144424164346745	0.01711503784507718	-1.2632445065075746	0.764551399207999	1.9200761269729525	1.669653888301619	0.6184883102060452	-1.4217030966150126	0.8225569704269053	2.269433254234221	2.450803512107604	1.660046692471688	-0.7657249550560187	1.4678336344852994	2.8875183986240236	3.6553292182186907	2.5190589364347873	0.8735498763917581	2.240148538655692	3.4779167087484013	4.329381931818385	3.8799343011171934	3.253739587198305	3.117008439777405	3.77773999214059	2.905759804065029	2.6145746641904597	3.038476221042574
0	0.6207415445868004	1.0346585486038637	1.2126514881035104	-1.303099986601041	0.7904991487572027	1.7085976557509028	1.9641056011202116	0.6715304238531021	-1.4301056825770744	0.6951991302104281	2.0510880895328043	2.086128468014892	1.149106022794587	-1.7689516499680304	0.4660735416566057	2.16562890459701	2.5400927002671803	2.0828278012141435	-1.153969761795979	0.8648179747681436	2.452999585634164	3.3413686667957885	2.573265069186724	0.5263016210619632	1.5705876310749307	2.847940676174509	3.614244690353059	3.4629139812777345	2.659476988753606	2.3659832417834243	2.8493161129538733	2.3778054654169063	2.0385947176008457	2.3576631486495234
4	0.5662345275887973	1.2884610858811647	1.5440082511066366	-1.3211939301512445	1.005369660700211	1.95687412721574	2.411016458146167	1.3356169428482894	-1.465643521423202	0.7128140312317812	2.116543049236931	2.421040290442026	1.4955737553030188	-1.8434352828213592	0.27306649019916895	2.0179138132646326	2.575221055204735	2.3723509251779924	-1.2778325048609414	0.4176148761695923	1.9847568223434018	2.953648559742461	2.6302230291717033	0.2892664961664161	0.9374201274092426	2.174833769075723	2.841943972088087	2.9857504292445416	1.9575169037033748	1.5859880407345346	1.920500512042682	1.7042946772461418	1.396696325590502	1.6666609006764241
8	0.3572157612364836	1.3700784410217806	1.6877293544119887	-1.277015444392423	1.0559438440365738	1.9524325083075813	2.5485575134782303	1.7898895695318666	-1.4338827096976652	0.6672783477148507	1.9467232178175402	2.4894421037764083	1.5438249072197705	-1.6977523522428233	0.1443122472695806	1.6702511268407605	2.4366121230595716	2.416273349383505	-1.1734566658910666	0.05515776933214696	1.375663396223134	2.4496719775340448	2.5973117285956167	0.1374508884059072	0.2898081831767672	1.381945844975888	2.020475382472032	2.4898362096866684	1.1243470878824269	0.7357380967638083	1.0051946614635923	0.8907008148593509	0.6975893360645313	0.9627025103104987
12	0.0868859065365584	1.2687079874431826	1.6113904673900652	-1.2661157814484456	0.8309257009508203	1.6275482136642734	2.2913465442026992	1.917175407337637	-1.4020079338916056	0.4294743229036424	1.437155243106151	2.1876962129671984	1.3414758409963388	-1.4882699213599724	-0.06422488375184159	0.9992237661882926	2.0143430182144435	2.154243225380761	-1.0082612012202543	-0.361782222072809	0.5160092698420687	1.7540816024362988	2.36068128943475	-0.031992379495194796	-0.46032178285726943	0.37219610716309365	1.0962417098024462	1.9637432048808923	0.1410886790766543	-0.2493841194770627	0.05618171752215817	-0.035285770804008916	-0.05356131107993296	0.2132556880096692
16	-0.11434529692867496	1.0490604612567114	1.3768705094860774	-1.3356202807083883	0.3498150101412771	1.0442975733140247	1.7090249018435741	1.736765737917029	-1.411104079498523	-0.043020155172213026	0.6030605420145584	1.5368883570969027	1.0527020666247144	-1.3890991175866119	-0.4672593760614181	-0.019796211222497476	1.2584570614513024	1.6101485450146606	-0.9810444091823417	-0.9625279283063923	-0.6430471523261996	0.802679953932748	1.8484460068763964	-0.3298042110222591	-1.3770984376471231	-0.9105274654288003	0.0003388364266896952	1.372953411450618	-0.9723070835360663	-1.4036928379858624	-0.9858887766742307	-1.0148581240780494	-0.8377708771534781	-0.6002894028766573
20	-0.13888333702785519	0.8212253430613404	1.108347889962921	-1.4569983445575168	-0.24270385442492087	0.37022629286752984	0.9928738449778232	1.3802983725984557	-1.464121695636639	-0.6834697110086273	-0.4159009148110809	0.6788085085896706	0.8569379427255083	-1.498862381965553	-1.0913968058687555	-1.2835053173084718	0.21791554932412185	0.8994917250811441	-1.2073951929126188	-1.7941815807820165	-2.046405071813915	-0.4048276533396333	1.07978331770075	-0.8035145381667859	-2.450850718986147	-2.4337167678422724	-1.2915002075012993	0.6966098529394104	-2.1443247740965985	-2.694882862916534	-2.1444270556667746	-1.9701962421265626	-1.6203844506360954	-1.4591399394388895
24	0.05105299862250547	0.6964911204873175	0.9356827116230714	-1.5423470696609407	-0.7436289768517653	-0.19318844329219145	0.3725087037218289	1.026855823785307	-1.5326684674667488	-1.3457031216024262	-1.4036567175712198	-0.17479807094310723	0.8518633820960779	-1.7907096102326159	-1.8589484644685936	-2.583692067298826	-0.9534521674879368	0.20273439534977053	-1.655372615449492	-2.7903072763566406	-3.5327186495280083	-1.769577021899435	0.17587614015043784	-1.4055081570425585	-3.5854613690451145	-4.063385476343721	-2.712922804658707	-0.046065714093967085	-3.267571679448539	-4.020545949321754	-3.3783161554872954	-2.8306446003972545	-2.362965577835355	-2.3125710428978916
28	0.4089089025663897	0.746287999653127	0.940200743685639	-1.4948453865457023	-0.9850671266480764	-0.49403694147308985	0.02297192806166088	0.8297327139886529	-1.5757142265591186	-1.8682773066081264	-2.146895403209981	-0.817358134113432	1.0138239834938072	-2.1314334815571243	-2.6191787653598655	-3.673923244737297	-2.0317294546329494	-0.2889171235419472	-2.165995830789321	-3.793132295568525	-4.874937998861398	-3.096020452312084	-0.6713560206629297	-2.015918488181169	-4.627648818730128	-5.590191827011611	-4.09614705005251	-0.786221561831052	-4.231742848202595	-5.233316408295935	-4.578083026771529	-3.554635992612321	-3.0354716701163222	-3.09949158839646
32	0.8221548178896212	0.975622532288682	1.1233172388325978	-1.2663710085367292	-0.9108220911871812	-0.49088317031901924	-0.001320983861963167	0.8626084901965431	-1.5604537686050939	-2.143100494696003	-2.515360349026523	-1.122205969838211	1.230845686665973	-2.3581213891573998	-3.2117335715267723	-4.356836307969773	-2.796064846608828	-0.44219943769390224	-2.5449807579635793	-4.61777256753436	-5.851671680935178	-4.143448819189676	-1.2654190031527803	-2.5045840676969187	-5.424172864570661	-6.786734563858794	-5.209327684601618	-1.4186350071375902	-4.955831038360532	-6.180516227376653	-5.586369500361105	-4.132695187625029	-3.6166400818112443	-3.765838851957625
36	1.1533628673044083	1.3181898560621492	1.4079276287771725	-0.8919404722582597	-0.6011771544537007	-0.26565107636138474	0.21956376675961198	1.1005898686278328	-1.476437922564772	-2.157004827775522	-2.5090205606056397	-1.086987611887273	1.376233216625748	-2.3675527512856873	-3.530777207043286	-4.554742324773574	-3.1106271665238627	-0.23663537144520908	-2.6696600846599026	-5.1247091163948495	-6.319737895268561	-4.70781277421621	-1.4762755595128139	-2.793524496654914	-5.87684820598758	-7.4728307535328184	-5.8289499135670075	-1.833319778582067	-5.401412950229931	-6.738786680373894	-6.233057483194927	-4.567658412845213	-4.078874577714527	-4.262585152354462
40	1.284898397062645	1.6499345260924945	1.665636296835322	-0.4845085429833528	-0.23802427887425856	0.011748172313115968	0.5083411919157196	1.4347159826295215	-1.3414125408637472	-1.991477842071306	-2.2557229938776007	-0.8331953266088474	1.3722993100805043	-2.17017197061032	-3.562298050469563	-4.33628081180585	-2.9819188042694744	0.21898220424200682	-2.550825827834076	-5.267774568609328	-6.2606291612869365	-4.701884734680396	-1.2885446515929289	-2.8872933314859197	-5.970766529267305	-7.56637762066724	-5.820650086012279	-1.9527767847349347	-5.564002499837742	-6.834227544695918	-6.376826747053136	-4.844960200475171	-4.368321884570412	-4.528591621409423
44	1.1493105859349397	1.8197376682113902	1.758091564508084	-0.19248822282829922	-0.02885912165210091	0.14899447522692874	0.6600965840839962	1.7099139647227992	-1.1976119249624655	-1.7839959814806454	-1.9610938976366046	-0.561185060514754	1.2089449136728663	-1.8797235441433144	-3.379634610226398	-3.887793769557433	-2.5630779201645923	0.7184652071933129	-2.314871305343256	-5.097516523842654	-5.782893166246766	-4.196928013695768	-0.8080536702735508	-2.853427879758678	-5.7641491744422835	-7.103335362620001	-5.195176111456195	-1.7591226056508054	-5.451241956299193	-6.448936922957501	-5.945495590457817	-4.913761603347118	-4.398612488131632	-4.478633392470614
48	0.7404063921354753	1.6938159423025054	1.5797984560181062	-0.14009143376743502	-0.12299273877085594	0.001151801782546134	0.5172396885210606	1.7753617718695711	-1.098044035046614	-1.6688165622539284	-1.829548950344517	-0.47505682586892567	0.9196991897251019	-1.645054932255632	-3.1013634126562604	-3.4393131646106365	-2.095718140079304	1.0348507139781344	-2.1186878627691135	-4.722414004800684	-5.0790467134034465	-3.4011709604222684	-0.2187406564196644	-2.7668931414365074	-5.348650441970809	-6.221808894661316	-4.112830628501599	-1.296386238639781	-5.0660629144555145	-5.621674523465328	-4.966397749759635	-4.696920383038877	-4.0739726917405745	-4.019811620099975
52	0.10673087063306876	1.2024878233113612	1.09049987517644	-0.37501785064428117	-0.5539289102874075	-0.48070663092363103	0.024171858964927122	1.5359908303581409	-1.0847517224581036	-1.7216023163244536	-1.9867140004543051	-0.7039170843472004	0.5451012239998808	-1.5635073145492275	-2.8326616215713614	-3.174506179424107	-1.8103517248223067	1.0139530871540647	-2.050378317424611	-4.250583161112791	-4.3537359127749635	-2.5799455577562833	0.29021036551637375	-2.655469172449027	-4.802633273396977	-5.11664770741862	-2.831151955132302	-0.6481212361184729	-4.4067411311469975	-4.445960987310184	-3.57573079160081	-4.1285118952466755	-3.3364522372885483	-3.099593869966636
56	-0.6651678068533275	0.37245079780957585	0.32808944500104525	-0.847012160070057	-1.2307996718803225	-1.2380589215491895	-0.7579528074201544	0.9874578689439812	-1.1676800221525994	-1.9318050097329518	-2.4351828036814664	-1.2534480063263147	0.1124969941517596	-1.6262698132463584	-2.6199259691848833	-3.1640162388072812	-1.832232232236241	0.6385942085355623	-2.0755920357752586	-3.7435007000822607	-3.7544596100429954	-1.9535546253472897	0.5950402602431206	-2.4786038336163942	-4.161818016988757	-3.9829037088924992	-1.6174297291927497	0.09692236011591697	-3.483222952631489	-3.0638477724921893	-1.9982972094628413	-3.200119248893742	-2.2153048459388756	-1.7638993218710453
60	-1.468504305946619	-0.6711400730354536	-0.6020322426854896	-1.4279923402972539	-1.9801826427055975	-2.131265873296439	-1.67847930961265	0.2206156993302746	-1.3155615296527696	-2.2137010041613085	-3.0607993525474932	-2.0069453665607577	-0.35701122789845324	-1.7263616279884628	-2.44004630426428	-3.350464812402706	-2.1356100982152806	0.03351944303990424	-2.060298676057401	-3.204031220929764	-3.3331644450910383	-1.6182006556663282	0.677973566727765	-2.1520888751054383	-3.4210305127555505	-2.967489711898678	-0.6612290723318693	0.8767335392751081	-2.3388185442049143	-1.648662086139042	-0.4955715226536026	-1.9908481786054886	-0.8499087073802488	-0.18797519755588005
64	-2.193776840393253	-1.7395389036128472	-1.558750267861714	-1.9624031732604352	-2.618912213389103	-2.9922273083480624	-2.5553309852934047	-0.6102125033231005	-1.4644637070874966	-2.450507157814529	-3.686575880279693	-2.7766489912501333	-0.8296021202122797	-1.723331923902179	-2.2280588093771336	-3.5900869278865852	-2.5680451328290537	-0.5931633099838824	-1.8555073691251087	-2.600642436137256	-3.051340333864099	-1.5250111779810767	0.6212277992776505	-1.6037348468344426	-2.5613651210966513	-2.1420595591822735	-0.021834542919702753	1.6667373138308332	-1.0582234832748978	-0.37050339486039097	0.7078977805384745	-0.6583511216708005	0.5364677892491867	1.3516997064795593
68	-2.7509212424442397	-2.647598021498441	-2.4117324291374014	-2.328456395946164	-3.029494993190494	-3.6868173982997132	-3.244642964754231	-1.3477396930999699	-1.5459461173126816	-2.5541479523068893	-4.153775681498809	-3.3866639051763023	-1.2531294791054393	-1.5272988042417805	-1.9290221880847043	-3.732902040593639	-2.9342870638196645	-1.0466552946368073	-1.3918405736114896	-1.9119130324729934	-2.8239500451315642	-1.5262435636133413	0.5558481798443294	-0.8254100659511656	-1.5857187469501193	-1.503977533357973	0.36738702562082254	2.4610102114531727	0.24660061237540204	0.6484585388024053	1.4935919008692407	0.6091789587853047	1.7076723532477458	2.5645906860451726
72	-3.09743379764543	-3.2876312649691823	-3.0870754640839353	-2.485474103374439	-3.2083160796225587	-4.164971341107993	-3.6949038412266844	-1.8961914729881504	-1.5242972335477596	-2.5145227845602536	-4.394507873884182	-3.7494752312408823	-1.5773956735839871	-1.1553807229435398	-1.5466690024426923	-3.7022328283297625	-3.0952758710914297	-1.233978983624615	-0.729291854447625	-1.1645708054703858	-2.577207320382215	-1.4610516988105886	0.5941817745465882	0.10784786167333944	-0.5416916595134025	-0.9989958976318916	0.6460831745048137	3.240576259060763	1.469326969251732	1.3740401233314192	1.8872657966648605	1.660545464137909	2.5035521920891726	3.2601888097467198
76	-3.2629680551162896	-3.6735155489680626	-3.5910160450869983	-2.486960404792806	-3.2649822152674544	-4.4770240670657415	-3.961384047997124	-2.2588305416297647	-1.4233604633634527	-2.4132156311142476	-4.460761058989126	-3.898473491362745	-1.7901418163879192	-0.7294993978202089	-1.1609718770279343	-3.5326290041424926	-3.0302030963686377	-1.1977956264771996	-0.03481381377728835	-0.4415629494962752	-2.2884643020072173	-1.234548804027229	0.7776195387280751	1.0603071424416952	0.48302903649447343	-0.5510079250729195	0.9550726985659986	3.9490671058132554	2.5480880672971646	1.8781365108755317	2.049628252576651	2.4402503905674755	2.90863417844742	3.437377444171798
80	-3.354958764188845	-3.930232038111786	-3.9994950193517087	-2.4548022685061994	-3.3712799463986145	-4.747670638495461	-4.174049843740102	-2.5258643563394805	-1.3269697394246869	-2.39198874823327	-4.494994629001571	-3.961212625039183	-1.9383308838543538	-0.4180154789861163	-0.9027702785587368	-3.3474721824053786	-2.8316862511667193	-1.0793637010025907	0.49753993624001774	0.14508779310311756	-1.9896050641371916	-0.8524577596122774	1.061988708675853	1.8851482820599161	1.3898771966175454	-0.08777450747978761	1.3781472409739428	4.49263666926021	3.4878780753766936	2.3193564356419905	2.217264169816985	3.0082497520789717	3.0638871115576416	3.2981126225171824
84	-3.5299837500140394	-4.226460923014515	-4.412659633939672	-2.5224540169926217	-3.6765344050090247	-5.1115546097447115	-4.46835612122581	-2.815435164019029	-1.3439815010470806	-2.5834059650046264	-4.650974738776217	-4.083374013127972	-2.108983749787022	-0.350301354239094	-0.8917036034005202	-3.284535876564522	-2.6384503774785677	-1.0311146948530454	0.7416374664655581	0.5063340651126206	-1.732863660252015	-0.3970151235570356	1.3489199842728323	2.4797716078138854	2.1102600044377304	0.4458938229747207	1.922795052442162	4.772692668308996	4.354358185264847	2.8889267371672207	2.6159787111992436	3.5112450034182836	3.21271442555872	3.1715443054234065
88	-3.930822362512151	-4.68184136162309	-4.894447314302865	-2.7723388601880172	-4.226723660288021	-5.636694417073646	-4.909291731837407	-3.196071378267976	-1.5535874327535941	-3.0355973167071912	-5.003043162112182	-4.342226017479316	-2.3723640381998097	-0.5516837225336767	-1.1689242095044996	-3.409957161877136	-2.547716849570441	-1.1295336456391074	0.6961374265261133	0.6238592251285506	-1.543649073518127	0.03231163314767665	1.5369831284818563	2.817559235134882	2.6346177988291863	1.0835480662645482	2.5368006165352575	4.7325067400657295	5.237932668812845	3.7371442223608824	3.376811734256963	4.116217602827764	3.599441757651175	3.375468007148539
92	-4.610384452623814	-5.293855653748557	-5.427000508911666	-3.1941099086226594	-4.9249930257430785	-6.271759494205613	-5.446059213239768	-3.6318511871195196	-1.9563926408964598	-3.6691067126144477	-5.490948663199676	-4.696170318190918	-2.7197627952572825	-0.9328203177742497	-1.661218281366435	-3.6695356276371687	-2.5593433315509744	-1.3369970287899344	0.47300454854752333	0.5649164900822069	-1.3933632338630775	0.37399154807080726	1.5679955442894828	2.9417653009528837	3.0111868305475085	1.8319234801770838	3.1424758354955764	4.393330086106394	6.200440867981866	4.905755507481102	4.485299575925463	4.932424055997754	4.361281383947319	4.07496975823586
96	-5.479495511525712	-5.92618654662229	-5.905633911481309	-3.6831016447537968	-5.556643471993773	-6.846992952225944	-5.9225263446051635	-3.9878640074181835	-2.4587242541225183	-4.292397965084367	-5.932425483984468	-4.998207079665897	-3.0442140025527458	-1.335957046950519	-2.1992692891861485	-3.9076518913792446	-2.5823957854875235	-1.5322911700662731	0.23042565526005854	0.45310115699811937	-1.2129659622085514	0.6240267141799466	1.4474974834135965	2.9332542345376043	3.313025704602333	2.6602575711796135	3.666315069478796	3.858547677788621	7.2272505577722335	6.292481883374485	5.781496987051073	5.953208431472279	5.458187566328044	5.201225267629887
100	-6.315902217177659	-6.370978816159698	-6.184293731334401	-4.084270943820287	-5.878328785360062	-7.140825253577595	-6.147077068067769	-4.09666346469354	-2.907592289259377	-4.680536735161541	-6.1072759474102005	-5.0731906762783385	-3.183973065920591	-1.6159033734531951	-2.591491931094441	-3.9524834056245766	-2.503258460400461	-1.592956300528343	0.0862030459254132	0.40237912434076456	-0.9466677284181518	0.8082604387857546	1.2285895316576312	2.867504589470452	3.585535994060185	3.4850335033166147	4.046609868323332	3.27862333423631	8.204460123328698	7.661690692631188	7.00640199799657	7.038242322318037	6.668387396188843	6.465628607638259
104	-6.845741254688821	-6.454812987243203	-6.151577457155527	-4.263519276345024	-5.735097870652106	-6.988145810603698	-5.9912700501811145	-3.8531367681495725	-3.1631054798374127	-4.685185897442283	-5.875971302455858	-4.819666850319304	-3.014736406344211	-1.7138211683872508	-2.7216939857431295	-3.7254645730373435	-2.2733762206854475	-1.478058930479991	0.05738671482021753	0.44599804169584734	-0.6159914120380634	0.9314250326482253	0.9779292916403104	2.781599991451256	3.8017134570458833	4.163584221818283	4.225354660810276	2.79630445728022	8.936094261496148	8.703979470212065	7.8792605201153245	7.9462241925841965	7.657273273208747	7.467401962500382
108	-6.871447068985493	-6.137738689185096	-5.800841793673374	-4.1735720529087885	-5.1525816787329255	-6.3814167815264105	-5.47101496268848	-3.2886087811410305	-3.1720473686240407	-4.324521530677091	-5.274742589984557	-4.2843508612228485	-2.5407097275483372	-1.686675901922888	-2.6228446894228754	-3.316103688450763	-1.964403624343336	-1.2628238169258121	0.055904563375232946	0.4985370027353031	-0.3534102132934397	0.9399173236004477	0.7412497978569177	2.6664383344086375	3.852259149362115	4.511997211508692	4.140392293013311	2.4950735506005692	9.201531386985652	9.129561401205445	8.180644968359529	8.410513856634147	8.096276262823027	7.849990348070084
112	-6.383800013637093	-5.552264676381049	-5.256082521519707	-3.8869206807229677	-4.356213081805574	-5.510760770235836	-4.766226756460086	-2.5803770953833673	-3.007214300192548	-3.8045740031507216	-4.534787166590314	-3.6669599917336373	-1.9241756152209641	-1.6805945592410985	-2.4862236913852422	-2.976202242012789	-1.7559988454353035	-1.1018584938840292	-0.06235663949600891	0.37489214444876723	-0.3771890094293879	0.7268993240123813	0.527378378967112	2.4811196264567226	3.580551138420915	4.352309692838379	3.733561506381769	2.37520360346974	8.834701515780461	8.76619622878301	7.816635588937988	8.233168581202994	7.788550357227891	7.442662697120948
116	-5.5962471820683435	-4.956275927428012	-4.73377941843776	-3.5775661378180996	-3.7000028993650558	-4.712966907046215	-4.161555756552408	-1.984147424456757	-2.8487543987829285	-3.452803126200723	-4.006930817977954	-3.24733971729564	-1.4274646007737448	-1.8632771921798326	-2.592882388244251	-3.026173822391994	-1.8596800518767196	-1.1444020242407895	-0.42373064053365284	-0.13487794961254512	-0.9082539058642279	0.18144133641209814	0.315163134732854	2.179019922477019	2.8524987625582647	3.57870863964627	2.9775934144183345	2.3664069115974184	7.798621634820871	7.629405002405084	6.847624761458968	7.367388706679893	6.755799276461313	6.332247241245279
120	-4.870674597840668	-4.619945037621648	-4.453699100693967	-3.455209723332098	-3.5273902327171207	-4.341248501307468	-3.9295451541871285	-1.722884769858203	-2.907770864774673	-3.5837404637455044	-4.0173954862254595	-3.265547982554234	-1.2910244432279034	-2.34448098544428	-3.189203015858559	-3.7091443445018877	-2.414987319571078	-1.4495027028680674	-1.0722359391797665	-1.1616775960202932	-2.0602898545699966	-0.7417024355281993	0.07486619036369252	1.736289019969319	1.6348351198882463	2.218871826291808	1.910516972486589	2.3679006039917185	6.227398856652818	5.939258560444267	5.475775704863961	5.9586829988717875	5.251714216324436	4.838056552116136
124	-4.559504974297683	-4.702301967192771	-4.539795387250277	-3.680077781922686	-4.02291249213194	-4.610222327990434	-4.20745037923927	-1.8866290998509772	-3.3290474330775073	-4.353862751458725	-4.7177672267057265	-3.809795131601285	-1.6100542504668642	-3.122668019993829	-4.360831726508269	-5.059946524242686	-3.4106786164956757	-1.948355550615238	-1.9442586849715897	-2.672377341199063	-3.755375614221591	-1.9712264488042595	-0.2111645186576491	1.1705493897448422	0.043172452489810234	0.4594389486634077	0.6546428783101068	2.293298715523454	4.411449421235208	4.070847977850759	3.9939839739096903	4.322267998273113	3.691391458728228	3.4011831197697715
128	-4.8380336639326	-5.175778375909466	-4.957812296747864	-4.291751373899477	-5.120582090801021	-5.486511693453798	-4.924449908221256	-2.3910622536372204	-4.115371693711248	-5.671246514306968	-5.99727581417352	-4.763433921231542	-2.277723306627231	-4.0783309833555474	-5.962684139456168	-6.851148111212035	-4.6674532772477955	-2.4753782686678734	-2.889649383878653	-4.444054115519344	-5.7080573891529935	-3.3142595207460688	-0.5359008298695146	0.5439487681960583	-1.665428157416292	-1.3818147147577131	-0.5942021593350498	2.1034445709527407	2.7255222728580977	2.4512126383883093	2.7118637493330118	2.8578114437429716	2.518289559681969	2.4331660209259383
132	-5.609394536161126	-5.834170326761835	-5.519927964579146	-5.182091699868137	-6.511451227914414	-6.679450018231225	-5.815018639188118	-3.01535629464831	-5.109847532722655	-7.203842144897984	-7.500063877243358	-5.835835442114076	-3.025898448933827	-5.013531672217538	-7.641024570246842	-8.64518068038249	-5.889016136559886	-2.845942490068104	-3.725175609720202	-6.114307388127311	-7.491619568030059	-4.501899707872077	-0.8657209255295663	-0.050717659166555476	-3.1573913017665123	-2.9328501150470476	-1.6077315766751208	1.8172362996950615	1.5203487834692275	1.435172911835216	1.8786058378473083	1.9249297331847584	2.053889746248753	2.1780118887271227
136	-6.533767683699135	-6.378118498911447	-5.955822929604106	-6.122601970473313	-7.749345759853728	-7.74068830443125	-6.513505442386767	-3.49472903322988	-6.045800670618389	-8.486794450313626	-8.742273308616358	-6.660998327603982	-3.5420417696216573	-5.7194185112556575	-8.94343850738825	-9.932900403693809	-6.753612978096472	-2.9319522306804178	-4.296162594438877	-7.291500549980623	-8.66248223978705	-5.262913690630877	-1.143325087521707	-0.5175636993692416	-4.122211922728401	-3.8663787744180196	-2.179737562398303	1.5031210146147131	1.0157115433797888	1.2042165964240619	1.6267394978460026	1.7224745706938944	2.3866002499406003	2.6387140684263883
140	-7.172688466082597	-6.534936888408097	-6.017400726384672	-6.836423856641056	-8.410399415716466	-8.231061914643371	-6.689248544970401	-3.621959200297571	-6.642573816694689	-9.08568379969269	-9.280390716010183	-6.921134931256283	-3.601324072328429	-6.044383033750631	-9.474063849371303	-10.301780674674097	-7.006134969188651	-2.699631207325932	-4.523396003746759	-7.6825933262454065	-8.894403435185392	-5.394751535146652	-1.294815656253915	-0.7920849303274483	-4.368700016435913	-3.984918345880821	-2.1731796209780927	1.257784959478512	1.2347491948424578	1.725044126923674	1.9534321974072302	2.2177076283729944	3.342862597608667	3.5916621594347324
144	-7.1775364694578085	-6.155479415611252	-5.56944845700783	-7.087427121388194	-8.238265016737001	-7.881696681150434	-6.163860782319827	-3.3106789505341614	-6.705041868447373	-8.747526146737862	-8.861486412563421	-6.4453248814932325	-3.1452937046748635	-5.936161979946713	-9.030568100063777	-9.566727614090963	-6.518242342704397	-2.194387191954212	-4.418275345137651	-7.187093716595544	-8.071368197090015	-4.807160842202685	-1.240911838259516	-0.8661143161840906	-3.8789570233639235	-3.2618026651045837	-1.5438520869377195	1.1788289517203983	2.006642098128906	2.7829735208819923	2.743509762513001	3.1584775368101567	4.554945934239613	4.679663646327075
148	-6.431694968197566	-5.25114487275898	-4.629531371825961	-6.754367811316001	-7.218093853846377	-6.681168062507893	-4.962775217877912	-2.5970463687177463	-6.186676486607927	-7.479952316472602	-7.497135620262226	-5.248381601434168	-2.274635309198504	-5.446027741987407	-7.668511848162062	-7.815588931378374	-5.303545461615938	-1.4895350895467805	-4.065382470357234	-5.921162113498989	-6.307732566166791	-3.5302019030133667	-0.91570859916282	-0.7921850065257735	-2.8008415628290675	-1.8284120513529416	-0.3380323639918262	1.3384349312368655	3.0374083442294744	4.074490060055919	3.8229770563879497	4.168261040654131	5.5999455310580295	5.546517358127738
152	-5.080865847157399	-3.9637169737877427	-3.344520798822132	-5.864021763301458	-5.555834756175503	-4.856351363318725	-3.2854523575802745	-1.594101663379455	-5.193211065532202	-5.530955300671911	-5.4373659950305155	-3.5042545706966752	-1.1737879485058917	-4.697252738537306	-5.669320092192691	-5.358957277119347	-3.496246090644873	-0.6405312402765824	-3.5809979348370233	-4.164054383255084	-3.8947720429315384	-1.6952148633118518	-0.29278138205994664	-0.6599384529618063	-1.3836266959543102	0.08119805881742122	1.3262900080573845	1.7601189568903552	4.022042741157574	5.320043073573798	5.020025240621553	4.88943146424839	6.1559200131443195	5.962705597128233
156	-3.4471843155612225	-2.495552533524775	-1.92313384524221	-4.57493351734955	-3.581949463383815	-2.765498869589442	-1.4175143206093528	-0.43413600215975606	-3.9314653774183643	-3.2850639737158986	-3.065458766827111	-1.4766471348674055	-0.018235642416928256	-3.833692779398615	-3.4295771035390263	-2.61383246715559	-1.3121509518873327	0.3225235334836495	-3.064745895277397	-2.2519423904783324	-1.2013349502750263	0.4965298759322041	0.5900897368791547	-0.550946353475022	0.11446536303469125	2.2026169244468616	3.2831203854639694	2.4043583809229867	4.753546702781163	6.3519606429899405	6.2106513820246905	5.118166433763663	6.113835319341882	5.897085174930627
160	-1.8843586397279255	-1.0416856977865614	-0.5629076347444137	-3.124583236434916	-1.6315734345250823	-0.7617108802637546	0.3689788570624975	0.7661142925947085	-2.6336457662846438	-1.127563950552833	-0.7654310445533733	0.5589420185282297	1.079563734189952	-2.97400926792775	-1.3232593502967867	0.027086445993343682	0.9930286978445586	1.3626216615606266	-2.5665290290883744	-0.46600663544301424	1.4305881225706683	2.8073158193282244	1.6229276616129507	-0.49370184416100865	1.5072196683977002	4.3034353147574285	5.340737329350407	3.17165183220231	5.185655103942391	7.145449143489016	7.334125023444784	4.875308978169544	5.601510987444458	5.509356007971316
164	-0.6490066035097313	0.24943071540799822	0.5984190687329726	-1.7576070979565726	0.050778750202005715	0.9139773822596897	1.8870592069665906	1.9096294593281242	-1.4874401054975044	0.6702834946875491	1.1867806881505174	2.3768091141773566	2.0665883965767993	-2.185722583974379	0.40996211663691173	2.2950847090949944	3.1653249183846657	2.3952605663860203	-2.0784559197401964	1.0440361473426998	3.7630331421258414	4.999415861858889	2.644934647558022	-0.4402575481743452	2.722592823784073	6.221726878670312	7.3065662199560135	3.9279527565013295	5.429265008570256	7.790173510910316	8.381682374773344	4.386060703647941	4.915908324227929	5.073731886451533
168	0.15745666583361553	1.2831268278151038	1.495534297028277	-0.6593610031646803	1.3532075847792802	2.1741011087839937	3.059388629818511	2.9042506144631264	-0.5962456449713701	2.006987566649152	2.6756336621442105	3.8363544844089845	2.9069549963990475	-1.4866046867984417	1.7120149092365378	4.088326920677723	4.997360693712223	3.2789070523447243	-1.5554569920368988	2.277047389957185	5.695500836297733	6.87799118212815	3.4954669387303365	-0.2812948815873146	3.7965047263614022	7.8793735305215336	9.020163513298053	4.54873799129264	5.6903266763071345	8.425591447538462	9.373200392899886	3.979743709053065	4.398126114231492	4.86975430212766
172	0.5690116867958055	2.009723658256014	2.120404238115732	0.08467197396835272	2.284952873183075	3.060997478386226	3.900296439813953	3.6527418998048127	0.02407614321888525	2.9387087747765186	3.7364346886712676	4.890876280834098	3.5431623369406053	-0.8651417471977461	2.681442492390775	5.456736074022138	6.370427592406207	3.8540286920517395	-0.9517234539798807	3.341100684313555	7.255271893303293	8.334185579238966	4.074750889980797	0.10509676459719355	4.829374777998651	9.276984191360581	10.39100072144591	4.968435274931493	6.180790408741928	9.175429321011514	10.338401768331638	3.95745967819502	4.308304775804705	5.085711466346824
176	0.6955893618187874	2.4216556487931338	2.502434485793166	0.49749123924535915	2.9362935945763176	3.6904022600460333	4.48288153470232	4.075880994042886	0.42377573144731157	3.6206385997912616	4.5058174019539825	5.583277688235122	3.903452624956131	-0.30402645391952554	3.4995915801383797	6.549762709293517	7.286674957951791	4.023070325230908	-0.25385484035295935	4.383548248667712	8.559324242916151	9.37753293530838	4.387657154449574	0.7920739034681927	5.930030807782018	10.47918793893566	11.429735154858513	5.213056551169352	7.0417833150459135	10.11028096507458	11.312039346745022	4.485399711728433	4.751138675138317	5.771291241379818
180	0.6698248369471606	2.5626938278346296	2.6975805691322567	0.6864832026315731	3.43363331881504	4.195575226681361	4.908389079099208	4.154257763864535	0.6881471854955665	4.231568325803133	5.156824575755905	6.02894543079278	3.9512991805451687	0.20369917102883037	4.342593182090205	7.5480408477948355	7.869481543699584	3.8226098917770606	0.5024847971627443	5.52030085123592	9.760243391190274	10.134058926745503	4.540214527111279	1.7589220956262872	7.167543393158575	11.589287728613396	12.24897572285849	5.390622125367038	8.302780130404683	11.241967172849671	12.333867041919062	5.550581441216842	5.670224175442361	6.846470338701873
184	0.6237165912139633	2.5381219322973023	2.787829868907451	0.79713386095969	3.9055378338436886	4.694232451984872	5.286741720203286	3.9635789294307915	0.9089857316909326	4.911536204335403	5.8427376599616405	6.386307223408595	3.741567125410629	0.6541652066880828	5.3152003154073135	8.601572015026282	8.322232225387308	3.4390573414759062	1.2435541121557379	6.79199979974638	10.992071123981086	10.801660510448155	4.690638530332569	2.8882431911026623	8.546997048733406	12.715923277221552	13.024740186231902	5.64474247460948	9.885042165594426	12.53960129432932	13.444965328603553	6.989508611198402	6.9008531396204775	8.15332601396073
188	0.6878969651974313	2.5042383607580945	2.877661936170271	0.9625371670263092	4.460726249876664	5.277060018567574	5.722203717089689	3.6730849650152924	1.1649866074712891	5.7286314819660396	6.660913927427194	6.814477903327324	3.437331667804726	1.0444205973005305	6.426206572520505	9.78797147186978	8.853515602647022	3.147441856067145	1.8894613933542634	8.157691934970215	12.328174559938805	11.573236436234488	4.975254523113739	4.006084908861438	10.011083577629718	13.935955966096833	13.926934207086406	6.089633449438386	11.637223214332215	13.948629344055558	14.673176728395685	8.56593320591216	8.246310213249892	9.520545935435589
192	0.9822049712178332	2.6252214842319384	3.072864524712466	1.2614195314984493	5.167029844590002	6.0001616326476785	6.291173919052836	3.4913558871812675	1.5059329233295378	6.67217300637826	7.634613971508144	7.4220261386403354	3.2586886800508004	1.3815764153885028	7.601109962345907	11.093654604559575	9.59390256366835	3.1930911460367306	2.3859038292728028	9.516688322835465	13.756647075253156	12.554339377177852	5.442024694054398	4.9425744885587966	11.457066507023395	15.259681663133163	15.042736969161853	6.752738935587692	13.378850903111298	15.396592101325096	16.00746722948249	10.054060910590058	9.537827467679554	10.807764026057745
196	1.5783609111990429	3.0079829616896308	3.443678847201543	1.6991198019998077	6.0315389480896995	6.872241479689053	7.0146341146750055	3.581439724462983	1.9417965363114242	7.668103198718514	8.712869622167158	8.225727060530863	3.383775225679201	1.6837158160615262	8.720851876175326	12.421738593210879	10.542346927728836	3.6738679316270852	2.7236878803151217	10.74725243716023	15.181822738464016	13.714740718547436	6.029803737675379	5.591593728253188	12.763784376343878	16.61536403275727	16.33117671658024	7.5590171623118	14.938037834599534	16.790107684659834	17.378795579902057	11.29489228257933	10.660696002747416	11.920086830561413
200	2.4466347632625385	3.6454539206972365	3.9864098925079143	2.2146303597803	6.987668496609542	7.83882472920179	7.836537341359665	3.9810068506819563	2.4369852481349232	8.605774857728074	9.785597776502236	9.137790656860936	3.8511497877163565	1.9697637508251644	9.66622636261905	13.622758830962285	11.568633050320818	4.486921299096418	2.9360649511595365	11.745103806406034	16.452188450283508	14.89943405204319	6.604660017504524	5.94076918055764	13.821038211260017	17.864211991030015	17.63433451968657	8.366607644891971	16.1777991840085	18.016740753462297	18.66535944994481	12.212475745838827	11.55104538862206	12.802215543849387
204	3.427792778897535	4.405385483109648	4.609509933277877	2.7092881134294804	7.902544478491596	8.779870011097119	8.628283478887065	4.576427924999585	2.915586941033626	9.369400000758601	10.712899181021378	9.994297002354717	4.5251626854134415	2.245424980216467	10.35284611949146	14.54008670950563	12.472404448490675	5.369784341606172	3.0775279921079184	12.450276343382969	17.406930879513638	15.89517589370643	7.0312342466216196	6.061112865403948	14.556126557792771	18.84416384707638	18.741851759322	9.034537292558639	17.013332323988823	18.96272273044404	19.72636027124065	12.799228635897945	12.181220977546154	13.426726307348334
208	4.268707264613175	5.079497801353968	5.162073122342995	3.0874552648794853	8.614460923379971	9.537309622527053	9.230791068613438	5.152046667442772	3.2852175152804524	9.870470022076528	11.365762681875497	10.620876285440724	5.153962122302438	2.4980046686046435	10.75109002259976	15.0590905762983	13.07516285456163	6.023493274739651	3.199888698128333	12.859827962832348	17.928588821922165	16.525743442773578	7.2469157989640385	6.070566162041458	14.954922638328876	19.429744671403594	19.482477138921826	9.491199469445228	17.42567057978371	19.54763026070557	20.45472712120834	13.090951886504188	12.551256148120695	13.791616404998852
212	4.719022738940105	5.473422990331326	5.4955496649275615	3.291166774069753	8.990109420966707	9.968801473244282	9.519966101452678	5.493397222000866	3.4726736457886163	10.072842572529943	11.665772408596073	10.90714737999384	5.493906484084542	2.705011599386933	10.888498278783599	15.142775497351662	13.300326313770979	6.257401927408366	3.337854615367283	13.025073018567488	17.982749893562765	16.730174976070916	7.297009449655436	6.08917044055894	15.070485077001953	19.582782695919555	19.798887202820232	9.767673467770635	17.470174745320758	19.76104922073803	20.824310250158046	13.148751225652692	12.691581694031056	13.92919632255921
216	4.647163856217478	5.4917034964192055	5.528918729174367	3.315737239095609	8.976585365519894	10.00404355384378	9.463314032503913	5.490285859551447	3.455766192294316	10.001263593218475	11.607010812064743	10.852206202764387	5.43418406068186	2.8495116161882432	10.834879847827663	14.838448487011616	13.199832882933391	6.079089626222819	3.5050706774908793	13.03279396581362	17.627366975148497	16.583925205321997	7.309503536843129	6.199463351810018	15.010035476934846	19.368450115894287	19.766941020649913	9.975267385093192	17.269407228737805	19.6768149832798	20.903371758137144	13.050290074778236	12.66618153235202	13.91221901242141
220	4.109283436890681	5.173145757965674	5.282879816068749	3.2009067454585263	8.621808030295016	9.673509573355057	9.135498023810085	5.189251886617637	3.2762114918962078	9.729135488741958	11.25010010739945	10.557317707109984	5.0554075113452095	2.93188833450138	10.675991031395323	14.253418886437894	12.916986432841846	5.6854467248424045	3.6964762117518895	12.975753751419058	16.989131884596798	16.25608821579326	7.427550297104172	6.422705634113817	14.900855980445362	18.92957491863808	19.55338473151624	10.241535160910187	16.984878497156366	19.432079266124262	20.825818962922792	12.88388916577453	12.563949553240015	13.843798602437905
224	3.3231151020072796	4.655505645442023	4.860703932887814	3.0027217789178797	8.049870470703862	9.089749313293265	8.678558327698122	4.766248214132151	3.0221941394796787	9.34880445027349	10.690030070971694	10.167564366419212	4.586836803299722	2.9685738011751157	10.484282467121039	13.510684932929815	12.60642525351119	5.357400880638902	3.8913671872119853	12.921672788420834	16.217660862985007	15.926215131604136	7.732774714973691	6.715520841809588	14.845937691399447	18.431484175877085	19.336151074227786	10.640039417106209	16.77204890784996	19.177745770672644	20.734521813495093	12.73799225452179	12.474946944211794	13.828221286193054
228	2.5521926815446143	4.088133324791981	4.382524956128791	2.7608325411710473	7.3992352298844	8.386397340581754	8.222283342583015	4.42927979304688	2.784362309101753	8.933176018095313	10.01127049779526	9.790604566650728	4.281227101007347	2.97494363033689	10.293693516491391	12.70339867245581	12.353613822264712	5.312591062484214	4.052741040488027	12.88971134746149	15.435931166777532	15.703212698390308	8.203034380229271	6.9854144873684065	14.885479889480765	18.001089050620955	19.227771710487747	11.152393312907368	16.731538730339935	19.021455716745947	20.724016137252086	12.68273636476872	12.459294287696137	13.933492625343774
232	1.9633859346410105	3.5455655962118815	3.913047780647848	2.4774763521586696	6.757576925382606	7.649888019321144	7.810770015069741	4.307977665515003	2.6073632174465815	8.507529237248582	9.254549956798082	9.438796019565327	4.2788243185732275	2.944509498791414	10.089591000832383	11.86960789544716	12.136780708188141	5.594171986761083	4.128704060620946	12.84546753501216	14.707940064489556	15.585835417497693	8.721158005630118	7.1224994479598	14.9831084826791	17.687635377095944	19.237800549573755	11.67939564617154	16.87737079173932	18.990751218532456	20.809753365429174	12.750398603672595	12.525506941642737	14.164627039433068
236	1.5421071013616807	2.993309490275872	3.4263121995250523	2.1216146892387746	6.129465564511159	6.884731275342334	7.37915132566875	4.386331547153117	2.465565913651143	8.046427706430329	8.413779237485278	9.02792356119106	4.53201483535952	2.84297632453299	9.81992528343461	10.998668642885328	11.850425690295395	6.05225847623563	4.065890778766595	12.719546285940432	14.03559585842339	15.481493910803122	9.132033325027328	7.043346864083714	15.046569786229814	17.46076579453885	19.288909863409557	12.097122161840515	17.138549761416822	19.034053754433867	20.93682665307221	12.925453153401524	12.63133045822126	14.462301217758661
240	1.1196637125356697	2.3279063642855653	2.8310367989588867	1.656867619145974	5.4549527030549605	6.03408287432229	6.79891536903434	4.515085685774577	2.2789993228593612	7.498392086170919	7.46499488853185	8.436355569520563	4.8323521492069546	2.625564330147821	9.424573874520668	10.064583752970716	11.377022714500876	6.426742537484972	3.835858335347127	12.444036452346477	13.383845295493707	15.270431480000553	9.318848586396486	6.7362561055817	14.975917778351551	17.243411974286836	19.272659253099025	12.326499907843424	17.395593599268825	19.057281446025616	21.018739647250168	13.152258839779579	12.708250967365434	14.730058632854123
244	0.4977366315672799	1.4678685628070496	2.0457069822160676	1.0787017318193866	4.668469894066518	5.045739161149894	5.971795067014952	4.500592220387586	1.9638335655221435	6.8262252635271565	6.411824687028251	7.595162849323813	4.929158198309467	2.271095270144942	8.870373703495572	9.067880607598966	10.668652507549105	6.490660174194934	3.463434925871756	11.990469902283126	12.719191519095624	14.879516563995331	9.259506202207932	6.2875470956367	14.715505562822505	16.960130648708105	19.112062405970313	12.379281012751667	17.535072282388356	18.97484583832359	20.983634895751884	13.357911076198834	12.696616140734653	14.877572022069089
248	-0.40362775223868935	0.43968036659812	1.0788303586424872	0.43835174926710857	3.763217916524179	3.942309369624262	4.916647898658435	4.216851223789509	1.491433616687373	6.041604980473953	5.318879114073563	6.5549006296601835	4.670299995075081	1.8126219465267799	8.175285318714858	8.06147573343091	9.790597890930531	6.173336490303716	3.036964408836308	11.389782876822176	12.04032418072171	14.325034105373293	9.035105682449782	5.866609558552493	14.282180750073772	16.574935871238246	18.79665179275298	12.354253737729406	17.494928315814903	18.74699969326896	20.801563210420554	13.478066410368125	12.571326224058792	14.856677017849384
252	-1.4667239152116731	-0.5969986900515611	0.06276029332527962	-0.1643424924039075	2.8218362260145864	2.8497600483470396	3.79600452418371	3.680694809203843	0.9196501351025756	5.214696870989429	4.311348427377831	5.489738450495212	4.088083256890496	1.339455005124976	7.408363323580837	7.146265011864642	8.903954483440087	5.600962147876753	2.6835107735592594	10.722489329922945	11.386548967223407	13.705111468998995	8.789783455591133	5.6642379617733924	13.754784549317918	16.102558095331275	18.37734599242002	12.386533705909626	17.28059001374375	18.387390090295053	20.48441881730037	13.474268879249784	12.345705954853038	14.67401786914063
256	-2.418331855390271	-1.4069260323288957	-0.7853363136490829	-0.6179077013627541	1.9933812567927576	1.9618782947598683	2.860301248958243	3.0504195613139338	0.3758977046059117	4.452535618030889	3.537342062602273	4.631582725275372	3.3854331884740874	0.9644156670063077	6.665374739030922	6.438148959117551	8.196086862851791	5.031952845266732	2.5158245499988614	10.084143613150825	10.821878405904922	13.14922806280969	8.662570931498252	5.808216080306368	13.23232742783426	15.592394789429374	17.93045039418309	12.577127424910845	16.948783831720153	17.943275406357742	20.06716150939388	13.33889862507496	12.05613991554506	14.379312478954516
260	-2.9739704056994545	-1.7932201578642168	-1.2612293926820959	-0.8510637261837902	1.425559159494376	1.4534639083405492	2.33281421072398	2.547638648276693	-0.0036944271903342	3.8544223211248423	3.1080591600148435	4.163730133988325	2.8331515717501783	0.7674291710551339	6.029413208043796	6.020852073727032	7.792556743020998	4.72025822401389	2.5719611579809096	9.54210278962921	10.403162929972332	12.75183769821242	8.722822167308045	6.29155634245275	12.78299423805075	15.096913299591478	17.513839677461494	12.938969579453824	16.571241336945818	17.46441264511558	19.586099575183642	13.089862790437602	11.740240067404642	14.039263689835028
264	-3.0032930298319647	-1.7066204504794056	-1.2800264326202948	-0.8754273034881533	1.1884862154518143	1.388094183278236	2.2940397204654306	2.3419973791120494	-0.1488373573836975	3.4671585472307633	3.045509569108313	4.128636826581809	2.6298065119150644	0.7481425385659861	5.53693340810921	5.907892689094014	7.6954574390669315	4.779402243945132	2.785849802613012	9.108351684462118	10.149823163155899	12.524835554925682	8.938863731704	6.959025365425755	12.415069548733088	14.644137345534432	17.140090899108245	13.386449780045236	16.202123601061345	16.9814948606903	19.069337796703184	12.763062444888181	11.424133271938086	13.714940990153377
268	-2.6164500647289373	-1.285765406223359	-0.9307430959090718	-0.7910633067185775	1.233354326948946	1.673802252358223	2.6311790876714864	2.462576621513915	-0.0993044001337066	3.264097205504064	3.266262761452576	4.401551235530218	2.803119175509474	0.8196499923039042	5.167938696211242	6.033789142633578	7.782724837680831	5.12484882968185	3.01388954355338	8.745120980117958	10.032626126708628	12.395394293960985	9.197795844697719	7.572430114701032	12.08783337402217	14.229928934409797	16.781175571034925	13.776609385993773	15.867845495215862	16.50625033979545	18.542646361265373	12.408561675214361	11.12569043211541	13.451643909824485
272	-2.1212646907655373	-0.8041138628684893	-0.44816693550445835	-0.7496036272196764	1.4062446320315438	2.0913197941431427	3.0807444971504565	2.7784647871439865	0.006351070462523629	3.155807725568118	3.6079358963473807	4.743202197497222	3.2007708468687817	0.8480986335322798	4.861687647942704	6.276223166832282	7.865585784126901	5.519660935771227	3.1052193563263346	8.396805742044732	9.984994863095976	12.245557754117119	9.36089894792362	7.923404196761685	11.7516689003836	13.830039943109849	16.395544010729253	13.978516543381955	15.577998121985253	16.04639430763128	18.03911586021733	12.087536781310517	10.865743609651595	13.278193440291702
276	-1.8759880018553825	-0.5505096898485	-0.11416353256489131	-0.8918850399387585	1.5101169309636273	2.382019513791887	3.3431117450231995	3.055841199789015	-0.006562774984360418	3.026834957110174	3.885880937302131	4.904227244392919	3.568957558204214	0.7198701482717665	4.549194324451888	6.498063547894504	7.774052600306486	5.698016629138061	2.9814937039440097	8.029287317984835	9.930673574170623	11.97169777708638	9.328393912605296	7.938061694130684	11.391674012986835	13.422486271348296	15.959512670277393	13.936214411835925	15.344708403946324	15.621125181812891	17.600288346676823	11.864725082959488	10.674597713222571	13.20883175376028
280	-2.1162235683417414	-0.7029234153166586	-0.1364093270434093	-1.2868429389888878	1.3857337201418005	2.35347818734112	3.2132913985186886	3.063476554765465	-0.26412466101718557	2.782458775171012	3.956320037389792	4.731275546526358	3.675228824873161	0.40125808018465936	4.187195290484256	6.592540247485075	7.431136112524806	5.504033551624891	2.681644671345343	7.654593925223569	9.815656637205153	11.536135644397007	9.08607003778986	7.7163581653325215	11.047640772583463	13.00751682812109	15.487214049338485	13.696577037563022	15.193582496429931	15.264510116184939	17.26501079015027	11.792271584302084	10.584832164743153	13.24062534804036
284	-2.8472657131787766	-1.2587143150975035	-0.5654740915326728	-1.901369328466716	0.972859976219607	1.951603050072981	2.662508719397807	2.6734795502874666	-0.7815442065534018	2.3846206604833178	3.7596402073352135	4.223049153156185	3.4103660497392627	-0.04421526182455494	3.7765848541277593	6.513380511051633	6.88006637743541	4.968579279752906	2.3418800771714277	7.3255471998275254	9.628855680950707	10.985516520420976	8.709609009687597	7.477696876719995	10.795704814357235	12.613411871535543	15.028880081379455	13.387712444836971	15.15514846790148	15.013006172422951	17.052370028358038	11.88855740406631	10.613062831786134	13.348803486500147
288	-3.8555309675148655	-2.0526325650843247	-1.2880291906262127	-2.615711682391324	0.32643133319454737	1.2688033548745823	1.834556217330166	1.9107118796745124	-1.4563087188192065	1.8633733940762571	3.3300099288789102	3.514431467719931	2.820849649936755	-0.4912348973269508	3.358430377110378	6.281017287608752	6.25670526832199	4.286982048655171	2.118905300512705	7.1037983714994475	9.403097128969423	10.43097779501441	8.331095674461611	7.436226349175772	10.70183274428174	12.285943953966324	14.65274711724121	13.163201298858397	15.242410621306652	14.886150322523505	16.953170733564544	12.12406060018803	10.744078609043243	13.489612545287706
292	-4.8231110451043095	-2.8491883205957977	-2.0952780193833935	-3.2775609410505155	-0.4162096668702379	0.4887869941768507	0.9645015572992122	0.933555660274987	-2.1198570674780757	1.300344583089321	2.7705585886623605	2.8015389371711787	2.0645003266663	-0.8208590725201204	2.9916863365934465	5.96429346486104	5.722434029436521	3.7095870878021615	2.099375719492066	7.020684224523011	9.195689178138098	9.999385808494212	8.079214075671281	7.674978713685285	10.775629970047568	12.066830604604982	14.418916665866243	13.135672536110517	15.430009802961916	14.87270637571907	16.936063723720043	12.424814192873523	10.929669352593226	13.613687480887533
296	-5.477571473597219	-3.4563577087875736	-2.7858967710729763	-3.7660088444040953	-1.0961108180028498	-0.19921731898555	0.26648133925868733	-0.039305817236606394	-2.6178100043006993	0.7948949316936448	2.208799833443092	2.249439233822665	1.3207921948464727	-0.9803668235822458	2.726696722775787	5.648176655814187	5.391837583280229	3.4066221628010833	2.2511541786578126	7.056318265265563	9.059399581924579	9.779417966947527	8.020350435988355	8.09542081696337	10.955740900989316	11.973497360516895	14.35741134833354	13.329424824439698	15.652913054047088	14.933079681841056	16.966451602061287	12.69713303221284	11.10710331973558	13.687784160387956
300	-5.697157845418305	-3.798449268287645	-3.246258489042144	-4.030646790818468	-1.5885645111030908	-0.6699506623519637	-0.14758858047416115	-0.8150290230200693	-2.8728272842354556	0.4316555548736907	1.7558023885266199	1.93340706337118	0.709298132059292	-0.9980066989496967	2.5910775596050084	5.405518041314537	5.294738279326163	3.387402049095337	2.4492049155387643	7.153202515661824	9.021771408191455	9.791919683529732	8.137513140160321	8.477840402179496	11.14080235529503	11.993720024345233	14.462462388717727	13.678150142467944	15.83199687775266	15.019591293561112	17.02853579990259	12.866600004136052	11.230284662503191	13.716269458472777
304	-5.529139027940901	-3.9198169609286087	-3.474217406084401	-4.0924334422738	-1.834102029938124	-0.8901287294802411	-0.2865646474278915	-1.2876816955480495	-2.901577703779567	0.2592994862208658	1.479637499888237	1.8333905888998814	0.2600821250071131	-0.9495520567761955	2.5900671416693273	5.2797093258118615	5.381906495811406	3.5123448283209027	2.557865613201434	7.253598194882226	9.079746223413736	9.991252873944433	8.345473268419452	8.616411187352098	11.246129007555961	12.095334976176082	14.698563538634323	14.059856379297196	15.911263425709269	15.10038658144306	17.132204012531474	12.910102811643405	11.292601556877106	13.742250407809037
308	-5.128622042105185	-3.9249844451990095	-3.541510811447339	-4.010192384131829	-1.8367925835964922	-0.8996191598113521	-0.23535782039348005	-1.4471567832649206	-2.7810270716071215	0.2869161360172446	1.3998318875256397	1.8775734854024049	-0.05374204353830654	-0.8981665350171986	2.718231194309001	5.283651338588774	5.568392262705077	3.591288319103645	2.521776908229683	7.339388828820899	9.212448096857992	10.296447727910218	8.539478280441843	8.452403047202214	11.254528017239345	12.247112243248935	15.01613994621875	14.355075799938557	15.886973340931728	15.174461326434262	17.30081553859503	12.863723722405032	11.327770204554426	13.824262584115647
312	-4.665770518920746	-3.897964467697648	-3.5261094481134205	-3.836663951723877	-1.6406441885533893	-0.7665918450074433	-0.0836776790890424	-1.347458120758762	-2.590116732733655	0.4937366234711473	1.4979582987158826	2.001504893017975	-0.2527779036338766	-0.8486216046842187	2.970883123526463	5.410069928815251	5.786931023292236	3.510416737276576	2.4062933861060896	7.447520237239299	9.402218794926231	10.634390804144397	8.655092217527876	8.12123010492311	11.228609056733495	12.43815800387499	15.36965557032621	14.50290294800283	15.809285123964786	15.268249473170126	17.54677768091837	12.799887624848918	11.385796518189663	13.997743571226477
316	-4.254889954314809	-3.8486981294736453	-3.456981888626086	-3.5917508511459344	-1.3005844321792916	-0.5444831834397652	0.12910163369962344	-1.0573401424415567	-2.3645944535636643	0.8448235967287198	1.7368357137698185	2.1891283933682457	-0.3023089460846589	-0.7463175039522163	3.347191086901328	5.646342263271212	6.024292930651939	3.3141176616918613	2.3592622220555204	7.650445918794833	9.651876425216315	10.97462937445237	8.707537629077592	7.879678706302013	11.27630040182793	12.686475721753908	15.732693632458943	14.527873956240565	15.755813558853207	15.41863628309317	17.85378833077801	12.787944761414716	11.500695199540196	14.246318781170174
320	-3.9307820697723845	-3.7123386766166258	-3.3002681648853973	-3.2656960404914823	-0.8607712962352697	-0.25015339192175284	0.426139532443846	-0.622452376701469	-2.089770788638631	1.3059171405245924	2.0798323101938743	2.4758489069418315	-0.11235695303921338	-0.520438073751633	3.844555845090793	5.98588703551575	6.323020442257343	3.191098205139052	2.5168950494163247	8.012703875338715	9.987312291678991	11.338876695615252	8.788432099088197	7.953982333128574	11.489071817001182	13.030607190611622	16.104171712270563	14.52582355646547	15.790998418993865	15.651727636874789	18.17826838672147	12.859167066532747	11.668801278217332	14.502242051703229
324	-3.66927479771229	-3.3977296266602046	-2.9905471726253756	-2.845782749620509	-0.3465149393869747	0.13125736978293348	0.8622843005344283	-0.059205915629394784	-1.73022663156452	1.852449531646562	2.503714793559709	2.917082063939397	0.40943255917174176	-0.14195129239482704	4.450293529718679	6.43110178277426	6.751773340344768	3.372611037322378	2.9115595744056106	8.550035455097806	10.443907711363602	11.783831566623197	9.023698783980047	8.39871595169567	11.889520615123448	13.508884395824985	16.50595470075811	14.61959644441231	15.934810598196204	15.970530469627017	18.4728450308752	12.995997396082304	11.851746529220282	14.681082688458732
328	-3.4278728875399107	-2.8564536499384166	-2.486755841652453	-2.3477158487173626	0.22799250425950304	0.6202793105677343	1.471959825614103	0.6226080044285847	-1.2754880157692654	2.467543357341219	2.998214714109923	3.5425519853796463	1.2828606334722088	0.3406843832474443	5.135183321385495	6.984144670019318	7.3603687100545505	3.9991757768750977	3.4385285290687944	9.213022208795019	11.041254015702615	12.364565818086671	9.509270644021184	9.05150792697624	12.416506735924283	14.133704149801668	16.96924968249856	14.901620827245187	16.15615268442936	16.354665714934026	18.716030073596176	13.148954358281573	12.001601188876116	14.732695542332328
332	-3.175771466820205	-2.1312243884637803	-1.8171532108204544	-1.828414554748016	0.8452386834738876	1.2136126726027316	2.2282032910357046	1.387623664213567	-0.7685903887417163	3.132851831155861	3.5538256078640007	4.322655190044597	2.4052381454776506	0.8149737099098574	5.85452841234276	7.630132655906666	8.141915300793737	5.029604899105667	3.9068806072777984	9.90449616792568	11.758124321815055	13.0940389302586	10.252450917108213	9.615600561660443	12.954212156014462	14.87044521392058	17.510017350810987	15.384442290564756	16.389076191531718	16.76484103738476	18.922096204667707	13.265596356278097	12.087255447387887	14.671894990117671
336	-2.905009500798491	-1.3554528917423	-1.086009857296846	-1.3683609927915585	1.4736502133356653	1.868060464910981	3.0369667930220934	2.1595730727031195	-0.295413582771227	3.8195238016969615	4.14739226247806	5.166585909196836	3.563388338629042	1.16187989418415	6.557733042372759	8.325423219641948	9.023304916488364	6.243401988478869	4.146077622436213	10.52213666166658	12.525139777031846	13.921639407295087	11.152130098796704	9.8246116390136	13.388792004160416	15.63581462727141	18.107311203062732	15.984227140124663	16.562690693046505	17.150743441195605	19.125625562064	13.314343418838128	12.10650154871869	14.570412599016468
340	-2.6268045835931755	-0.7045673710200581	-0.4379801739125169	-1.0322813961669333	2.0666155762947485	2.5050346788102833	3.768227329277034	2.8365919518379274	0.06081128850127049	4.484989631773414	4.733636844127817	5.95167158531527	4.510700691278812	1.3234686818087094	7.200421791970829	8.998301483323953	9.886084531619625	7.3364634328627085	4.104732979901438	11.000885935665375	13.239876713703872	14.739451371172693	12.025832145846188	9.593569731332764	13.658040012208659	16.316766697695726	18.693138075362956	16.54443164463069	16.625455814348	17.45654864672235	19.345889996322338	13.28762146455989	12.075018852264973	14.509803735338924
344	-2.362057918307007	-0.3222546867340688	0.0023542796202168756	-0.8320432880375372	2.5735230380886605	3.034180633513747	4.306758869741714	3.332600346734308	0.27138975194122583	5.079327570488919	5.250030981160229	6.568848116502411	5.074884878697157	1.3406220640667317	7.752889613604546	9.565248465229953	10.608340236583215	8.061924914032803	3.8836827180083646	11.33164689064083	13.798753703564817	15.41565509718761	12.67700001377002	9.06740186309334	13.766289676241994	16.802581744686933	19.162681531208722	16.89368243720595	16.55085178011253	17.622802689881702	19.551423977126657	13.184143986793803	11.998850792154544	14.519226991235541
348	-2.133176082947378	-0.25580036575583853	0.18617863906107968	-0.7123809438839367	2.9598288461343283	3.386911622079363	4.597929466082994	3.623037329109546	0.38832268020816285	5.56061028030285	5.636377320364242	6.962632638518454	5.239071832780916	1.3374905552474285	8.202345827374563	9.958515142093495	11.108197184173736	8.339839914246662	3.68324255013369	11.549303979324698	14.1329297662587	15.841959913311001	12.972547498375397	8.537938096424735	13.761344874923912	17.01966853613103	19.406429241774962	16.915218310564665	16.328527409335955	17.59282489149547	19.652975032778468	12.987723317734053	11.853454559916655	14.541183434966728
352	-1.9564858625606532	-0.4318479288642176	0.163209780638617	-0.5712604508282139	3.2259983934969827	3.5450687318942884	4.666155326506444	3.763368835484369	0.5248758779625355	5.911234840727422	5.8597597927921985	7.145984631616327	5.148165689821956	1.4582636319536142	8.548268296593967	10.151182149053346	11.36725899687416	8.277360895239369	3.693403234693608	11.699182480838381	14.230246507956359	15.972307164873996	12.894227949012587	8.277118661963613	13.691319431069948	16.953599887005844	19.35142130734353	16.596288639128673	15.953268964543645	17.326707796220088	19.534732769283057	12.662103620985363	11.58737561161383	14.450522386306465
356	-1.832268471860173	-0.6853657943587901	0.05930309355187511	-0.3053553990760824	3.414570322952525	3.5508034139629396	4.598507392717277	3.865807523503934	0.7987212518553404	6.146434768417291	5.9308910220132445	7.184499245624311	5.035870539348638	1.7916314556663848	8.794903732982991	10.16608044918663	11.424992532494999	8.095005014962467	3.991146792825545	11.803775757551847	14.132751429161983	15.836296041560164	12.542870489877707	8.384852388193076	13.570638622353641	16.64924045173912	18.99443240138449	16.037435491125578	15.424056014219623	16.819869952651096	19.11207575741071	12.170548408298197	11.15315529868425	14.121706926931566
360	-1.734941955000796	-0.8292659500165953	0.018744550598025968	0.1405264880685522	3.5962519554894286	3.489899388085213	4.501073349078998	4.039851178460024	1.2656185595029845	6.306785567572991	5.899180874235639	7.15719793420032	5.105467783435617	2.3224887789263184	8.943669296572237	10.060924504627904	11.34658238407236	8.001316050355259	4.501579273302574	11.847495049128478	13.909884417700741	15.519181212343712	12.091526954640287	8.738637902131396	13.374206509202125	16.187570531029728	18.407909346835044	15.413134535975713	14.753920517864678	16.11466785177043	18.383901549654446	11.509109468012605	10.546952220991134	13.50778576301526
364	-1.6160191256730567	-0.736381230879311	0.13545180822983255	0.7419391851766494	3.8345062635884557	3.4504182251599915	4.44537209342129	4.323158253245231	1.8781473589208535	6.433207972496725	5.8235320897891825	7.109866124322263	5.421406255385751	2.934022896034687	8.98639199849074	9.893361066635434	11.17842289963364	8.081633547405895	5.039895998628025	11.78423783188096	13.618938411660407	15.115707359297446	11.706773728377808	9.069070793142837	13.058714833668098	15.648079832623743	17.711067154990886	14.896286926806996	13.981127703653682	15.294184646139314	17.447145417986324	10.73049256476602	9.83067223927906	12.68395039217044
368	-1.4271481001107866	-0.39875584740098363	0.4059714962723075	1.3968251908321812	4.143820275334979	3.474938383865784	4.431229103344693	4.645668018055972	2.494131320378339	6.536991579717607	5.733818516559877	7.025771600151036	5.872443661168378	3.457801333280389	8.902947403364504	9.684431051598967	10.91649529561965	8.260904291277011	5.406610475241222	11.561541528121925	13.273793187006913	14.68186470139621	11.477292985548988	9.113610244629506	12.594927755981626	15.074980697718141	17.018648104615053	14.581766091724619	13.169498410353729	14.456695520140977	16.46172519342349	9.938805555046088	9.118674255236838	11.825566261952398
372	-1.1556754083065652	0.06344678981974694	0.7265843730701834	1.958446140113077	4.462687004266246	3.5295557886656326	4.3836221584270465	4.852484213975462	2.9320588037850075	6.581066591813359	5.604355321085959	6.8288817233287995	6.228916152486389	3.7442130947948176	8.664808251438892	9.400999045478626	10.50489232272086	8.356708505512668	5.480442033282355	11.146170588008527	12.838380781184837	14.208884203322793	11.381001443738878	8.75763604814056	11.988688438664576	14.463194810590878	16.391485172848878	14.444130861054047	12.391134230800354	13.679631198677583	15.580930670500798	9.251536345965846	8.53069780103286	11.127534838238683
376	-0.8553366043430156	0.44832432156859037	0.9364976859290277	2.2829327525674477	4.659689414657534	3.507712832177812	4.185278881950277	4.778257834768334	3.047539703304237	6.485563261823769	5.356963620965934	6.418926699644598	6.260025008609019	3.719682684090149	8.245065668270124	8.969088531737553	9.86630341899867	8.187748888324503	5.261324869223756	10.53894421777649	12.248796432087458	13.63287731543381	11.304524393150714	8.084954241367237	11.279162378444239	13.77086540560056	15.813401182304004	14.349778139124297	11.698348015813632	12.990778890236104	14.883352242086234	8.746101357312748	8.134583452667718	10.707432719853538
380	-0.6477065666058175	0.5566340074790641	0.8902711845808946	2.2755398692853315	4.5785336378848935	3.2739674962353695	3.7341039086478554	4.339350689422611	2.7958676744444086	6.161065086068341	4.898365485221928	5.726057991829714	5.852704033380081	3.4081635389110834	7.634251098431668	8.31575200842369	8.95276448850484	7.676120738676299	4.849597918664146	9.775970434302423	11.455078096078708	12.8777217539859	11.103853197673473	7.317781906725792	10.51968953337686	12.953329053599699	15.20831962560415	14.120404207818645	11.101263971910967	12.363275496739831	14.343056642559235	8.421225526528977	7.911083201461982	10.545212719042402
384	-0.6791334731121655	0.2767523222134837	0.5251076208208372	1.9212853860031025	4.106267441872662	2.730164521000064	2.999186746654466	3.5926177410973588	2.252892488513653	5.555949197093182	4.1742472543231	4.758501040842385	5.071429716657541	2.914669744762138	6.856376153801375	7.418484669075302	7.790441970229707	6.890621167905588	4.384321678536365	8.91996190680055	10.461470577530196	11.90989014479614	10.678191158037718	6.689315779009538	9.756587957544717	12.001417129733515	14.49086757816017	13.622451747833178	10.567128154778086	11.739394158288125	13.855444873160454	8.198527315421314	7.7633232874368465	10.495470020498555
388	-1.0477714512120533	-0.36703908350782466	-0.10863964977253666	1.291041013319109	3.234570495068358	1.8721468401371752	2.047397846774787	2.7240681579478285	1.5857603509920675	4.694927680559777	3.211354485986958	3.617990961477023	4.124737729149027	2.38414835327931	5.977008327652425	6.335464461543553	6.493712885674043	6.013246044235737	3.9816729921902843	8.047771433538752	9.343737578643218	10.776282283278343	10.022357915369806	6.328733428235351	9.020209289665125	10.963641139006478	13.624201740199366	12.840461698537982	10.044229482087047	11.071160288515292	13.30411430814618	7.9645733632226845	7.5669302749322025	10.366191837841553
392	-1.7363526777297784	-1.2237560718157083	-0.8667892195751784	0.5248514996628839	2.084084028704258	0.8098497966346776	1.0288426850092334	1.9681063840767243	0.989151832944221	3.6887278463692303	2.1260464137759256	2.4757497248131757	3.2616727269793016	1.9553542087778049	5.097094046121553	5.201052175741896	5.240365968825012	5.251552091691057	3.7053239252000103	7.239136200747597	8.235558489033874	9.605787252969398	9.232056594428114	6.223088248753545	8.332822778644262	9.941907857589525	12.656485525601598	11.89738747453962	9.499561285830367	10.357546780185157	12.633721319726455	7.6330027387546435	7.236223202555488	10.022761319604628
396	-2.5909533435256105	-2.077951426028091	-1.5713366230392871	-0.2043830449189342	0.874880550083009	-0.26368221574013495	0.12420503018730127	1.497434969936076	0.6145835503320232	2.705539934956888	1.0905735465171964	1.5152581891903931	2.655686610192619	1.7236727432601442	4.329504002130577	4.1852006806565285	4.213919628948278	4.740522372674886	3.571578255219082	6.564627630825811	7.287725430208661	8.569142319978765	8.459028222661562	6.2621416887489385	7.721347789343361	9.06000325776534	11.713262528410253	11.007077189311852	8.9464053881791	9.6555270904903	11.886779755145016	7.19148634048582	6.769388181761477	9.459236121137256
400	-3.368978491860358	-2.7356655528617853	-2.0823798127051427	-0.738606212658514	-0.1465892937058635	-1.1412177057063488	-0.5225419984976029	1.342634555287847	0.5218017684160061	1.9158155869751643	0.27376314928554485	0.8678345062279653	2.335764879051491	1.7192252830968124	3.76591276171696	3.4366860302941493	3.540203085544268	4.4858879929772	3.5693209081178474	6.072183116840842	6.619694216227552	7.816478709513335	7.842015246619272	6.324644549614083	7.221421223527918	8.420225122173592	10.949173899663123	10.381648037448526	8.44410894169337	9.05841252900959	11.18547532118566	6.70724151825261	6.248751624543243	8.79877469702351
404	-3.8366780184200087	-3.092478505909894	-2.3454079568774864	-0.9798277591762582	-0.7911528328948041	-1.6729243951521875	-0.8508738853906599	1.386265035943987	0.669153390625461	1.436207529256615	-0.21197697466737	0.5748081788809327	2.198663229159602	1.9024418544420962	3.4489869984332584	3.0398788375398875	3.25106763018906	4.376898754513358	3.672980299259331	5.77596758337851	6.287535651544932	7.424875717490563	7.447012405667095	6.346660121152738	6.867575628107816	8.070794085152988	10.484803173296482	10.135778401533642	8.069540957104396	8.654018380250314	10.671276065586914	6.289632781361415	5.797831520701238	8.226098993513324
408	-3.868628968961899	-3.1521735111760485	-2.3916549622233703	-0.9199988222736313	-0.9844238733232845	-1.807360763755029	-0.8876911975383057	1.4380670749596227	0.9400020218004596	1.2974141803409822	-0.3329568496880818	0.5933594092646983	2.0910932964935682	2.174918169252512	3.3629052554102374	3.004457466169357	3.2923409855688637	4.257144440393101	3.8382694624314935	5.653365120919497	6.281887038583119	7.381918888527974	7.249327164466984	6.3312630493532325	6.675336820914949	7.999947050877514	10.361445400780783	10.237454388520588	7.876809577128348	8.48639962914763	10.438141796461167	6.032991394069919	5.5217470983330985	7.894716719722298
412	-3.4998907954543967	-2.9940795822844257	-2.296996587675983	-0.6438140256839435	-0.7744681219574673	-1.586509342956424	-0.7102108579824332	1.349307414462894	1.1916363209202405	1.448906060375372	-0.12016231536329489	0.8401737787968865	1.9114397715946718	2.404169553408815	3.4473831566556914	3.287747136398333	3.5705213456605933	4.0164370435398915	3.9895687002544555	5.654344067602816	6.552679522182881	7.611437778329353	7.165262681036648	6.303652270614349	6.628133280232125	8.156914690404305	10.53599641047192	10.53034589016148	7.867649058505236	8.540807702435556	10.495135280814342	5.970437511628975	5.461625562230008	7.8578395645114485
416	-2.9025790618092655	-2.7133841446081037	-2.1269540733042738	-0.2972190074569153	-0.29111066387111056	-1.1043333979381444	-0.3919570138095217	1.1013771267740387	1.3077299561862143	1.794561619996145	0.36611518171381635	1.2458856074348856	1.6723647075391597	2.4624237952050967	3.629312982932813	3.831671466690095	4.010794152623962	3.657559862439133	4.023864735934469	5.723459229324068	7.043869000770628	8.024673441653709	7.11423967472626	6.257442458566711	6.681711656866872	8.486083009275383	10.915902110196344	10.817180606234166	7.990730742307034	8.758912064372689	10.776528331251354	6.064107402749904	5.585853562557232	8.058435419717883
420	-2.2995302619096982	-2.3709108769638547	-1.9019161414765047	-0.031187882568176464	0.31719806710267057	-0.45798200253251886	0.03406213215334312	0.817914305052427	1.2346281974138693	2.237200731351123	1.0666676732789078	1.7870855286301326	1.4928233585814472	2.271275753008866	3.855449428361019	4.588959205485525	4.592843997803597	3.305879107711807	3.84529994947429	5.825713619782454	7.717152099198925	8.566991784400699	7.076816540970646	6.140861018889127	6.787110788375667	8.954368568700986	11.412795991693272	10.964177103970945	8.17132184826588	9.074373222328667	11.18981167829141	6.235674365512539	5.820400223342012	8.379281022850696
424	-1.8608766747222092	-1.981326694254528	-1.6031926829869345	0.058280609400947495	0.935748395941448	0.2790025763620077	0.5730792269542981	0.6941958648321017	0.9923098658303823	2.7087972095763497	1.9294466923637228	2.4776294168860664	1.5284024438416552	1.8360385848419873	4.108857144472324	5.522756562594466	5.344465242243827	3.159501306186234	3.4176781091232673	5.9614777414489595	8.550968148576896	9.233863807253142	7.1147656261104295	5.8950357288298445	6.917376023947658	9.555090880111555	11.983276336932636	10.971728297189186	8.351641633882393	9.44530293940974	11.668819398029298	6.414026721019274	6.094787105431234	8.717011429712853
428	-1.6422232347987922	-1.544623967085612	-1.21505260160758	-0.034720942290382174	1.5010188780080822	1.0490413877704314	1.2274641959671129	0.88125407473275	0.6584147794312599	3.173060170745507	2.8901817725644428	3.323001614763914	1.8767124367061536	1.2512017456889808	4.399768341400198	6.581247789933019	6.294316752754618	3.3987483892461334	2.8023438382921935	6.158216937729585	9.514789557276293	10.04568288174158	7.338280182430876	5.514577851677616	7.077401620162284	10.28409096982374	12.63152119308406	10.97193429084101	8.514876344163625	9.861373876469612	12.196332900725775	6.568263990985087	6.372871859672984	9.032604194724163
432	-1.591242666995377	-1.0927348109312953	-0.7713870386675167	-0.2314580971119288	1.985299939865224	1.7835193827422247	1.9467924784145945	1.3922589982167566	0.33491477285704296	3.607906094025068	3.8491773508164293	4.269436348626227	2.517341368995276	0.6715671999188357	4.739815223171056	7.670455436413991	7.413892250416243	4.098147858763279	2.154244655892232	6.443943484249406	10.539527866456657	10.99960133636442	7.839387873884206	5.084399687327919	7.290922146509184	11.106222124669445	13.375687565411765	11.155153246372079	8.68063066198244	10.324493382136286	12.785215345528052	6.709712965237338	6.654271108993037	9.352125144234833
436	-1.6069871146637558	-0.7123302799360055	-0.3709899773767864	-0.4104441692003156	2.3696761071458052	2.3859467446169327	2.6075999670950316	2.086021418073146	0.11361528904363145	3.9867620367483583	4.670745360979718	5.184603201174051	3.315636388036904	0.25812986427939133	5.11796997685498	8.65164182385983	8.585780122060783	5.178898321427712	1.6680039125291124	6.817834360075441	11.507658929381012	12.02942654433565	8.624194123428639	4.757788646129828	7.571759681658291	11.935557335283095	14.200428926854883	11.66018578446467	8.874845482353912	10.816920253146444	13.432655300558462	6.864196283176162	6.948926908114826	9.721633886588046
440	-1.6095099408521496	-0.5216872678936817	-0.14552074634051168	-0.4658652234236416	2.630367987667431	2.747325890280466	3.0445339602850923	2.734153979074098	0.051349695642287085	4.276411045721654	5.2178649770605325	5.890172943502766	4.080031384657407	0.11982311278131513	5.495544419718835	9.3752383949089	9.623553251764875	6.421404345512366	1.4949457607672507	7.236832123604976	12.276071517467813	13.001934972361259	9.58335587942984	4.677651393524538	7.898324469652153	12.645821539422467	15.02768131276676	12.484726874301849	9.094113326954123	11.279432268275102	14.080420458529945	7.034974557281121	7.24436519701125	10.148574803478875
444	-1.5775561292873173	-0.607148109333645	-0.19138733994323842	-0.35111263305708357	2.7508284976172037	2.793805353740387	3.1251861970199415	3.1333644310996354	0.16313138562977408	4.45622681446322	5.411056028055926	6.23698042248556	4.6420664670091565	0.27820643712375287	5.826312527251645	9.740718816959783	10.340911839126083	7.538472633402489	1.6742944675135354	7.630384902762718	12.727028814608063	13.758537257743502	10.523272487774552	4.886517989219125	8.21152780366974	13.112054791724345	15.728606184349145	13.466340984677515	9.289785361677383	11.618535966149414	14.61227699405237	7.183942299824936	7.4913358499216445	10.570411655441182
448	-1.533499833049977	-0.9542040204752353	-0.5026666509334949	-0.08520766326133847	2.7521736552370983	2.54219030692082	2.831283323769055	3.2022464194511158	0.43345141301391676	4.547337520562533	5.280630575199184	6.184647067667738	4.920493113492476	0.6725527627177085	6.091476425050188	9.751874899084937	10.635260555118764	8.278147676548416	2.1191177314661482	7.939143637639916	12.823375669528385	14.181417429405323	11.239984483950868	5.28635643578043	8.44281862034653	13.264725651629416	16.172986943420064	14.3437966938269	9.385805106308004	11.743353814039846	14.89614959770578	7.245732289140366	7.619481067493616	10.872595759597674
452	-1.4896845779954997	-1.4173154795148841	-0.9464076137490087	0.27925440598554796	2.718222611240175	2.127510303847913	2.299792283927469	3.0151400489976106	0.8369873740998838	4.6304821851170175	4.9797391765753165	5.841918453725915	4.942940699495372	1.2009441822248654	6.327993376967688	9.534974074132071	10.543117496574547	8.5166187071353	2.6663749150667564	8.156619051366965	12.638284651318937	14.250509226105883	11.60292431762926	5.6807412957771355	8.558449723570215	13.128110852474823	16.291418034429647	14.871186218862556	9.32213399440821	11.613697976354501	14.850483856854277	7.166506272342102	7.574308376262452	10.946314784069754
456	-1.4012910092260573	-1.7567981437197235	-1.3016546931781763	0.7018344980640062	2.7883005071814093	1.7752665236474605	1.791520829445961	2.755976193145589	1.3554301227680534	4.832479464727873	4.740253436518339	5.438333497622067	4.818835246317497	1.7739747717891496	6.628132326557811	9.3011569741975	10.233714077861086	8.302386262913002	3.163805715202466	8.346219995407312	12.337727515542127	14.05795856741234	11.606016129755243	5.880699619704663	8.591387727027092	12.81963917356614	16.114280659998947	14.927474937897687	9.098454452431442	11.272074670942603	14.496787988301472	6.9437098327800975	7.353970032244778	10.752790423901619
460	-1.1669470042330023	-1.7357543663070336	-1.3497781719461417	1.1810605496151547	3.108471385737069	1.7195785002208595	1.5916420181143638	2.6241800718810517	1.9789956758125373	5.277923570658899	4.7828488229159225	5.232068525456068	4.685484397502565	2.3511335790401544	7.1022739231085215	9.261977172355502	9.93619916314593	7.831146697299788	3.5451936632294223	8.617419221101995	12.115781753468209	13.766958201936108	11.359854669500276	5.814492687803948	8.636794068465187	12.504706351180117	15.761661489746645	14.565648042143732	8.790337540367567	10.837596865948244	13.963664973290056	6.640384180469749	7.020666581548203	10.35364529856659
464	-0.6830003840368508	-1.232315537202423	-0.9741370057306955	1.7434076026768712	3.7587664032450125	2.100173468055726	1.8843650770295448	2.743447296845434	2.6922833851551524	6.024628147173309	5.2189431058725075	5.394019590110657	4.654499519040755	2.9407818243165726	7.81846902780665	9.533350920449646	9.832240079851273	7.361450176726625	3.851049890331965	9.067129112239536	12.10816857141956	13.532004322219251	11.030167551802382	5.574013695948941	8.80577466648826	12.324386565563602	15.384771308203085	13.976267779349547	8.521944978178981	10.458564731895443	13.43273350185221	6.360563738976521	6.675431234672035	9.88477609046082
468	0.0779952106890826	-0.31105008642819026	-0.2208452368167251	2.4006800590938946	4.691733348445039	2.8864743636687735	2.6596620015705215	3.114066831355877	3.454280129294528	7.013846379691643	5.989978775159961	5.922054275819734	4.774536597595112	3.5667159467291607	8.747946717110334	10.072866414387793	9.964712117785856	7.102702122875506	4.184201706812615	9.714439367563243	12.32401653992977	13.419342007135043	10.752707454236301	5.365844713015044	9.158418632272724	12.330013244016193	15.087770423943175	13.384436573568387	8.40605447554189	10.245599720836449	13.05238529724609	6.19753549918427	6.409410937339522	9.487821555025045
472	1.010990140269761	0.7853659967621061	0.7103481274790043	3.1038625161960933	5.7187933777428315	3.8691875836913234	3.6985740568241074	3.6232058910445453	4.186726082721769	8.064518908166878	6.8758320634812575	6.628784162951429	5.018321024622438	4.224296559158895	9.74766347331432	10.683991405215457	10.210020039529795	7.125780087599955	4.629209506744987	10.465968105595014	12.631829229887481	13.370822872736058	10.5720615120044	5.393038736078711	9.654471373024705	12.45836445523999	14.874031983015527	12.937600103138923	8.484189012087782	10.220290158217244	12.866563764512119	6.185138686776604	6.25943849890591	9.23843095354288
476	1.8838345956923832	1.7235974029893384	1.5396836957205216	3.7285959626473573	6.558570845257607	4.72596930264327	4.645203578665055	4.095727433354351	4.782220828380154	8.919263817202703	7.5688419150946125	7.208440762440085	5.292779909122367	4.852793204453198	10.591731044730619	11.086125345850556	10.32712075487135	7.332414131725471	5.181291567118691	11.131625147371423	12.807199445814344	13.22807690141677	10.428526852027435	5.731266484095617	10.148851369029934	12.557335821872435	14.643706284744503	12.639826742684674	8.696022011736062	10.302796337818506	12.794172254685124	6.275844558129625	6.189546569455905	9.108256317030719
480	2.415174716573779	2.2086555902030995	2.01233982531789	4.113117207632955	6.934860688820506	5.138124929807023	5.138641821285209	4.359440792521302	5.135966287997287	9.32946107416266	7.786118487727195	7.357443790933518	5.469023213883694	5.345672117088192	11.044774981269898	11.024358721555819	10.06490895591179	7.49970434202698	5.729977116423091	11.490221948223866	12.625728575300833	12.808984724130148	10.196845028881906	6.272971614258704	10.441441509587602	12.452494589837329	14.247246706277695	12.365331618560813	8.898287750666308	10.347110722167072	12.672564474535612	6.36076877895403	6.110934718915855	8.983304001062013
484	2.3940398632641022	2.0981001800970933	1.9893627116521466	4.132542122897633	6.684887869169644	4.911615359303465	4.950693117993866	4.298510540599941	5.187613474146187	9.146453834329298	7.3763193897933315	6.898497087227745	5.423298822061882	5.5949096538429615	10.948829623235769	10.374610874685532	9.281865096499626	7.382556896644039	6.108406051472288	11.37838551509558	11.962906807259943	12.00308319876007	9.758301710286974	6.776097280560456	10.361942265098376	12.026132553255097	13.57068821341797	11.943261116391575	8.927898384441646	10.209393475505498	12.34461876613508	6.323212607631614	5.93137644223907	8.730339981925296
488	1.7790410473729772	1.4487059079787217	1.4874782524700643	3.7690970802514006	5.828611836022695	4.05090998580515	4.071177472326245	3.8820001980998926	4.9508328312808665	8.379344919029734	6.376895411603744	5.853656277182608	5.080878244923481	5.543962464640535	10.28544995572119	9.198092437409374	8.020550707594294	6.826691133429545	6.178909286157566	10.760166141046083	10.854732486022169	10.837271663007172	9.062831855780658	6.989559155937044	9.847580884866252	11.271364183578674	12.606110540987572	11.26337525385031	8.677638031985113	9.815138792052652	11.742340058244066	6.095784171926519	5.6059603549564185	8.273255327317605
492	0.7288922649100597	0.4830169665539369	0.6598166210681929	3.1366982380827957	4.568233478456554	2.7590911318736864	2.7110006740788433	3.170559159857046	4.515602577252764	7.196300011585728	5.003065573458562	4.440962303393361	4.450946319786611	5.221749769378605	9.187880492855077	7.724962691830573	6.506883127950362	5.846822723885652	5.907753452644171	9.746141409109178	9.493410086505076	9.483206725019606	8.158654192353039	6.785514337574034	8.975908256756956	10.299095127805877	11.47296711886069	10.349081966974108	8.147715547971476	9.194416976603224	10.925562830997148	5.69297789090005	5.16289375909019	7.639315109038999
496	-0.4527307439340979	-0.5054411875361395	-0.26839148930498163	2.4389696059637758	3.2154545702814157	1.3643957342032422	1.2237770526506164	2.303471321012297	4.0161681073833435	5.86757610746973	3.573207130947391	2.996828071657369	3.6368465331762434	4.7365169405560925	7.897132853596813	6.2735390504755335	5.072209822246392	4.634223926287991	5.386436448802899	8.552396752699266	8.158565500641837	8.200539568223851	7.177526455877511	6.223335727238027	7.934986571305196	9.295316672698574	10.377618763471883	9.358695960258283	7.446495991026065	8.468712785320216	10.056564305664303	5.202313886859317	4.690669524747774	6.950796109770263
500	-1.436756249615032	-1.2646197048683605	-1.078490016121679	1.8789291334397538	2.076737875463528	0.20380771108669232	-0.02051156754083412	1.467396255603042	3.5791194348570246	4.673176753643258	2.4005291401337043	1.857154841502541	2.8099358010873567	4.23147677306899	6.680119020762494	5.138448702236625	4.031751622511235	3.486788740891529	4.7878107903716565	7.4188508800118775	7.113521557967819	7.240732174712073	6.284446700441891	5.511350140961888	6.945847016917768	8.449062326080277	9.529713606616056	8.512763001883805	6.741650564338832	7.797392348630127	9.324602103532838	4.741888987966846	4.295613278034014	6.367408259528087
504	-1.9973944375153523	-1.6651961761394116	-1.6214022595477102	1.5652201136171688	1.3460487093319613	-0.4900056409385291	-0.7597410063635461	0.8467440583785342	3.2750060475633136	3.8124446772641507	1.6924587445443964	1.2455606429123907	2.1513764803928814	3.8228151701731488	5.742720112606738	4.492947567086573	3.5725037961408175	2.6920988491753937	4.279708374662304	6.523336870889777	6.5110101535441895	6.75476835452788	5.621445641629968	4.88848112779449	6.172969325692827	7.882386664516611	9.05751130678286	7.991354922145546	6.183679088239029	7.308655243540827	8.86184880880274	4.404250133838834	4.050204266812791	6.010186180199273
508	-2.0898289627717848	-1.7223939852143615	-1.847355957135496	1.4698399268233737	1.0513734790960254	-0.655862270129843	-0.9159776545286568	0.5644130692537049	3.0991127412752237	3.3513078604962807	1.4943256340445732	1.2099944322554215	1.784850950503145	3.5519261270490943	5.17180203085725	4.343459595204473	3.6963822748319606	2.416361087420393	3.9430982967005175	5.928559288315518	6.348357661431654	6.745099527495407	5.266708837563434	4.493852127173401	5.665682301521943	7.612435321661796	8.96262452723727	7.853475550850591	5.840270027674169	7.047703725187215	8.691891648282134	4.214696873514186	3.958721627731019	5.906422600138986
512	-1.846279735672149	-1.5613878925956552	-1.8014861299807985	1.4607955180479908	1.0727199288941205	-0.40440463917673036	-0.600932238968937	0.6344503148273051	2.988597147071827	3.222732535808695	1.6941925244472456	1.626313563055513	1.7307226614170885	3.3751394663473664	4.924664008104749	4.549800861315592	4.237736691266075	2.645370476719519	3.739115228749339	5.580719933724978	6.487668497871921	7.078950387248218	5.217620359598992	4.299296368234676	5.355755315610097	7.558499793996456	9.131908393692195	8.014264086516416	5.6735410547064475	6.964869481621938	8.732789017563643	4.1253862276825455	3.958507527847526	5.983581527861659
516	-1.4956064186482732	-1.346394416270786	-1.591484661852554	1.3892698252888176	1.2199331491187564	0.04626851517201303	-0.05103646950949293	0.9546220874526344	2.8645336555637684	3.2766013062720547	2.0858476109294197	2.2648446502724173	1.9089320849860127	3.194449655097021	4.866509902111437	4.90017508223274	4.945057856472449	3.2019936957579063	3.5407061487449023	5.354797349761686	6.729364854988747	7.555095653532639	5.402772412964535	4.139973629989466	5.106957899551239	7.587930183326448	9.39850518714752	8.29217050366145	5.56668518568302	6.945820790874133	8.84778592736852	4.0425362484910865	3.9522418876045564	6.110911353895163
520	-1.249666687671311	-1.2063591449797486	-1.3401066031000155	1.1827821701705004	1.3310536112558067	0.4715909349932768	0.47954764841122205	1.3495081629059908	2.677180998718673	3.35462903129478	2.463221305350178	2.8901228831755534	2.1888844911624408	2.9125459120648634	4.837466704552928	5.2075147497307075	5.588548646168591	3.8315031431736744	3.209101668838715	5.121987329902698	6.904785138817093	7.992514590111368	5.713995442269105	3.8212623499713807	4.790108668631236	7.579801540311083	9.620671247987971	8.498882272243558	5.387467370736331	6.86944196874031	8.915056206129343	3.8746478459761216	3.8562886617573375	6.166230662990114
524	-1.2116161554263758	-1.1880640953585808	-1.1397676439119142	0.8869586564558656	1.3415224518284354	0.7328942995641096	0.822180269072876	1.6510622459687976	2.4269733367679893	3.3544554625696326	2.7043199470907053	3.35056900132151	2.4588384566216197	2.481715434484393	4.717893111715174	5.383268342731796	6.044275745390306	4.311561096749853	2.671523087432299	4.805623996045677	6.944155198684735	8.298241594344365	6.040808185584607	3.237113229208056	4.344589222429404	7.476108532150031	9.737089132520705	8.520904519502409	5.054113375301114	6.663774473532032	8.878058411117772	3.575561991247232	3.6382806209259186	6.090118392827054
528	-1.344449397507386	-1.2494888274117502	-1.0228060458109125	0.6326771958590035	1.295130607196113	0.8235807398029827	0.9518523192215598	1.779879923141428	2.153629535959703	3.2589321054194484	2.810534470137969	3.623163452537572	2.679563038736463	1.9248235177080368	4.4685559159945925	5.459250436350995	6.321174128785443	4.537328231799963	1.960614080247374	4.4050722010975	6.892511350395933	8.486450173886272	6.2980117638842055	2.4338810382428586	3.800343265475246	7.3005409056401716	9.775179838296118	8.354394891626907	4.57272146977823	6.335822089411302	8.754809357473867	3.1630630413304397	3.326972953025982	5.9013018459099715
532	-1.51181363677752	-1.2931896415485475	-0.9580386256825338	0.5486240969157912	1.2964984145809653	0.8512104132142121	0.977807936583854	1.7821743443316191	1.9032075357069478	3.123348705035445	2.8865449355680095	3.7985486888348796	2.88990568385054	1.321816083431839	4.134404648832872	5.5526323178290955	6.525925142977969	4.546360958064999	1.1991167038206658	3.985278834771512	6.872321588331429	8.646400429830093	6.4417166547262195	1.588505502504912	3.2583544172037437	7.141796570866402	9.816227888119238	8.085780123323161	4.034710397070415	5.967131599619499	8.611800172043916	2.7109756401281007	2.9960589333231296	5.673987374285399
