time	FP1	FPZ	FP2	F7	F3	FZ	F4	F8	FT7	FC3	FCZ	FC4	FT8	T7	C3	CZ	C4	T8	TP7	CP3	CPZ	CP4	TP8	P7	P3	PZ	P4	P8	PO3	POZ	PO4	O1	OZ	O2
-200	1.5504448374703907	2.074705833918976	2.1210272258613516	0.7638457994249294	0.8695663787821866	1.7507494643831882	2.3116149843981084	1.619393106186694	0.581349132977425	0.8443759062429421	1.4192736113001014	2.4174494682312435	1.3429768051572832	0.8141626099058018	0.7995336631615778	1.2983680930735593	2.4746324953543266	1.4978680572839205	0.8429378249820771	0.3448383501406431	0.9600775813658625	2.3311543405804653	2.1166019386258204	0.24830000039830266	-0.124036416098238	0.4703679966971853	1.8131173803329022	2.3538684785541237	-0.711918948283449	-0.37772366309167327	0.5869353994809602	-0.665475843656749	0.12942017582166007	0.5970799311821848
-196	1.1256067724419296	1.4596810304027945	1.594858999994059	1.0437834236494903	0.9633100008485157	1.364847060572342	1.7276667312871696	1.2261751859224548	0.8794343449323517	1.1162135572862018	1.1390979261249088	1.9243271302276006	0.8711929895340002	0.9462913846919901	1.2259856431525475	1.3048392501311956	2.200825447248015	1.072232839738246	0.8279591777878389	0.808057127342939	1.2324469058391763	2.2333497944711973	1.506046648991482	0.07359370570675662	0.2761774950207212	0.7302954178491745	1.8187400056696585	1.8889385414116138	-0.5670374021518948	-0.3065918676265037	0.6032373889951604	-0.672732411116608	0.0635230241602222	0.4882502841543257
-192	0.793052075291132	0.9643118953200157	1.1074413033181763	1.1250339718070843	1.033432719482508	1.0050650809661776	1.2338423697791345	0.881426332155716	1.0684630843842993	1.263489004759826	0.8564964511227716	1.444080945183697	0.4314502168729579	0.9349663233993246	1.456567522186168	1.231876966227273	1.8364773942357158	0.45031157022270696	0.678865013792775	1.158077475484949	1.4291739427722978	1.9453068922519634	0.6539133174598979	-0.16326601762082057	0.6959407908034958	1.0496630642138691	1.6261223513555563	1.0874799462518747	-0.2819941036734093	-0.11824837297148635	0.5468332157633913	-0.6148325189326215	-0.04169247661435446	0.2674099200172987
-188	0.6804531795488056	0.7476541977125744	0.8312662222855624	1.0058350537654424	1.1222237320223094	0.8518378713081785	1.0268177960220362	0.6684099418930546	1.1090787621153115	1.3460271324506072	0.7650542239900546	1.2354643313686675	0.11737310856749196	0.8325195887527349	1.5611091812773892	1.2796194521067958	1.6849687056915417	-0.14757665954523616	0.5129402266903325	1.4592077695244727	1.6876014428446235	1.7636936858470893	-0.11577581585025322	-0.2822677783992045	1.2010308473781501	1.5064564905279227	1.4745604954683769	0.21126002019949935	0.23997206925363346	0.26815727285392804	0.5501002655445715	-0.3792897751291926	-0.08176645615914487	0.041032776132936315
-184	0.7643546442760921	0.7987425903181161	0.8019214252252514	0.7358540277976037	1.215106484206321	0.9587898826233862	1.142223832107617	0.5929026588729377	0.9750032400310292	1.4020794594651556	0.9477058625135838	1.4108668530129158	-0.01925147878733505	0.6774189455095302	1.6077786643443746	1.567441578722339	1.932961339838675	-0.4789290118046602	0.4080567349621874	1.740689273254108	2.09036206671331	1.9224264573198018	-0.5101839887135877	-0.19488333116442288	1.7766151383367437	2.11477302971015	1.588578458589933	-0.43841156252798963	0.9946488712947528	0.8714361764840698	0.7511575203050477	0.08019254336376025	0.030671162453342598	-0.06165157615474093
-180	0.9011128522056522	0.9807407235179778	0.9299881434802527	0.3998443474211236	1.2571225134581507	1.244452234940946	1.4688662253487812	0.6138145312070727	0.6762651187988813	1.4344624244712871	1.3467056717250172	1.900188322038118	0.03930723657220652	0.49434122318389995	1.6356626707742183	2.0735731072525243	2.562149518219915	-0.38263729118061646	0.3871183385611944	1.9871520945922982	2.6186428003953983	2.4775087770853457	-0.396229683352491	0.07444994877853509	2.334040159054625	2.8104500699611803	2.0682513661618342	-0.6450485570834146	1.8756672096580111	1.6369999605810226	1.2277893989081865	0.7253468614384811	0.33703225765966494	0.06414569153087683
-176	0.9268658137762218	1.1347134084663009	1.0759193870082961	0.09411992108900731	1.2000156610708987	1.5538783034193637	1.8307936145335741	0.6861935836633407	0.27992385555165256	1.4264515602337	1.80529641649309	2.4998710092371383	0.2805826954910139	0.31399494330285055	1.6541377264221535	2.647628539076489	3.358778706653566	0.14904414079706246	0.4399667967178649	2.16113662174092	3.1574413696679975	3.2771971142997254	0.15227322241961658	0.4354361582729591	2.763782494242823	3.4731128128102124	2.8341391015023234	-0.36474490073621213	2.725570194992376	2.455649846552766	1.9495429943454552	1.4556715451681663	0.8226657489033459	0.4552324998806167
-172	0.7601186017872449	1.1698040932684524	1.1324609489459256	-0.1028531116630618	1.0419700119414221	1.743754501708588	2.078668589112218	0.783337591100876	-0.09583808457496477	1.366175648101031	2.1485795920485025	2.9702095910422015	0.6539791209875638	0.18707162094568883	1.6554924207851882	3.082419626082995	4.008046616925332	0.9550672149386932	0.5563203082344033	2.233429903113573	3.5444850832141213	4.025351514189992	0.8979963041521498	0.8067467788355052	2.995069496222356	3.9689412016798262	3.6489074138068034	0.2558764808870245	3.403558722485942	3.198089591534975	2.7690319945042274	2.1516823714290965	1.4220980369902971	1.056869742586177
-168	0.44363975412894074	1.0874788733682714	1.0650086376004184	-0.15798151453186013	0.829613683513337	1.7404725507662517	2.1394696181640325	0.8894951321078783	-0.323017566580623	1.2565455404981818	2.2565867843875047	3.1286194245503363	1.0618141862763912	0.1712956424203033	1.6227636296309431	3.2036259093463144	4.222590435811152	1.7551178887877474	0.7383862119152035	2.195494407832764	3.6345689204958367	4.40167950472545	1.5375710686964363	1.1636204690164864	3.0220184249873245	4.190738190560761	4.202177037120015	0.9325171089470428	3.8299908541302514	3.7467017079171967	3.458073368878457	2.7132718494576307	2.0333511778039037	1.7296524004182037
-164	0.10436972204322015	0.9367474889946507	0.8951027966788339	-0.09652288978764087	0.621659456114024	1.5461831053797102	2.0084035345868614	0.9754739379096321	-0.32374799169817886	1.1044999333152266	2.0966122097486775	2.901050321883926	1.3672749961664927	0.29599273130072484	1.527652140575117	2.9349255487728865	3.850385417753687	2.2500860634261346	0.9853062604823115	2.0478568025383987	3.350641480569374	4.186410893360993	1.8152894927923229	1.5306925734974333	2.883409969679318	4.080789078899879	4.225302208723007	1.3500951494462567	3.987267722553356	4.013996590970369	3.7794105911201368	3.0750617903319184	2.5362942154745243	2.2863151969406217
-160	-0.13802541757544662	0.7436003666223454	0.6517329795595189	0.006460007263801362	0.4428443003440991	1.204413768588481	1.705860014423281	0.9844982003151317	-0.11589816928450698	0.9023839212522782	1.7103879408568565	2.3202805460522553	1.43154286976827	0.5284881578453832	1.3266168799285074	2.314612144348427	2.9185359404310875	2.229657644364552	1.2651274172312754	1.7786356165802386	2.704140656319674	3.3358497535406797	1.6041485030681395	1.930868859184473	2.615476363254345	3.634631147744825	3.5887985138883733	1.2810766664585855	3.887096872052479	3.948672761484417	3.5685048013236433	3.1997330107965727	2.814897053287355	2.5487244064831804
-156	-0.25186461146661154	0.47249698519621997	0.33385977064718214	0.057029362623949496	0.2629354887522741	0.7598072271237244	1.2424908845049187	0.8501725175373587	0.18588563752926482	0.6207438691679409	1.1771149605595645	1.4903763495010165	1.1736541956833535	0.7684273104340226	0.9668838953402249	1.466519709699188	1.606694575067937	1.65107297480483	1.4987060985873466	1.3529913391285808	1.7833082630909631	1.9854289243161922	0.9313681102126085	2.328189843975401	2.2130229417240557	2.892540685980118	2.3467831552382723	0.6705741269347402	3.533972969669495	3.5363855272653324	2.7946607996000434	3.0649518889292207	2.783873789434407	2.407575362802682
-152	-0.30819132846269065	0.05335502685546675	-0.08350402840750831	-0.01202877328488114	0.02127327205830206	0.2455277585744761	0.6231682880880588	0.5389104471905599	0.42167037618987074	0.22741705121797193	0.5832108244476392	0.5475173578743959	0.6213425382185533	0.8847005344942511	0.4129943837229144	0.551785527266696	0.1760708387221051	0.65719199014678	1.5780678947660667	0.7318937163947913	0.7252655010985681	0.39390891690937574	-0.041632484539539494	2.61063694294796	1.631261225396537	1.931645269285357	0.7202554922992666	-0.33702629719520244	2.9159855768968774	2.8044769693140297	1.58044302064508	2.66144990249069	2.417140477753508	1.8644047928468466
-148	-0.4233371604721615	-0.5452531562390297	-0.606136856932939	-0.2034557009566988	-0.317934273870755	-0.29816523119033567	-0.11704850167286474	0.08739155508865319	0.4663185465483363	-0.27539867093172987	0.012766811033142705	-0.3667305996695685	-0.08211503902207246	0.7810976485558722	-0.31569957653447817	-0.27434191038485267	-1.113235351612874	-0.47460889696456954	1.4168533051004626	-0.0863202808108098	-0.31477931062379194	-1.1430474490870441	-1.0733541223129295	2.631292813333431	0.8303914645210473	0.8606691338743826	-0.9726262068033881	-1.4447448217155292	2.031072134612026	1.8287306977831064	0.1687931414157267	2.0078635165065597	1.7675610736089316	1.0383256647597663
-144	-0.6692988855629903	-1.2514630524510162	-1.17576181591729	-0.4489530611624162	-0.7187298518154475	-0.7984143475401668	-0.8797262884817244	-0.39613440532805805	0.29326003715860693	-0.8229594805920574	-0.44940382128739204	-1.1211115093536086	-0.73079269939928	0.4530307937151397	-1.1225469084054656	-0.8900051094472891	-2.0685779996143787	-1.434011932567212	1.0036443446568986	-1.0305510733334724	-1.1923272579607325	-2.377189153391485	-1.915395493439848	2.2849016131886977	-0.16911420183399875	-0.19110658716589396	-2.4149303375308167	-2.3139414728871075	0.9246718264122237	0.7287504654604969	-1.1549296349930185	1.1659334868558004	0.9593272780993243	0.12693986264604512
-140	-1.0089623902596216	-1.884470100413374	-1.6607527690919144	-0.6367605312483218	-1.0671924325701856	-1.1443867654517657	-1.5041904411485734	-0.7712331394750952	-0.013913151772955726	-1.2899776664590008	-0.7162425499952503	-1.6049588878164596	-1.1418421239634393	0.0010701982510264586	-1.8439532471831497	-1.2162408798028221	-2.5941104823421024	-1.984016771075739	0.4251959909194338	-1.9522308061901705	-1.7947040750967984	-3.1590573707930676	-2.3791329800619923	1.5758212765008648	-1.2564545838104841	-1.0923322411614989	-3.378609648757428	-2.69299411093766	-0.2892247729151786	-0.35147839695882427	-2.153047079372428	0.24214371977705834	0.15173722765282716	-0.6634522659717336
-136	-1.2993837562179675	-2.2216546479400554	-1.8991030406687877	-0.6650913340942738	-1.2173597781917207	-1.2191581695293434	-1.8173280908477838	-0.9302649474498907	-0.3096371881296792	-1.5318261346289097	-0.7144945245823358	-1.7454239085952423	-1.2336286275235098	-0.41150361195620094	-2.2986953200477926	-1.2202103107162623	-2.6886899403400064	-2.0341575094363895	-0.15992984135303664	-2.664466374345867	-2.058414930868676	-3.452178469525054	-2.386842960053513	0.6357684119385403	-2.251550430335279	-1.738102908514544	-3.7769765758522342	-2.5156776841545057	-1.4462052547181286	-1.278576847663017	-2.7056007316944055	-0.6351884587463399	-0.515960274824187	-1.1913207739315963
-132	-1.3644889558674356	-2.104773754527876	-1.7728838875832247	-0.4925251888714684	-1.0645482513253355	-0.9543861722692091	-1.707479591827029	-0.8450203516606266	-0.4633720505459489	-1.4460707866398548	-0.41417971148824756	-1.5275822839316167	-1.0501633856008505	-0.6345083101465252	-2.356111997377805	-0.9172970629420737	-2.422282212817431	-1.6564918714662586	-0.585834382485449	-3.008594982180639	-1.9797993848406594	-3.315292350028129	-1.9927647063487577	-0.3182594470095062	-2.967958442824008	-2.0770578331958744	-3.66701196698375	-1.9246929835363082	-2.3820464550912575	-1.9653387020082116	-2.831706516745892	-1.3543536628861277	-0.9735007857539693	-1.4250600302002872
-128	-1.0916634770488074	-1.5234911403338525	-1.2712238994927998	-0.15826541145420853	-0.6022196396881903	-0.37448263073787186	-1.180796858667334	-0.5687091336196894	-0.42258098614812767	-1.0212374899829635	0.14678922258509658	-1.0048421595952806	-0.7171518784536478	-0.6001165494072451	-1.9899600694005775	-0.370341151017722	-1.9018732261323748	-1.0352408859818492	-0.7492699008144216	-2.915016166956698	-1.6137781102444495	-2.863996498506409	-1.3608454431508044	-1.0647038194478065	-3.283461800868381	-2.122795338039505	-3.203797332304256	-1.204168435871205	-2.9882166310205416	-2.3887159764062056	-2.654697411510424	-1.8538980437202364	-1.236040589072901	-1.438003178780585
-124	-0.496334044872289	-0.6264048798958357	-0.5034758435889226	0.23946908055880506	0.0717643497562514	0.39973190325903873	-0.36700183060493413	-0.19665731440007156	-0.22637847008770529	-0.34462499531520824	0.8620379545381935	-0.29023551867640546	-0.361554353516408	-0.3463897100286178	-1.2884354558839761	0.3193946174663875	-1.2404721944007626	-0.3807718744201132	-0.6465333683856656	-2.4260687766811615	-1.0580583784092867	-2.2294301930406633	-0.7045143228863419	-1.455312963626103	-3.180366508083628	-1.9424735258650738	-2.5704021388961005	-0.6496579630661922	-3.242201081673238	-2.581728451886303	-2.331617111041333	-2.1335751956477864	-1.3799040282696173	-1.3582550252954062
-120	0.27885737944770145	0.34280761989827263	0.3428874603197477	0.5944908246289683	0.7998332957101072	1.1925257414273334	0.5297200070358461	0.18986014973865914	0.0334358512511081	0.4335640657922578	1.5853098590879926	0.47237986206953203	-0.043045546750823234	0.01395235020869975	-0.416648148438421	1.0318369839366102	-0.537289916112498	0.14815764091755626	-0.36146351603799964	-1.6712306695705261	-0.42564985048593007	-1.5269517860007744	-0.2093109185179427	-1.4561167918635145	-2.736106388813431	-1.6253061253520629	-1.9120050620442943	-0.4324865628290511	-3.194029084724548	-2.6008677416939383	-1.9791647145846933	-2.2329366150746575	-1.4870769940024495	-1.296519276206584
-116	1.0304332945556935	1.1493521899768877	1.0761989327915868	0.8428646900831224	1.4325274192881843	1.8381251050317267	1.3061515059872575	0.5524527416586272	0.27362623741684144	1.1581175298061368	2.175796264877126	1.1444177598669705	0.257173150128517	0.3563827863278506	0.4463591564353073	1.6535255867218557	0.12797373500938639	0.48473441478415885	-0.016432292717930938	-0.8122200349328316	0.18327034963589678	-0.841235337517656	0.032497167505232814	-1.139762398703187	-2.0767586178798574	-1.2483044831230534	-1.3002250161722035	-0.5267001973205699	-2.922243110908178	-2.489268296632682	-1.631407733613025	-2.1933066789564517	-1.5900834758667117	-1.2874364820400628
-112	1.5855083425545935	1.654978390329943	1.5677947958463863	0.9848086809089829	1.8819373798539725	2.236299032287237	1.8250533296283282	0.8841896630851711	0.4635307479122627	1.7196812586281929	2.540244334483106	1.6242785412787295	0.5874886497923685	0.6032910927799675	1.1659871310359629	2.1019034332613193	0.6942942721003774	0.6490651352707529	0.28650030421401895	0.01295106482216201	0.7011002880515167	-0.22385188880670026	0.050466760865587525	-0.6405908449212073	-1.3236248459776265	-0.8556950070711452	-0.7355918269658988	-0.7325579505544911	-2.489652865799802	-2.2572030964129266	-1.2459497420325019	-2.0282258936218978	-1.6495302873926483	-1.2751202551119296
-108	1.866272802409391	1.8452987624309123	1.7788730814844242	1.068231103107419	2.1330943053749527	2.3707747399555315	2.0416190572691133	1.1752728194127873	0.626390038339324	2.0740327782718713	2.6517538957402675	1.8640747023249138	0.9598875617587984	0.7460762243507747	1.6782700973100166	2.33916878109673	1.1178383798986766	0.7081653457881957	0.5010123836265753	0.7203049045496606	1.0982128354001917	0.3009721629173339	-0.029267333374040284	-0.10096341346045444	-0.5611088857789234	-0.4585062551843172	-0.1797231282226572	-0.7853642682274119	-1.923080916317783	-1.887217397693425	-0.7480078320691339	-1.719017024468493	-1.5761547048828966	-1.1476575107209126
-104	1.8980247926475233	1.7928357079063864	1.7415271953482447	1.1446969480223936	2.214074367655239	2.285431140851545	1.9852414081042022	1.3825417722128477	0.7997980097604893	2.2259893361157572	2.5381777222446713	1.8652327013606864	1.3106704917241392	0.8220843055950299	1.9777746150627515	2.3695111214894835	1.3709886039452028	0.72677480990976	0.6327450259445866	1.2753545013653056	1.372910853734356	0.7259737234860012	-0.05066272231066276	0.3652787795381174	0.1608393635265292	-0.05298542590472831	0.4014297117588568	-0.49292600030424855	-1.2290897338353233	-1.3617937530467867	-0.0883168873941325	-1.24135613128055	-1.287739631262625	-0.8027571419475372
-100	1.764620299652428	1.5898603160772362	1.5169262847748657	1.226235028985658	2.1535739844309125	2.041199678989533	1.7197952227087157	1.4331861698205786	0.9859326456926747	2.1979079191029154	2.2536137047136147	1.6644855695661935	1.5211714467743405	0.8668458439875721	2.0851411766813253	2.2257969323229077	1.4481202327406375	0.7415726166122062	0.7055013161966857	1.6676191049434141	1.5358688792552384	1.0545425388414422	0.09994100009004231	0.6830820423999869	0.8025658110382913	0.35641238003390685	1.0071005795801182	0.16794353681124333	-0.4315517235827541	-0.6960957628795206	0.7153136116087712	-0.6059979781109629	-0.7691456656110419	-0.21064096636042512
-96	1.5455188712200103	1.2964810100247348	1.1610914439450517	1.2717193332989218	1.9571164797007847	1.682860608620448	1.3109285798353651	1.2657893864144796	1.1311651439717803	2.007160420118564	1.8515366269094868	1.318724628933724	1.4859563074742121	0.8779164530523339	2.019680256512736	1.9535853813439161	1.37120830666529	0.7574344258258516	0.7260204535273872	1.8881907415401498	1.598681445853854	1.2962757316286466	0.4426514197140929	0.812775490616091	1.3154575791525438	0.7450739722514069	1.5943459232131278	1.0389736864561283	0.4002684642699521	0.046404328080081166	1.5715483387369948	0.1162745204612492	-0.09895665918638434	0.5578659162741717
-92	1.2755968538503504	0.9329152083684925	0.7183032017692225	1.210417982860126	1.6180542666591293	1.235081431131597	0.8174190500602387	0.8843410588825183	1.1494318217821067	1.667727346978053	1.3746917213064587	0.8952202774333896	1.1878716915657317	0.8134389499154108	1.7951874687647065	1.6012314517601967	1.1903065412986589	0.7633904795446397	0.6723239404869935	1.9277104090657993	1.5731464584686776	1.4646097384668277	0.898654458638098	0.7476384620863934	1.6468584495926926	1.0752896043331894	2.0948820061245055	1.8582837534717367	1.1568232745527518	0.7670304159825932	2.345319026747706	0.8049870113075995	0.5744270667832011	1.3512690033174997
-88	0.945167002675786	0.5084276186504257	0.23542417526410872	0.9875127052170362	1.1490355701046404	0.7211835962207209	0.29864251538216957	0.3828079392781775	0.9733240579826564	1.208795067596279	0.8603131749366827	0.46347778918551347	0.727001069140756	0.6235073789113299	1.4361809455851122	1.2161393134883813	0.9726788377045918	0.751809297094021	0.510249255799452	1.7927792027032818	1.477637168014625	1.5739999969797063	1.3312942948108022	0.5146684633612316	1.766214127849698	1.3157103028457533	2.443401568919505	2.3837213456052173	1.7260376171402818	1.3665953840084797	2.9059550688808202	1.3322437967996767	1.094335195639474	1.993872995110913
-84	0.5358234630407915	0.05747558534535326	-0.22342064920283908	0.6048119648922166	0.6076841339027568	0.18498703790689977	-0.17851704313983344	-0.08591259249215603	0.6020737275181485	0.6915574652377804	0.35009801299395615	0.08514031001291232	0.2752587192261506	0.29353776500023665	0.9964385007496155	0.8435116388958811	0.7821689228337155	0.7228338700164506	0.22675882222621796	1.5240148267415268	1.342135425993758	1.635480638189534	1.6063698489640204	0.17670024886818292	1.6920978980258372	1.45885383714469	2.6010243827000123	2.492706530953225	2.041800016970195	1.782334203988503	3.1698005119402604	1.6159552294940187	1.3628952468794548	2.3510460794218453
-80	0.06552603079226149	-0.3472799650007353	-0.5796635136274327	0.13365080918900762	0.09432574337747768	-0.30346652788791917	-0.546386419347283	-0.38195553325539683	0.11680798948122267	0.20672719128390354	-0.10616644445079323	-0.19777812013759824	-0.012228867008209514	-0.12881401148698596	0.5601596818132718	0.5239313827638094	0.6575095040886969	0.6784597022093256	-0.14295421504644681	1.19725370104827	1.2055406539997595	1.6532462793571434	1.6468547541047258	-0.17313793257869212	1.4971698484767844	1.5248846969251828	2.565283768852871	2.215672964224079	2.1136484092753673	2.007369751630487	3.121247522103128	1.6545275407980002	1.3783578837880472	2.3735485016977957
-76	-0.3918526460767835	-0.6186584814664493	-0.7657607774474382	-0.309671788625884	-0.28373241352925	-0.6675766689611984	-0.7582968454289293	-0.4481316197525181	-0.3510244181830387	-0.15281301698250088	-0.46045845630739435	-0.37316691781242173	-0.07503803055414612	-0.5432961569420602	0.21820577923996165	0.2862591140195443	0.599315522588131	0.6147246345258504	-0.5158981071798433	0.9000893212481533	1.1029088469316093	1.6236200291649137	1.4582298957247566	-0.4344615925310196	1.280517574892004	1.5474622210533606	2.3649127423659615	1.696991081721674	2.0167741724594044	2.0816581196680244	2.806551449365555	1.521607395145127	1.2237657277681377	2.1030764526675374
-72	-0.7257503848825917	-0.6967613083414023	-0.7556732873911196	-0.6102182253689845	-0.45860233787145255	-0.8555265047407906	-0.807424841272758	-0.3340031794221497	-0.6762942654701029	-0.328411429291309	-0.6822170597971903	-0.4569536734011277	0.03230762101003533	-0.8377640822239909	0.032172452577187205	0.14087212050157086	0.5771363959046261	0.5245422111619253	-0.7916365841905798	0.6958454829767405	1.0505375835598059	1.540742870255506	1.1190627785085614	-0.533859966837558	1.1210595341034957	1.5515629013942647	2.0474529214664203	1.1140435905939876	1.8480193568301713	2.0621585793882766	2.3102149905051585	1.3245557513173782	1.0174423430504067	1.6452747541850088
-68	-0.8350928404704812	-0.578752158611118	-0.5783367142380823	-0.6988645178316366	-0.432232170205792	-0.8630428888465694	-0.7277688365681695	-0.15806482692388457	-0.7904033640932905	-0.3210945419310897	-0.7701969127282913	-0.47951480625203374	0.1900265957087742	-0.9373132562814303	0.006367185602652801	0.07610394786455385	0.5498532638972459	0.4101336290018199	-0.8971194006204283	0.595497845099906	1.036001560456552	1.4033012354706769	0.7438077907856401	-0.45651027444976305	1.0383342478285924	1.535368557868257	1.6648096996236639	0.6022728666358403	1.67281913334978	1.9883089015351785	1.725004072602486	1.1480674714666426	0.8514673092325454	1.1237515182733349
-64	-0.6782991869013508	-0.3195697359122954	-0.3041178576420578	-0.57376539562322	-0.27339240839597795	-0.7346448283720983	-0.5755239710582332	-0.030973175462366692	-0.6993577462659076	-0.191418393963088	-0.7546760420819003	-0.46938437104926284	0.2949945323171916	-0.8345644452958815	0.0849275959374072	0.058242060097036336	0.4853024470474342	0.2935965947844814	-0.8203029611857701	0.5541408644036937	1.0172003481932295	1.2151759832219535	0.4358988095245376	-0.2558761828638014	0.9838997696830977	1.4653317891318138	1.2588522402451656	0.219738602083458	1.4926440678104156	1.8601041985278706	1.1249238224238174	1.0133721802875506	0.749903378977495	0.6351282580552687
-60	-0.30050364060825985	-0.003928166804230759	-0.010918633053452026	-0.2965531341694882	-0.08429043718752814	-0.5433009253136303	-0.40128478306545134	0.008453000315543678	-0.4688935864054214	-0.03455578154541686	-0.6887662989392854	-0.4440082598443342	0.3191050581027997	-0.5896514043225831	0.17563404098513266	0.035673882722193684	0.36691743042814523	0.20832483417842945	-0.6166070684123941	0.4942617999949373	0.9316458082519159	0.9770812367565872	0.2467903935638877	-0.03524875631969685	0.8688069560050207	1.2872718540116086	0.8485110976730841	-0.0441641471164988	1.2507785527121438	1.6395443636507705	0.547623334932539	0.8739914275991394	0.6661078317037069	0.22180603388575623
-56	0.17736813381236613	0.29309302494436795	0.2497308247936846	0.032514929689331035	0.043996233382009864	-0.3605602672533539	-0.23059371055557845	0.005750017691787389	-0.18890751850594162	0.05754361659661201	-0.6326209886791222	-0.41176047817221195	0.31003001254007967	-0.3009558908493513	0.1901776934828983	-0.05167752491301434	0.1883801664126228	0.1800180967077447	-0.38356161020713714	0.3456579140042355	0.71507543144885	0.6779983622599289	0.1627446706954477	0.09494556462635147	0.6146787985541338	0.9501295661779662	0.4254624832855517	-0.23045250715246204	0.8747989513245176	1.2755715814810293	-0.00762566130545671	0.6506648643278407	0.5179790841376326	-0.12900547650668232
-52	0.5999529942623945	0.5283664451610591	0.4625815737489334	0.3067298821811326	0.060711398567459725	-0.23764775633416305	-0.07071264070300613	0.038003098123684506	0.06017702802723631	0.025435630167876925	-0.6413663609524219	-0.38842898509185136	0.3306182316539014	-0.06465945376522118	0.0772057695227675	-0.2623237662844888	-0.06210578962381472	0.19981543669319976	-0.21805430893680863	0.07774024437111901	0.3200138203170733	0.28999602721430257	0.11684226960246256	0.0640732271841741	0.19741852531657622	0.42865195762175257	-0.042799916010324006	-0.3783369650825412	0.3283672622496419	0.7364119868759375	-0.5693856463361822	0.28345179486235594	0.23757800399879075	-0.4651217448889129
-48	0.8300949314140385	0.684198318184522	0.6296470745402073	0.43901342042708963	-0.04288990784783674	-0.20524668641722674	0.06315031631738267	0.13670203055200106	0.2229870999189987	-0.14900508485367198	-0.7590640764145411	-0.41334962740487885	0.38495087526405436	0.05665757865310166	-0.1676825876770755	-0.6420014484409002	-0.4120321561424123	0.20855192787445034	-0.17768093898735762	-0.2924792163140207	-0.2705291502798091	-0.22518902960189302	0.017974479078568806	-0.13126285341023897	-0.3407103708725008	-0.26472222738187257	-0.599853096878003	-0.516868113166469	-0.35817375688721736	0.03294618419435336	-1.1737304896284733	-0.2279265070167421	-0.19035795282940518	-0.8378989079301324
-44	0.7937522510515407	0.7455984931241061	0.7396235447329719	0.3812389960200385	-0.2516792410218281	-0.28381606864798103	0.12538358537488892	0.24407671330340514	0.2695349746097881	-0.45128211265113427	-1.0140157912402101	-0.5473880157955598	0.39138889213927947	0.04585766780719415	-0.5142694102654678	-1.2092444866167509	-0.8937413073863119	0.11705168307077159	-0.2645334296700232	-0.7166097742107843	-1.0347218487364553	-0.8920114613900079	-0.20419362135831626	-0.43250992784974407	-0.9137527323540984	-1.0805150243181654	-1.2737187114982196	-0.6681012494385422	-1.093335029702668	-0.776027975507301	-1.8370597316137012	-0.8151538351459139	-0.7169243079204699	-1.270813223491334
-40	0.49897006028082536	0.6820065361923752	0.7482608537855666	0.13380129601552435	-0.5489351139514439	-0.4932183610861337	0.039881016958397866	0.23096485377649656	0.19130288016180494	-0.8510436990231962	-1.4134370052891416	-0.8503314235199286	0.22231994513171216	-0.07552919517759706	-0.9215840674020752	-1.9422651480274653	-1.5185419282720682	-0.14952313862242933	-0.43538576254592876	-1.142933365797232	-1.911634678782595	-1.6926393466176097	-0.5620033130761647	-0.7510933857074312	-1.4342955314663373	-1.943702812055818	-2.0484306760568476	-0.8497398474220265	-1.7619337991098944	-1.598438139694495	-2.533218377393301	-1.3681843246248904	-1.2483762471151818	-1.740945096388838
-36	0.025734772840733305	0.45216229443831024	0.5886417016426373	-0.2525715523541852	-0.9238601899663664	-0.8479743578482368	-0.26744043759534664	-0.024668056455558578	0.0019634643054354667	-1.311891552473925	-1.9343165110388667	-1.3431366648141672	-0.20773337728981656	-0.2638781958116616	-1.35414194718842	-2.7708213259358674	-2.2466406765482367	-0.5981360062756489	-0.6295440777142954	-1.5363070926025206	-2.807153456276266	-2.547401421791086	-0.9925169919704538	-1.010717747043825	-1.84826588164034	-2.76786207453953	-2.845868580308769	-1.0637307140196604	-2.271497720705449	-2.3333594740130086	-3.183650485583881	-1.7814890101277219	-1.6821340280024706	-2.1772749369009805
-32	-0.5053897487278283	0.03275310239867157	0.2100782389105214	-0.6863895637348674	-1.3613297904930264	-1.3388316597514889	-0.8186884501768152	-0.5485103116492022	-0.25807920033146015	-1.790811772593503	-2.5166284974455624	-1.9776989171640778	-0.8638694264535829	-0.4701333332112971	-1.7820185377905695	-3.5815544037992413	-2.976108781930017	-1.14128267476899	-0.7979432920336962	-1.8789737177139332	-3.6080083755952446	-3.3214008724278674	-1.3726978267344665	-1.1776512831518995	-2.143450731587819	-3.4682738693409845	-3.532919397971105	-1.276090141889266	-2.5821132594720018	-2.895136349044243	-3.6702484991868825	-1.995435232846532	-1.94178449617321	-2.4796774324753783
-28	-0.9758830641903374	-0.5483342395289802	-0.37795495891514025	-1.060774800483422	-1.8247281266872548	-1.9141291331601473	-1.5484751423841163	-1.2314761845968152	-0.5249671326734563	-2.233117813194317	-3.0672628802106177	-2.6366538934895734	-1.5814387758381836	-0.6518552286856446	-2.1695642416537244	-4.240612972997095	-3.5653705506906874	-1.623365278913787	-0.9187142229726754	-2.1556069796497788	-4.203225125191099	-3.862398614668547	-1.567736025666786	-1.263800617841925	-2.3310069978989527	-3.9725632567243925	-3.959118356245642	-1.410011883990416	-2.7061307361944102	-3.229160539103623	-3.871377696753421	-2.0130541273790747	-1.998288030347569	-2.555069678531369
-24	-1.3086253371577696	-1.2005497186867378	-1.0855610343228206	-1.2918754783438577	-2.248075241135069	-2.476940625612781	-2.3073985518373425	-1.8713376474817476	-0.7348071914240565	-2.5725562507528448	-3.4784836681280735	-3.1679017463810895	-2.1371099894926218	-0.7826437334327975	-2.4650468764057494	-4.628187644717538	-3.881972779963365	-1.8893026065809826	-0.9952579711581746	-2.336596721471876	-4.5083031540534195	-4.055536736739514	-1.4925265274512152	-1.3053539958421765	-2.416765683748107	-4.229382981112606	-4.0122990506914515	-1.368079658868929	-2.6832671097720326	-3.3173513328720516	-3.709114303760997	-1.8876975727105232	-1.8734320354845773	-2.3578500688150674
-20	-1.492326494263854	-1.7939919188028202	-1.7625864699685372	-1.3545010055676405	-2.5489778454321255	-2.9065883086253153	-2.909230940149405	-2.2700252475646354	-0.8576626755995025	-2.7442028453206992	-3.6577250865140334	-3.4401483448911203	-2.359385961297762	-0.8591724612478513	-2.6057207518592977	-4.673232066753469	-3.855487098496422	-1.8626770926177492	-1.0429956886661276	-2.3762946068849544	-4.485634792446834	-3.8700137040658245	-1.1603782147674702	-1.33131372592495	-2.3845322071906945	-4.215889443243841	-3.6677956488512784	-1.0819177600247678	-2.5490031178014463	-3.1746985832169563	-3.1861519733094994	-1.6900169806726926	-1.6258007246931603	-1.91424154751991
-16	-1.5818521936533019	-2.208348507073992	-2.253157133135788	-1.2949438062398586	-2.6580202512389732	-3.0979199331269904	-3.2028603472907524	-2.3344702661702383	-0.9231463051376939	-2.7070007255873554	-3.55696248110132	-3.3937351617960223	-2.2177495900428106	-0.9045764781048052	-2.540547364496379	-4.373731125279412	-3.506662121502364	-1.5885411460823977	-1.0760108205331507	-2.2313499394347422	-4.153119553570778	-3.3725783739771233	-0.6899756175740801	-1.3422249521699847	-2.20401548782834	-3.942580689966595	-3.0049695892759742	-0.5640111551349992	-2.3165161551163247	-2.840395920257889	-2.39280390135316	-1.4738655053120504	-1.3270173039310975	-1.3174550500032136
-12	-1.668501492102441	-2.3820712506234214	-2.458260768405915	-1.2136372297163172	-2.550319665191921	-3.000702373557988	-3.1321151177482975	-2.120186085116405	-1.0173110936229426	-2.465589755508993	-3.188594094809071	-3.0600852889048866	-1.834767694609295	-0.9643013452979171	-2.2604234161527206	-3.7936911487165283	-2.935233108739151	-1.212864634312689	-1.1023873062911416	-1.8903450918154723	-3.576685181170544	-2.697589152201083	-0.2573949986158109	-1.3123178448922823	-1.858326907234445	-3.4523913773156543	-2.1780352537478156	0.07640466074726707	-1.980513090855398	-2.3664953648900418	-1.477202411736731	-1.2568991152500968	-1.0374475691351523	-0.6937426907190186
-8	-1.8291917993139246	-2.3324403703928924	-2.373513692585335	-1.218229409956798	-2.260484928145974	-2.6385919981141965	-2.75153302451667	-1.788997407211121	-1.2404601542625484	-2.0766360707305087	-2.619408600869539	-2.53933476760613	-1.4114582502968842	-1.0889428826495482	-1.8159649326252123	-3.0375275535187245	-2.2715551795828675	-0.9070228315341452	-1.1268904180685715	-1.3942671979034587	-2.8477921414001037	-1.9863756844914142	-0.013557356748028522	-1.2105990617704965	-1.3692766393422862	-2.8094122338889718	-1.3508377041089938	0.6742360574865603	-1.5335447749520241	-1.8023894979747335	-0.5868624433959393	-1.0186527941734491	-0.7840089182132862	-0.1485904302421777
-4	-2.0778782315244917	-2.1364934390486217	-2.084027523501154	-1.3661389316399422	-1.8718773079341815	-2.0988087601123944	-2.1925330106692202	-1.5097490510970024	-1.641813750890219	-1.633679743456837	-1.9469003628213655	-1.9507808636050252	-1.113408205082286	-1.307721730745256	-1.3091298308698747	-2.216120237477344	-1.6194270808341302	-0.7759863714653528	-1.155716773929935	-0.8330052473971385	-2.057291264108207	-1.3275234665732523	-0.005351406508584201	-1.0271528933341174	-0.8023546913870299	-2.081334824075579	-0.6278384908083539	1.089871403803515	-0.9824884509076692	-1.180469509959054	0.1902177329029251	-0.7160179596943036	-0.5496712909172061	0.2801860563833575
0	-2.344543451111847	-1.8879529190080964	-1.722382779541172	-1.6314411122140149	-1.4873908720610443	-1.500450964954096	-1.6025159318518634	-1.3655054534768687	-2.1706221048865273	-1.2378991811015947	-1.2716631857236853	-1.3853089774442036	-0.9869785879965525	-1.6061265428046616	-0.8609037973602709	-1.42249643443497	-1.021700618071699	-0.7996627072171908	-1.1979051798140201	-0.3174044779870066	-1.2784333196787603	-0.7293946128549583	-0.14104467594775996	-0.7882614711886946	-0.24686016080042117	-1.3237800564722297	-0.016818545716261468	1.2901015249105314	-0.3552450528712504	-0.5097141253000096	0.8546433427213834	-0.308422475274546	-0.28105661202042653	0.6367764456884366
4	-2.500473492985007	-1.6567333894862788	-1.4128738606067255	-1.9163325976626409	-1.1956825226159575	-0.9577228998799557	-1.0907307835697169	-1.3222457137102954	-2.680051796822387	-0.9670479273222327	-0.6786305291208207	-0.8861968494929147	-0.9522939300335856	-1.9228074502082442	-0.5685536251018631	-0.7269436698679823	-0.46869936467091117	-0.8468499758320326	-1.2617725102039181	0.0600895135077658	-0.5659284577386484	-0.14227777683575996	-0.2278600329368242	-0.5517343268769632	0.2180322254159751	-0.5750253782059458	0.5535194859834791	1.376746651034547	0.30417844576331904	0.21720007007120568	1.4774632416616096	0.21705257837808134	0.08546403773903133	1.01869237165748
8	-2.426319116188586	-1.4732581339833226	-1.2298548190537286	-2.102366203722187	-1.047628638483532	-0.5545431361502672	-0.707043586376355	-1.275101300834939	-2.9886717720868976	-0.8559005238858118	-0.232411652216638	-0.46444114925426344	-0.8738318659654785	-2.1705541555916548	-0.4732113468620494	-0.18844497156249124	0.05841594919714892	-0.7548209409729835	-1.3479576076807185	0.2554877691971032	0.031184062282985037	0.4818489837401896	-0.07000924629178765	-0.3840268840630791	0.5501676187929977	0.13434535231049932	1.16751622858917	1.5342597922689445	0.9447009539594639	1.0010453437326743	2.139650816283692	0.8290661552478126	0.5853256568435754	1.5137647352146715
12	-2.091739887678459	-1.3416311707002313	-1.1858912676434246	-2.1165823883023833	-1.0511555645152768	-0.33692508850862934	-0.45713943127610124	-1.1363824577250874	-2.9750146790732828	-0.895943222168045	0.019115459125655876	-0.13184483316035653	-0.6612762792104122	-2.2775173129754074	-0.5548040256797904	0.13304541971471365	0.5405170307817795	-0.42973512302619865	-1.4483429156929561	0.2770315997758737	0.45569515113219516	1.1288535566439373	0.4221581209968363	-0.33579960380649965	0.746272740864103	0.7628154139332987	1.8453746987481643	1.9193854283510392	1.5114511213289112	1.806469435899308	2.8608894275914016	1.448475118794734	1.191594478459714	2.135315889689412
16	-1.6001704890858734	-1.2667280403580325	-1.2484856812427132	-1.9738089988465675	-1.1805173128840434	-0.3180078558045445	-0.33467048322104775	-0.9054995156314666	-2.651163571339903	-1.0498416397291654	0.04392577324148265	0.07551392893799251	-0.3335614195985122	-2.2284340802196922	-0.7539899926222677	0.17971338286326105	0.9025607682328803	0.0894154605992141	-1.5552512368036537	0.1625951226420838	0.6418658478743786	1.6985546307594743	1.1674704522220982	-0.43123677264055615	0.8188065269778172	1.2439261643474864	2.499423735983873	2.551593058819688	1.9421701382239331	2.542798274295994	3.5578186422167124	1.961308831985122	1.8045546962953778	2.7921955514983576
20	-1.1676114768112806	-1.271364328035536	-1.3707326616011835	-1.7735613539740314	-1.3946757281377178	-0.4883295881339991	-0.345832317194408	-0.6762185079667846	-2.1717088167673286	-1.2740117279311958	-0.16876357751199275	0.10031880412999726	-0.009990091410388691	-2.0829276985985348	-1.009676453902228	-0.08397313186186746	1.0370901796859813	0.6365015490674265	-1.675019617620042	-0.054836947332453416	0.5321951495085397	2.0331702181028226	1.930206413164112	-0.6702612025504594	0.7648304085494881	1.4883092604254247	2.9508323594932238	3.2681050218086423	2.1643862669658698	3.0703260821071807	4.05685614515293	2.247802251862687	2.2756364288096242	3.312268964034175
24	-1.031932828205167	-1.387493368460417	-1.5158028564329755	-1.6479457575199399	-1.653248067496482	-0.8205282071378076	-0.506745098741954	-0.5733935818500498	-1.7649121239925116	-1.5353367289880273	-0.5963137134755317	-0.1040593532080777	0.16291533369416997	-1.9546444366696114	-1.2885062662017905	-0.6418541653640322	0.8599230029329681	0.9921649669392991	-1.8332691146341358	-0.3691117456176887	0.10725988420585651	1.988397950874248	2.4142246185384577	-1.0356779072362388	0.5521450624830735	1.4091502392477187	3.005186073345252	3.7782752418493217	2.10490345423458	3.2399394430375907	4.162817467669828	2.2217376176053736	2.4622056422057694	3.513601532648174
28	-1.3312970366244548	-1.6293808180679106	-1.6659352737327606	-1.6906915860405571	-1.9259594630252983	-1.2692171303175686	-0.8194025138194216	-0.6662245375978825	-1.6208568770493923	-1.8167399122146253	-1.1752110690009558	-0.5338935242524818	0.09937858556452288	-1.958958620847562	-1.5916066129554565	-1.408659454603877	0.3665603986068421	0.9888503526517083	-2.0649390168507393	-0.7968637327102499	-0.5888792857561121	1.5117953977562646	2.39612507215166	-1.49699258426367	0.13528591360268027	0.9618304347549917	2.551446192975332	3.798727502768754	1.7152478651609926	2.953581087284746	3.75232004171954	1.8658257675747043	2.289914840638809	3.2891430771754484
32	-2.0160882422090607	-1.9677514980226276	-1.8161767675322091	-1.9091141175706974	-2.1967587415545475	-1.7729787781774675	-1.2477239338844068	-0.9160135961293656	-1.7990504457828465	-2.1139512008700616	-1.8108227207241325	-1.1176226110851346	-0.17783959165018795	-2.1549014990759985	-1.9385517786673339	-2.244052404460045	-0.34922557981058144	0.5887756332791094	-2.389263147043862	-1.3508089746702847	-1.4477437698051865	0.6818631870220523	1.828935260923459	-2.003491635032612	-0.505634962235815	0.17650544598838758	1.6295322138652577	3.198322049649012	1.0036902402332597	2.2172501031208536	2.843002073739468	1.2468767134657084	1.7922154619744195	2.6613550118964473
36	-2.8486852573951635	-2.3248445929004733	-1.9610850761492	-2.224187368499457	-2.463149302939471	-2.2632322254260244	-1.7134276585234374	-1.1927671402380642	-2.2048177663449913	-2.427696698735157	-2.4049470363933025	-1.7345696643904691	-0.5565465078607548	-2.5097577508503606	-2.3404886663473037	-2.9982116146684024	-1.1275141210699264	-0.1033011895790295	-2.7810630728124752	-2.008164400752626	-2.3261337221544207	-0.3154268554829969	0.8629953839448034	-2.4742083487031756	-1.3267829384684324	-0.8357573130487597	0.4283542622241735	2.074174875744657	0.05553852752730113	1.1575638026575714	1.6009389121643776	0.5004595505476793	1.1047130795244051	1.7783198311730157
40	-3.501234760981399	-2.599496596448987	-2.085415834883757	-2.5174097951273056	-2.731574290054732	-2.6800954274222524	-2.11967205466116	-1.351493832037025	-2.648763411510147	-2.7569477488529746	-2.89053177103768	-2.2621555271255205	-0.9029915309995845	-2.908535234737343	-2.780597679747244	-3.569734325932966	-1.8077536775723964	-0.8894773103191356	-3.159574262271255	-2.6972200802415656	-3.0958809774436618	-1.260336515105615	-0.2192087167927426	-2.801727049429615	-2.211278909822331	-1.912092204034736	-0.7860388735952766	0.7215589266679239	-0.9756682490511093	-0.013100957464877631	0.27926543284480354	-0.21308727508628156	0.4128462065763769	0.8514662363489421
44	-3.7082755472018354	-2.7118279865462367	-2.165578359858368	-2.696344130384158	-3.0098030491178966	-2.9899258538098055	-2.391833299320088	-1.3180215325457285	-2.953883640460862	-3.096652261545108	-3.256376496676511	-2.6276366644321394	-1.1288040847888987	-3.2070221819970417	-3.2163386263704923	-3.947191943693356	-2.295138830112314	-1.5607118567163196	-3.4108893785190695	-3.3167049801057393	-3.6916916277185594	-1.9889640757888953	-1.1247520418380084	-2.8834712432539926	-3.0028662605764507	-2.8936180995363574	-1.7799031689528317	-0.49272087091977196	-1.910962696019094	-1.0729349824519272	-0.8845803119260427	-0.7644488792192441	-0.1229510155196185	0.06699375046266627
48	-3.399049511910779	-2.6429450445204425	-2.18084239409107	-2.7413124968935487	-3.2991919434220502	-3.1962282576926286	-2.512303822850158	-1.13264620018142	-3.0485777777950243	-3.4405057343402916	-3.54798125324924	-2.8358082699703995	-1.2225173680911137	-3.303021184211332	-3.60325621648859	-4.210944165088603	-2.5924608641974634	-1.9718650529667707	-3.440187683956573	-3.781084766378361	-4.132756699618283	-2.4534742770239566	-1.6658970075509114	-2.673736565515089	-3.5700311570631977	-3.6830828096860952	-2.4437730250648073	-1.2874062028805933	-2.6076207095113615	-1.8755867433877675	-1.7626477435432115	-1.0997124882589544	-0.4307199109646913	-0.4866351472966024
52	-2.7370419433154636	-2.44672345497374	-2.127465957992312	-2.7065057686183898	-3.58758186388229	-3.33540319554315	-2.5273601945009867	-0.9231352186737937	-2.9927570744294885	-3.7816254997143983	-3.839858760675772	-2.9560727998486453	-1.229550120110406	-3.1865925708425666	-3.9201509853570866	-4.488064754598901	-2.779896729126455	-2.0763473458319455	-3.225621215305796	-4.0616879360648035	-4.501936424333166	-2.721178524776413	-1.8152171327537483	-2.224732870207064	-3.8624164960619343	-4.2718753706842785	-2.8178410458946686	-1.5724382360812446	-3.0061228199401766	-2.3981778561125413	-2.3704838692897616	-1.2477380005805383	-0.5445371256431508	-0.8372188785396069
56	-2.040664429280801	-2.225384229763525	-2.0266926237435667	-2.677100174820562	-3.8473818205017487	-3.4579882534459325	-2.5206489499348015	-0.8248056748546692	-2.9236962721441335	-4.109285821076466	-4.191520680335397	-3.0754446905689887	-1.2015823095502196	-2.9423413202385387	-4.178477753579997	-4.879960047798914	-2.9547653123641533	-1.9127258014070987	-2.842864983056831	-4.197494496238282	-4.8901028509654445	-2.914334289822189	-1.6806063609607342	-1.6873807864502222	-3.926250209432264	-4.720461833479929	-3.0391254348318286	-1.4559084140259058	-3.1378753106048483	-2.726853363781861	-2.8243534493663853	-1.2875058618464061	-0.5688558206501113	-1.0867768498638792
60	-1.6228786665950692	-2.0812237210179982	-1.9215747069481117	-2.7112982204648106	-4.040245045951705	-3.6039848236644847	-2.5690109664905556	-0.89981335174354	-2.958430998008585	-4.401492584559907	-4.609788883014722	-3.246612540631216	-1.1576873034812343	-2.7004749706752422	-4.404816616381349	-5.399314389901977	-3.168555728541914	-1.566771145679598	-2.4374086795303387	-4.263286102975251	-5.33285521114521	-3.126624099466873	-1.4219471180301069	-1.2552717892425476	-3.865397681967494	-5.100863443847632	-3.241241446894777	-1.1558128566170704	-3.0882470529786827	-2.9858701153709486	-3.2452268518529763	-1.2929226127406281	-0.6106684192498364	-1.336134072745055
64	-1.6385216671582965	-2.073436016569887	-1.8653819513908272	-2.807452671592283	-4.131870259343421	-3.7869226836915026	-2.7073936394047227	-1.1079971762339482	-3.1185834329069735	-4.6227536084763745	-5.040205942780075	-3.462759962876024	-1.08490800583631	-2.567377322390676	-4.609363544270679	-5.952714905014785	-3.399154654503897	-1.1391054363101314	-2.15615653447322	-4.313958633975245	-5.775422558508059	-3.3647527609750307	-1.1640808552915691	-1.0725983354190858	-3.7705690765550575	-5.433634744276996	-3.4645230682640284	-0.8738400914064367	-2.936916820740515	-3.248775473975365	-3.6639110949517844	-1.2870035139015075	-0.7180879693974819	-1.6191385943541456
68	-2.0193517157115637	-2.2001974527122474	-1.9038269471738898	-2.9102325365976816	-4.109155644532606	-3.9916920561145735	-2.918355695985742	-1.3434748615677687	-3.3200793182472443	-4.730288970448526	-5.3905486924448605	-3.6682262328040487	-0.9719244217175744	-2.571405881111584	-4.760379779240962	-6.3776244956167965	-3.5680322557010573	-0.7247818094074371	-2.0706136174376084	-4.336710442084306	-6.083984359639416	-3.5419874101857594	-0.9467058157860672	-1.1513131827850471	-3.655834188767953	-5.652740941080984	-3.622124901209628	-0.6979840380212375	-2.706711047014478	-3.477308741373227	-3.976912726851961	-1.2286034791444733	-0.8543832280522403	-1.8774379444405278
72	-2.5283124383035145	-2.410107368106348	-2.0570852704563833	-2.954612247636757	-3.9907026190138	-4.185912121694772	-3.1499817291839016	-1.5104802808772608	-3.436295262243988	-4.689594256958741	-5.575275407066361	-3.7977890872437796	-0.8483486154118366	-2.6542558603030426	-4.784790503819224	-6.517346842523552	-3.591437569133786	-0.4040979136754906	-2.1344814246646635	-4.242966641204043	-6.10108183274078	-3.526336899437309	-0.7321735602013052	-1.347083565171939	-3.4412732037444815	-5.6205034114077375	-3.5403203874848903	-0.5809549078578758	-2.3484883249117012	-3.5209131151950217	-3.9774942297649214	-1.03569364286242	-0.9153923369184402	-1.9840331027483662
76	-2.901898376767649	-2.636096947690198	-2.3102059305991753	-2.9200069830604303	-3.8266041182226647	-4.338633526338484	-3.348976603635711	-1.5869376619326987	-3.390827408812641	-4.497414577573342	-5.559255109102658	-3.8192982577217007	-0.7918359021222054	-2.714849226772984	-4.606720435909432	-6.298594458890058	-3.4344599160266984	-0.23596405923395994	-2.2091474477305444	-3.915709247239639	-5.7216501091504135	-3.216008655057849	-0.4563337552947064	-1.4220410549500357	-2.9996452255809207	-5.190790640123273	-3.051720373078228	-0.39543405075371546	-1.7727704003398588	-3.1810171523843533	-3.4487924488732027	-0.6317532642626729	-0.7786071876895098	-1.800308103784432
80	-2.9994490070908153	-2.830694906717318	-2.617352717467137	-2.8557593750378256	-3.6846220400288887	-4.435379970796371	-3.4883685023926674	-1.638700361882882	-3.218551866034704	-4.198617924580173	-5.37745665146229	-3.7539293671244125	-0.8949049688633238	-2.6782264641853937	-4.204348076695832	-5.771223053666367	-3.1356456200587197	-0.24660180446829452	-2.1457979624931474	-3.288240662855827	-4.950747477429763	-2.5991175109091724	-0.08556507506225111	-1.1674629420368754	-2.2414903584154877	-4.287955750129763	-2.0893154091536967	-0.02307796658709373	-0.9067348218913177	-2.305754417320009	-2.2694013061447023	0.015526567546565501	-0.35217904955639	-1.231263276806215
84	-2.8730246948184535	-2.983456604100797	-2.918098442339541	-2.8593518661786574	-3.6247916130101463	-4.480165470256052	-3.571938982528352	-1.769981260599281	-3.0525672358690583	-3.8802378079676236	-5.1175718178288845	-3.6592664626240334	-1.204165098011106	-2.544803612959754	-3.6456892398342156	-5.0867094865164235	-2.7849850584287936	-0.41248491302298307	-1.8764425468752919	-2.405502790099785	-3.91013311352569	-1.763124223072343	0.3572348645250859	-0.5222654329465433	-1.186887380464396	-2.957868807000483	-0.729498742169118	0.5778394922926214	0.2580525868576351	-0.8657865502432983	-0.4774217295513856	0.8862749315773734	0.40040123361585406	-0.2534566217222204
88	-2.72402500418512	-3.1184518258516416	-3.1632752338653045	-3.019023649222791	-3.676966419473266	-4.4885344391985456	-3.6205027012015165	-2.048794264389059	-3.0431330127178287	-3.6441156772161185	-4.878089415632006	-3.5908739476142126	-1.6752337175035348	-2.3915176331221546	-3.08082818207151	-4.429340828202975	-2.473630183650314	-0.6587872488555209	-1.4614816867169127	-1.431086655818311	-2.792401068313024	-0.8551740624771235	0.8058390000978679	0.3804850270678558	0.017648667052533075	-1.366445299513314	0.832239744946221	1.3568928207471487	1.6495985943153886	1.0210446093529573	1.7318470434332927	1.9276635598151242	1.4598633014060574	1.085759756208
92	-2.7743632723380576	-3.273425809225018	-3.3358242427527802	-3.354020587082449	-3.828377714028123	-4.4746217614687795	-3.648893347110672	-2.451356166372566	-3.2605826772384012	-3.5641379266398445	-4.721014964582048	-3.5641498475687694	-2.1723508779992278	-2.3227775038248817	-2.6823115281094063	-3.932743539417701	-2.2428579273817615	-0.8790069200257465	-1.0601512166913565	-0.5858072027675	-1.7826712086492122	-0.015214521399470403	1.1913758486232298	1.2731635538381834	1.1534608573401717	0.25639995867844273	2.358548158412914	2.2085967008142102	3.1377072255070058	3.124769202926146	4.068865765789113	3.0817990225231604	2.7628228594643622	2.685317986384286
96	-3.1284317891290567	-3.4739894779233556	-3.4550762089281384	-3.7881464862549414	-4.024194230409955	-4.439091194389296	-3.649167528475947	-2.86384844056916	-3.641955366476333	-3.6452190783974143	-4.642233360014107	-3.5396807104387755	-2.522428267786144	-2.399915689131225	-2.5579428608208676	-3.6235363391943456	-2.062114948788411	-0.9757375692528081	-0.8379601219001622	-0.04548926639992878	-0.9867240165593595	0.6805549246771803	1.481754895283892	1.8906135511348627	2.0272316881495542	1.698994393827517	3.657676210705441	3.0308668536911805	4.57598542011789	5.175192819880672	6.238188251004239	4.2968454252476995	4.2086086166936205	4.406557548841553
100	-3.7110690976861154	-3.71857022300287	-3.5634090810453714	-4.178196419657367	-4.188470353042073	-4.369697082931198	-3.5961158184811053	-3.1457726875990693	-4.020290841442759	-3.814353933240776	-4.579627025485893	-3.447525254128477	-2.5998821192904207	-2.5972695285072223	-2.691173546672237	-3.4248618993120394	-1.8547427607438605	-0.9099389887724186	-0.8695332982044197	0.1406072970655024	-0.4057054211387019	1.2318437068355723	1.6925799803915633	2.10328578417946	2.5523424084119117	2.8315031456984316	4.6337060811354895	3.7653031254117364	5.8335099072993915	6.930960637713409	8.007715205002189	5.50776957074998	5.653119072946485	6.0774068678957684
104	-4.3092780004421405	-3.974873771168632	-3.696552505697009	-4.382801521679851	-4.252648819676912	-4.249129284621101	-3.464785328700378	-3.2078637995791452	-4.2212576759573395	-3.9496555228649926	-4.45045708486353	-3.230743876883439	-2.3913462101642136	-2.8120732236436057	-2.943263761718754	-3.2128345885222838	-1.5509811600627257	-0.7221721392518249	-1.093254325013846	0.0662236361023708	0.034974038512620674	1.6837184386658897	1.8685861778765727	1.9750183770860066	2.7716588904021364	3.6248590854678615	5.283979879389946	4.4008517154209	6.805435640319147	8.222435930473255	9.238650298635099	6.605302793992159	6.906470758167085	7.497332554008066
108	-4.69207333333798	-4.19077490702185	-3.856622447767237	-4.337574947849945	-4.183063973356015	-4.068834771373909	-3.2520503915696355	-3.064829818617029	-4.171743382411696	-3.940593232696222	-4.201903809429054	-2.8872125075878086	-2.0084578940227593	-2.9281651899795302	-3.126314870570559	-2.898152344062263	-1.142082092262699	-0.515994785913425	-1.3514640297147125	-0.09596464758724518	0.4173980642747692	2.0717365689423417	2.0468192048847684	1.7095808939686352	2.8064734864903853	4.119035233588473	5.653361783059397	4.945291983516535	7.40561864890515	8.961667991900331	9.878880475851682	7.4245872310105785	7.756861190285193	8.462410905453314
112	-4.73776148553586	-4.314313877657209	-4.00480221690911	-4.0957054988451285	-3.999107589161647	-3.842799415422986	-2.990274898608729	-2.832627050877479	-3.953775872738623	-3.7533395195612043	-3.8502313993519763	-2.4873270925665385	-1.6408456522522215	-2.896544926006019	-3.113763801342604	-2.4900000032500973	-0.7055855971641853	-0.40875768558297626	-1.4952205381789716	-0.20590534754265424	0.7617158274492584	2.3771946370187904	2.2273356858285442	1.5147873124978564	2.7621691157221164	4.364366520353104	5.779775604914305	5.390781388977476	7.560030918107581	9.132310844252702	9.941593145065905	7.777750949296172	8.028829554314115	8.817380882889621
116	-4.495103347873367	-4.314609039857392	-4.0788693325058	-3.808812847057866	-3.76981543542842	-3.610810032311193	-2.7411451270514418	-2.6670491628067534	-3.7685959243993947	-3.4619665058467772	-3.4848639877073015	-2.1524772589698142	-1.4685455523606994	-2.78040599121013	-2.9232134745226714	-2.1046774334221623	-0.38301193617440626	-0.47296932220255	-1.4866278134005562	-0.2461274260028861	0.9982930992671194	2.5221743520000417	2.369619125105544	1.4711053334287605	2.653768771147168	4.376325596250645	5.667257294651511	5.700014576825888	7.224408131479361	8.782190300703078	9.493033385151048	7.5332865524829655	7.663592319213301	8.523658730921237
120	-4.148334969537447	-4.199156273730425	-4.031279076888649	-3.6547257807965083	-3.590853443616462	-3.4312083634531203	-2.577652924705431	-2.685772173776328	-3.8266689680760164	-3.2256874956706194	-3.236582986289473	-2.009085888558527	-1.585324879458438	-2.732375138059912	-2.7216124465892824	-1.915269489221111	-0.3237473956517326	-0.7071937304761652	-1.433251258092509	-0.3354809871786572	0.9969614122969097	2.405563825255881	2.4114355980071696	1.484429236478922	2.3981575905333687	4.129213322704621	5.297612176871397	5.818458065601553	6.423871977799837	8.023887614018975	8.652210213750973	6.704204542399682	6.778591138891562	7.70589302024786
124	-3.9096598526473683	-4.0167865651759715	-3.86489771820838	-3.749732723305662	-3.5483705907879295	-3.3633468066176184	-2.559475653862042	-2.9130999968412965	-4.226403225718518	-3.2166457094995997	-3.222136966199603	-2.13631414827759	-1.9642312477110808	-2.911763660708806	-2.741457216970698	-2.065530771762575	-0.6175408347750878	-1.0441582176548916	-1.5283588132417898	-0.6534335000706675	0.6408578141244823	1.9636512945188807	2.300924533756764	1.3501870598082684	1.8801187229371776	3.5917835144911887	4.670829761156507	5.706587300197965	5.289259897229399	7.03355739725052	7.590740661529802	5.490045056787162	5.662085042009541	6.639834387227729
128	-3.9041759869232986	-3.842491855456722	-3.6429967788272197	-4.0884070293200985	-3.682647695780333	-3.44488381469728	-2.7110667160250874	-3.2745644963559326	-4.8904914732483995	-3.5307009130981664	-3.4894344718571393	-2.5298275883698795	-2.476400369113901	-3.3856289301270355	-3.148196689286675	-2.5903830462858393	-1.2452323405297967	-1.3882536853072522	-1.9272706459977569	-1.314487573165918	-0.09258577949274865	1.2245316474515677	2.0287513681689107	0.8922916628243895	1.0548365089487324	2.7824246813142866	3.8468778036268008	5.372236238267462	4.0583863155897415	6.032701000241306	6.516099436520842	4.235807884966014	4.688039767826924	5.671745285973189
132	-4.112419118035109	-3.7500224018785393	-3.466403952429812	-4.541985500312374	-3.9676639933548037	-3.6748149302208857	-3.0137264652456865	-3.642420521122986	-5.594173417272554	-4.12768649012791	-3.991094340738275	-3.1018145006067814	-2.9550554677741876	-4.070567120765286	-3.931484212486066	-3.3857655439725156	-2.075888866905491	-1.6673515992983374	-2.6343023710498317	-2.2676966133084298	-1.0901452275409218	0.321379094504529	1.6329843956726429	0.08959655441074571	0.02079923445695506	1.8059879495800282	2.9560003206007814	4.87740563114887	3.0208659095788573	5.241528497813776	5.628485665415905	3.3098161136985715	4.175727356858425	5.092532621877699
136	-4.395469654429849	-3.779639711374075	-3.423976174292913	-4.916971671088037	-4.316902149745401	-4.008408059490338	-3.4085204515230973	-3.8974459072894114	-6.069735034876808	-4.835102069091369	-4.5974421385085416	-3.710456123520793	-3.264250508650039	-4.7528643488094975	-4.883812892027468	-4.2419352424334535	-2.9056441710544565	-1.8568857861367043	-3.4718079479300843	-3.2842335618069844	-2.1242234653247176	-0.539406834670996	1.1872894733970356	-0.890215037005658	-0.9873728727207461	0.8475474097787886	2.1721482222075035	4.320693958817859	2.418371432874302	4.815453994037216	5.06693123491841	2.9515385553227396	4.256507862788507	5.023445116711551
140	-4.582790840022583	-3.916778792982788	-3.5438580423526673	-5.045083510059019	-4.615737903385445	-4.368978966172758	-3.810784091864901	-3.9766750235291966	-6.133312686693829	-5.41873835149234	-5.144765840892551	-4.208089341029648	-3.343204966687393	-5.18457792880473	-5.686085686632783	-4.925323473892878	-3.524821987789523	-1.971770639209685	-4.1592035188569305	-4.049627293852822	-2.9315295145407383	-1.1446813316055018	0.7774380425851923	-1.7742453768757467	-1.6920313792424357	0.11974622278974902	1.6596958595334257	3.803265085154759	2.3427293241480434	4.791295993152164	4.869313227757435	3.1629426399482976	4.813277709252671	5.36822413042847
144	-4.565312850869933	-4.091498841446081	-3.7711832428132723	-4.856919753209868	-4.76420496691441	-4.670054423939226	-4.1292877093011136	-3.8840539357350883	-5.764122948398649	-5.6838588571095965	-5.494250283674738	-4.485459316373058	-3.210008136274171	-5.203415380691985	-6.05554769894461	-5.266913400703787	-3.784230222684507	-2.0327529855904483	-4.4586830026589235	-4.312813271124132	-3.3106570160249396	-1.3454153503781772	0.4746146190104535	-2.335300201241995	-1.9033428382502464	-0.2108066821736435	1.5201542339091718	3.3939256582402435	2.686201565636206	5.074275480810512	4.970712172356164	3.702434053610016	5.528065190663338	5.8610772938569875
148	-4.341707695489657	-4.20377634894459	-3.986968030400182	-4.403120029776745	-4.710453021554515	-4.838860499562837	-4.285200108199464	-3.666489353459679	-5.097355829720746	-5.554294095321238	-5.57403610729532	-4.495076644992575	-2.932976476893652	-4.809412944095192	-5.875213608213387	-5.214019285389334	-3.6339814571184137	-2.034303183187853	-4.301084030736265	-4.007695187940624	-3.190203181795365	-1.099954363906842	0.3180952958182092	-2.5152809556398825	-1.6120263297389237	-0.08017692694686852	1.7659778550384049	3.1115043084741627	3.180904618815301	5.481156812180696	5.246612058744545	4.1939954651802225	6.0233921852623675	6.193853839495079
152	-4.000153531465525	-4.165654648753973	-4.0619273083176175	-3.8142774008770775	-4.459323394960773	-4.833083140568634	-4.229347218325831	-3.3785247717434825	-4.34202193117612	-5.089358316923555	-5.387672887550998	-4.249512661695328	-2.5897443229140387	-4.158477772703978	-5.235915647638738	-4.824561583735901	-3.123484126788033	-1.9385279368094839	-3.8196685217741106	-3.279828778569204	-2.637325995462364	-0.47463950394958443	0.30951675694521463	-2.446887725374326	-0.9906899307987667	0.459493159087694	2.3298244417495946	2.929785721057592	3.5162880331907074	5.822045311533659	5.57769726298676	4.300531853308461	6.028820499457646	6.157888873765569
156	-3.6531205085074703	-3.9413933654456668	-3.9173688789645746	-3.2251670279137548	-4.053363312977911	-4.645369994832848	-3.954615821390677	-3.0582444590602913	-3.6742987539984338	-4.432698238625408	-4.990686404025705	-3.802694549496409	-2.2356598320782797	-3.476205817029088	-4.370478619031521	-4.215098847237537	-2.3708536565050147	-1.7009696917503863	-3.269544593185623	-2.4033060013174894	-1.8090692712885572	0.3908754279281582	0.4158090342513916	-2.3612770974624206	-0.3019795112138171	1.2717457977611353	3.097153894234271	2.7967019010505787	3.4800436408871964	5.981010898748276	5.899739727383642	3.8758308789626366	5.491379723989603	5.730351433591335
160	-3.36888121708033	-3.5647473245264893	-3.5619072824194022	-2.706538193545066	-3.5403139501832706	-4.295562256458215	-3.4984795958882575	-2.7249023845539986	-3.1656904140655056	-3.7257854844440037	-4.45127056905337	-3.2239127077722682	-1.8963209342762757	-2.940991871084231	-3.520144930535096	-3.494321575879224	-1.514562364569042	-1.3096660342529205	-2.8799245284802324	-1.6335024792437227	-0.873680350958842	1.3389577831795152	0.5835986718702134	-2.4371869502523342	0.23890140592339748	2.1965119783258005	3.9483790297957055	2.663482897709556	3.058108798889125	5.960274681301851	6.217727645434559	3.026108018864328	4.584503162253367	5.070448385788437
164	-3.1396343628770182	-3.123083821994732	-3.0861291807458704	-2.2408258858372094	-2.946613304328095	-3.8172140025084573	-2.932460062252622	-2.389600032495282	-2.777188055656121	-3.036362640344175	-3.8181314371985238	-2.5756583148777032	-1.5756851394925415	-2.6019458705059133	-2.811018221433745	-2.718729012300908	-0.6683792455010727	-0.8136525133571019	-2.727658503321454	-1.0784540149163255	0.05692092687421564	2.2448506298608613	0.7580233197147457	-2.6852664879713304	0.5721961841441802	3.1101565282499046	4.7922472832803775	2.509666913371952	2.4459657607312684	5.869826302013609	6.58211372621013	2.057480568459536	3.61929606477573	4.434260357151737
168	-2.9011173175044846	-2.7175073555046763	-2.6189317637125398	-1.7524685815434597	-2.272904390318597	-3.246554128079484	-2.3410859048864454	-2.065505976230411	-2.412478202450948	-2.340900653650951	-3.111844293367103	-1.9032601070035071	-1.2698217598326436	-2.371906036110512	-2.207678789286987	-1.8905246210050823	0.10445581350180023	-0.3142738632373728	-2.7021729877913163	-0.6579229815084598	0.9529802179117968	3.045994035659824	0.9054596997288571	-2.93600868437501	0.8153136948027979	3.959034194487432	5.582500443669213	2.3583755433620803	1.9666522691664552	5.872596249058618	7.04804466375447	1.3414555754171664	2.909826748177075	4.059064378026994
172	-2.583714478645205	-2.4163756309536812	-2.2672140541055468	-1.1719257801985206	-1.512988086695209	-2.6170608931270536	-1.7951723291849717	-1.7671538546768542	-1.990531558733241	-1.5660995205439647	-2.3387145937046885	-1.234468218547696	-0.9761636828572314	-2.0932757801611537	-1.5630023439999654	-0.9896439884948889	0.7947921136816668	0.08305788764249092	-2.5783135825864534	-0.1665144707528778	1.8477922631341503	3.7463500405139096	1.0357584927157717	-2.9353816435135562	1.1918625801512366	4.758771884347561	6.320408805148459	2.277791017503525	1.9380664776507979	6.11730287914758	7.647119025950449	1.1677639454922313	2.661060088114843	4.078072060779297
176	-2.1607804243846416	-2.224222654449075	-2.0678033776528335	-0.49214002365790227	-0.6798781735421091	-1.957100386446736	-1.325725790491365	-1.4921297989365918	-1.4910224638487504	-0.6571181399920898	-1.5109562835692354	-0.581233917199365	-0.687845347575186	-1.6335183340791928	-0.7257204037463454	-0.011327237793516895	1.4345707857152152	0.3312735847215522	-2.149320596990479	0.6031435712845209	2.795614473914042	4.401143539760984	1.2099070518464015	-2.486041778009847	1.914105648930165	5.570329652073965	7.048597318019432	2.365616554009692	2.5564656193084843	6.694305403020379	8.389168718138233	1.6560803609997683	2.9300208017759926	4.504391182017398
180	-1.665709252920343	-2.082306379782965	-1.9747939059943493	0.21623177771811294	0.18043157412750765	-1.288809534633642	-0.9138070321853518	-1.2107027738521439	-0.9524691676887829	0.3719902327205592	-0.6577997787080201	0.05588061720925489	-0.386934309220915	-0.9544809436541626	0.3615390649250617	1.015989897070187	2.0727424569250315	0.4776714432100417	-1.3398604359177146	1.7482100681035888	3.8328711889771054	5.088581549194803	1.520152803397701	-1.5509802063884117	3.0821669023897855	6.466423972016134	7.835599402671847	2.715624087153108	3.84176277144367	7.625279884159884	9.282437301088024	2.751060240475505	3.6574158576177194	5.273112760581934
184	-1.1728043526602916	-1.8993328761784614	-1.885344858177889	0.8395366051458463	1.0006140445241685	-0.6249220355468573	-0.5008770810832768	-0.8730521776091401	-0.43282768021023943	1.438161131088841	0.18192487909161767	0.6840193850413582	-0.04502684984163849	-0.12062916129173887	1.6310456950015733	2.043362135496524	2.7517781188153676	0.6502834542068859	-0.23698893129596282	3.214181891909385	4.962367522108678	5.879443630633126	2.049708361219027	-0.2640553408154868	4.648796546643044	7.502138595713462	8.752345063046496	3.376552811680712	5.65721319677648	8.877819038864958	10.347967121701043	4.282993782674029	4.73182820079132	6.29970978100028
188	-0.7546662669201818	-1.59426772191938	-1.688374634294698	1.2864363161032568	1.7253967480012748	0.036564808246563274	-0.015128186865698947	-0.4363906670519823	0.03555533280932504	2.4384379325337218	0.981625316048856	1.3158616986431007	0.3636702885982698	0.7501254062787228	2.9382014200414712	3.0340173167874744	3.492985239746734	0.9947120522180551	0.9703743433294593	4.838531481924507	6.162395938573526	6.812595827068648	2.8244697976326933	1.1506494254625041	6.4578823880228065	8.697515465711783	9.843680356921999	4.3204455266590625	7.779423694042925	10.385832760338351	11.609529465928013	6.048515304553185	6.041740879063697	7.514760952096388
192	-0.44052952416776864	-1.1286133499260989	-1.3104186024959543	1.5443308314433466	2.3467485845443896	0.7164006811174402	0.5985687956002703	0.10383935991534776	0.465587793605235	3.314081183649351	1.7479149059034065	1.9682819793597894	0.8442222454690992	1.556051250343809	4.150580395709757	3.991059770044392	4.293473232873401	1.5938345153622462	2.09764146275206	6.442014201112187	7.405988674538981	7.881526450285385	3.7811446094415646	2.4936432775481503	8.32213208958434	10.031435941164759	11.10275742588669	5.4369344574034315	9.9741029487558	12.059045761179814	13.059921231675306	7.866146544623532	7.488214473891928	8.857348419714981
196	-0.19862757573047007	-0.5153771625858217	-0.7398025970854251	1.6904456572768347	2.9160854742812687	1.4497541152590954	1.3567439283448757	0.6969119292783693	0.8984428621496796	4.085577000793308	2.522724622079219	2.658080809557912	1.3633749450593962	2.2546844425496566	5.216415868940412	4.9566364163187036	5.130651461045374	2.407169574382076	3.0456349772806037	7.905271510192475	8.669893242881132	9.032656646811434	4.772624003758388	3.6654944327316	10.087461446089225	11.440873117171702	12.457799880046101	6.55857179893192	12.04059407055257	13.778095210574982	14.623497926030877	9.587614035241844	8.963222481032147	10.241010640037489
200	0.05164013789967337	0.19615995834416022	-0.022109730113355354	1.8515742970448898	3.5223748594998026	2.2729647102189574	2.234622949680385	1.2537928788001145	1.3660887445291678	4.835795867154803	3.3640124712887896	3.399002066613657	1.853226060956735	2.8586034702607472	6.17164991727941	5.98335741439787	5.975421890431088	3.2736191666921814	3.8132033251809365	9.190346694631078	9.929656003677588	10.18186757378056	5.619998917695632	4.665188777589206	11.65479561724195	12.829024282490199	13.787309611796834	7.5177645493483265	13.822467769056702	15.394456824536054	16.151161153069893	11.084830256132147	10.330573055888026	11.534419984306123
204	0.40544202821410447	0.9476828551207586	0.7667603473377979	2.13426899371122	4.244934071313821	3.2058243670586593	3.1833360114788403	1.6951167540667993	1.860815043519667	5.651085362471883	4.314510334565893	4.201598633648575	2.2417836132670423	3.3943884287011112	7.086426717032809	7.095841389860602	6.808704835867534	3.9818053145013512	4.444958675606172	10.306279156413229	11.149005861744044	11.245648355701706	6.190193160640796	5.526670918816273	12.96286484306537	14.084963762961834	14.963618240723914	8.21259115052985	15.202548942330145	16.751586871768808	17.46372981430676	12.242859809482816	11.438981981007043	12.584542242702183
208	0.9329757070827868	1.6963291125384699	1.5547704657401094	2.5657379562449125	5.1053852906074555	4.236759651931384	4.155445088385463	2.0042977282465193	2.332505458664823	6.556431753771308	5.374336229106887	5.073164927071861	2.497472756756011	3.859180917533116	7.990619162412296	8.265367487066523	7.632068614764083	4.373448837682468	4.961508261551765	11.25323197384662	12.275129287245582	12.173912971277984	6.463000758066037	6.248867972809551	13.96022888473672	15.111565551751749	15.905831296816734	8.648632981399164	16.10406871544465	17.726514771529033	18.425657225818554	12.975769010208083	12.168236701761066	13.275208439688887
212	1.6466224151999778	2.423135989747038	2.298222536006628	3.07895468888166	6.047224983206346	5.318857179564341	5.124224173006181	2.254221910507367	2.715035908519949	7.487221222093898	6.493569834526943	6.016957744665819	2.6643593244041206	4.208647240503337	8.832474686257274	9.41505048282108	8.469523408487115	4.433089721931304	5.326922880074982	11.992368667842296	13.250431981011207	12.972614255577376	6.553461058283203	6.774491293015682	14.60020061621421	15.856316526433934	16.618774372104127	8.93806455262887	16.510501819887256	18.277286483395304	19.012451123873177	13.262865033042806	12.485592810578959	13.589898075124841
216	2.483060353685709	3.121550075279244	2.9844689293851063	3.546369305240004	6.951722127529155	6.3754129248826334	6.081190093899401	2.5787699157457014	2.959752075352051	8.311278322216722	7.583341579364645	7.022983056456905	2.8576893734307798	4.38030527916296	9.493756270281057	10.447476360646583	9.35213372730366	4.3084659467637705	5.470423207776644	12.459199873939053	14.031677210667171	13.698202098594075	6.667176706647221	7.024219972042161	14.862738571789157	16.327413517737206	17.190280870905355	9.249441123497991	16.48711963305664	18.464374495618262	19.32579607852639	13.174215283510765	12.469963995921152	13.631907428656472
220	3.3081169044896046	3.775592794422623	3.615300884655812	3.8417057894034086	7.6828017040830145	7.3135313803083015	7.015520554949867	3.1044299524129224	3.0529899520087382	8.888280846089522	8.538951852220515	8.055768946335943	3.2184636511606595	4.33515738346396	9.851309751433986	11.277613611358305	10.293457958935834	4.2486987006683306	5.345735059592916	12.609328238123002	14.604116402947486	14.425059282122707	7.0093626799043784	6.961423856325461	14.786834679463706	16.586183506097544	17.745431855221504	9.730953191984439	16.182720143468732	18.429346038065102	19.543134639989383	12.862326589535025	12.283491103630721	13.581731761974073
224	3.945300807528697	4.342449177268792	4.181323994570125	3.893921842280609	8.135373094999709	8.03921316024493	7.8868937293245684	3.8683566949452524	3.007160417593807	9.129718757467254	9.26140878246436	9.043645835931638	3.8378317259213683	4.0873289005081235	9.843401884022311	11.849842041615227	11.263592691593901	4.483711708192655	4.983076082999997	12.45973583890352	14.97669025454589	15.195885619898236	7.685163955358789	6.640081388875054	14.481512033139845	16.714237170935373	18.37537760863593	10.44056603656735	15.793620069683048	18.333974791968	19.824115703122747	12.512040106654764	12.099163024872471	13.60980411908093
228	4.223737706010892	4.749618041444647	4.64152096530155	3.7044560815742713	8.261675813797035	8.469571092202814	8.610465981678631	4.770163047191115	2.8344130444490196	9.02483747111096	9.669424032593888	9.878563855979435	4.688997733675334	3.6989602949212768	9.497475600105652	12.1324109724814	12.175662009969857	5.103510843743292	4.490762699233203	12.09133240508023	15.15910526263026	15.979774434752605	8.638369538431913	6.193751796343481	14.094710314450898	16.769550281147282	19.077667188161644	11.31709763530647	15.49608798883024	18.28836245687808	20.225223490195987	12.26897045852578	12.022411316081875	13.79284187649234
232	4.034852971380358	4.910722243308405	4.921389567347635	3.3242580806726068	8.068159083023412	8.543615319615968	9.070560432421303	5.592988476937411	2.5244433816116225	8.624871232191579	9.706173872283818	10.436924908036504	5.607105240970373	3.2446207918264305	8.907593704622304	12.103524177510387	12.89998432717188	5.999888881793876	4.003828992271675	11.611096352825912	15.139827690047094	16.666061359289426	9.666188215646491	5.771988854140508	13.752980197515832	16.757335620533592	19.745187709547608	12.2086248089589	15.380995711593965	18.308618499307407	20.674283929125693	12.187293975577697	12.05385777291166	14.08491035720025
236	3.3811445150840362	4.758668887521649	4.937175261430094	2.813213818123148	7.595766525164574	8.237449625198533	9.165599799857132	6.093443855159967	2.0478699155602165	8.006468752673793	9.351793265573562	10.622460338476277	6.343004210670024	2.773312800081188	8.184929827052324	11.751480072869427	13.309102978482706	6.907878381454547	3.6161382107035025	11.102668734175488	14.887971840463242	17.10600657912594	10.506930324729876	5.4695229392242295	13.509283031688238	16.636106449086736	20.2158297982031	12.945452657440386	15.427164992483258	18.328226043203216	21.020971245144924	12.22563072932612	12.113107650691758	14.359738313659697
240	2.3909935890866123	4.278193939851675	4.634276855212417	2.21426963247103	6.900753957491822	7.579873065884633	8.86066339163044	6.113020881477727	1.3928339446188083	7.2420196350359705	8.640436150670347	10.410801861227458	6.665840132096153	2.297655099789799	7.4159793666524285	11.094298334721524	13.333290066434335	7.527842502661505	3.3415956412825203	10.598814937534998	14.382728540347257	17.183710054881903	10.95537469005274	5.294063077911852	13.331422772127526	16.355621296596652	20.357067056757643	13.420613254995603	15.52920528305815	18.254335357354616	21.132127708487328	12.291340796909243	12.106028526258946	14.497321092242998
244	1.2872873512192111	3.5240325838761106	4.022512425757219	1.5541496237616963	6.049271568284186	6.6606745551743805	8.218862512818703	5.655506119754423	0.603847978974698	6.3944759207451485	7.672329406440998	9.87229249369058	6.466450198059769	1.8141813232394566	6.653738005051513	10.206582997302144	12.99960037764059	7.666779021933527	3.1292357365757577	10.094452832485148	13.654335941173088	16.881183581646688	10.95405099010491	5.19121693254163	13.140608754359773	15.905013997929638	20.140821406058492	13.638655628102326	15.566094359197924	18.035043670896556	20.97543138930287	12.305556266233703	11.992872207880088	14.46255870982344
248	0.31465127984713764	2.6166186266639366	3.191020242263883	0.868458090020031	5.125823007993599	5.623467908012802	7.392210464887488	4.890691268017182	-0.20251297899615017	5.534605965945897	6.607812387949446	9.158302284006416	5.816059097864691	1.339334722952123	5.941199287673253	9.230149245800117	12.433054892620785	7.328412514303934	2.9193403647149454	9.588787054648062	12.808580366221014	16.301771122782416	10.615079852960243	5.105621801837327	12.87781426039436	15.341855964073154	19.666461894927036	13.707849467954484	15.472764929807093	17.697914078852218	20.6410178617048	12.250487296646176	11.815095871659008	14.326482736656256
252	-0.35171699435125775	1.7094083981270909	2.287708753531952	0.2239121640035772	4.23616122129935	4.633124339803951	6.565647585504633	4.074028481687944	-0.8645901062117426	4.7531370996633004	5.62893913755221	8.44517991794799	4.9382805699600185	0.92996632818032	5.335120664478113	8.342749574578672	11.80727574228422	6.702338678604344	2.6982958248677558	9.117989517079387	12.004960983484333	15.629022558807113	10.159276936630565	5.031242357902803	12.551337210437385	14.776600800400189	19.11196131649303	13.778336490176423	15.27184959370547	17.3343047658054	20.28471178655458	12.17146488931395	11.664596528166912	14.215949022640894
256	-0.6726028306191933	0.9408355927555389	1.4700767956811132	-0.28755924033042496	3.4919643313935986	3.826048364516182	5.880018696244468	3.425014010365122	-1.2412193982257804	4.147879113215356	4.877798544966237	7.859753112022486	4.107769002080052	0.666045842873297	4.903455245035737	7.689946632043491	11.265540094543086	6.060534461932508	2.5114095147622058	8.750481583436942	11.390574426502795	15.03872676867149	9.80366132168368	5.012794958809974	12.23410698662894	14.317437135787982	18.638671827941877	13.956762278605336	15.04980560317721	17.0403976010201	20.028718897796605	12.13602444445714	11.617228478664924	14.226003610933379
260	-0.7534799556782124	0.3897746791535478	0.8470098950935613	-0.5846096858523411	2.976021282311708	3.2624597467069285	5.372331128861705	3.0240604801121735	-1.2800281015503443	3.784943332652799	4.39845227084688	7.4232106021383215	3.522321453738219	0.6045930370325093	4.691401469783768	7.312873345031643	10.851654979010897	5.615090356001482	2.4270093379733426	8.544433572177379	11.022829981630478	14.609739266702821	9.657421087677902	5.100925909515199	12.013531654544236	14.006741488379053	18.303239776176458	14.245648348127434	14.896776161730076	16.853759723073345	19.882509181368874	12.181646316290198	11.677104920469317	14.353163682938991
264	-0.7869178036849154	0.05359052480637975	0.4401814032408369	-0.6431295259450712	2.704232924309553	2.9055926726415007	4.967845904205442	2.7880384851636384	-1.0497429344376665	3.656273355789549	4.116324414350932	7.046381932588014	3.2193996824998488	0.7337656002592363	4.678016173949643	7.1173267184806726	10.489606830816093	5.415547834074859	2.4784445700059567	8.496384599215196	10.828453036625628	14.284210169013962	9.679293608069457	5.297112451530862	11.927719086096342	13.789330447668197	18.028024627945527	14.539502107151149	14.849974594770602	16.726978259770394	19.734552333597897	12.288328139751322	11.770029991951011	14.494741403223632
268	-0.9573850607542218	-0.14358331226814036	0.18238763465132427	-0.521251200313606	2.608175986380687	2.6400287084682352	4.5275287513864715	2.532560342116642	-0.7126550060399219	3.6651954558341617	3.8713927171238662	6.58006380327219	3.076234094482401	0.9639531349640184	4.760065543554499	6.910221559244041	10.025279973467898	5.341349588259994	2.629630320585553	8.521078088227556	10.629491779193387	13.900995219419963	9.714263891489466	5.533427701330952	11.931875198756748	13.53485199372085	17.647952988890466	14.68012329209885	14.874251328107746	16.55453487031319	19.420871685586153	12.391549079126944	11.78888604048739	14.513704263283177
272	-1.354630109227898	-0.3143246165922709	-0.04484191898110915	-0.34004029545762765	2.556298011047799	2.325541013568271	3.928288688278436	2.08689951369776	-0.4482901979095426	3.6595609095684805	3.4962048442307925	5.898911938079091	2.8937704490080187	1.168270584971543	4.786194312409429	6.4951157405899345	9.314862227763973	5.190717684038252	2.7928359438002075	8.486178376706784	10.233348820598824	13.290780987562167	9.591340040786635	5.709459290394571	11.921740501821885	13.109053578658193	17.012744860611402	14.546793900955981	14.89173980767785	16.23926158619707	18.8326720715927	12.427146880245564	11.663480729219534	14.32993503767293
276	-1.9393482159288118	-0.5604031667865645	-0.35344031363897527	-0.2274913335063357	2.408953899023567	1.8617798042975657	3.1331784646084055	1.3973506653791943	-0.3691556742407773	3.5007254988977237	2.900749676056438	4.975462900951348	2.5173425610881686	1.2516951529371856	4.629011142487675	5.778889641476601	8.314372041691334	4.812984454401117	2.8890902923120714	8.285624483170164	9.541605925311616	12.382266967028796	9.22579000051083	5.765569672332984	11.800292938957124	12.456024138473436	16.08760638943641	14.133117640098558	14.838760338512294	15.758346517831187	17.998786880826962	12.376805274232527	11.410382242004543	13.980968440043245
280	-2.580423110169018	-0.9365029311377546	-0.7999471405813408	-0.2568461888504271	2.0796046204514074	1.2304236857820285	2.211125368257777	0.5617508874061783	-0.4741483914801975	3.1311101834399215	2.11728047790023	3.901547660513919	1.92545544615035	1.208157417108082	4.254672993408374	4.828247058122348	7.119810086394325	4.2076582802397215	2.9112160132339926	7.906849841182143	8.614778496926533	11.259458513442716	8.672774292983721	5.742888912960316	11.543648690642687	11.64235970418741	14.994116745285584	13.568678821638375	14.709821663911075	15.18658443431381	17.09084506488199	12.282213180049963	11.129106493508152	13.610716785399427
284	-3.140013686835411	-1.4386806451713914	-1.3681869472292538	-0.41649845137344554	1.5715230663676738	0.49442848438363085	1.2960113254250905	-0.2226010108334409	-0.6663908345563859	2.6011559897553442	1.279384729016263	2.8437099384990336	1.2397975890328978	1.1255844803048398	3.7451033497669353	3.840012302240326	5.93204067639877	3.5305447489292487	2.9411275312553973	7.44526050595228	7.651018123383231	10.133738492176	8.101386049797432	5.780648216911614	11.219394655511643	10.832887622185721	13.963666880638685	13.066887822539064	14.556822740041989	14.6591300594248	16.34318538354211	12.215261428510015	10.943635912921733	13.388671841196853
288	-3.5574076085873787	-2.019244665769817	-1.9888035008762759	-0.631419061020261	0.9684564446793638	-0.24387490687786637	0.5081124292896492	-0.7719718794405763	-0.824216959779709	2.0354015775790004	0.5448391423774651	1.9551470230330887	0.6494687183195081	1.1292444439033875	3.2505643285698476	3.0358722133282017	4.960837351671867	3.0036265774232858	3.1001143377235008	7.047698956815646	6.883658391739085	9.241471267255907	7.704010943989184	6.039080127727642	10.939531298674284	10.20552060411635	13.224827733028977	12.821474042946273	14.441826783911427	14.292445146715338	15.92949291022135	12.220442741057969	10.922060938916147	13.405773128995474
292	-3.879205693941299	-2.614896529271434	-2.579316132709044	-0.8211679437885666	0.3849681606109956	-0.8993254281226406	-0.11329587520366717	-1.0208169196104901	-0.8816288091335067	1.5564776619714558	0.006583218446144188	1.2953580585200015	0.2966820888181342	1.2955944505405839	2.8978390620501147	2.540070050502223	4.3204011808034615	2.7845897604256415	3.4598245533375365	6.816905958130763	6.453388197818089	8.723261811166799	7.594610671896008	6.589920504144521	10.776972743481677	9.852188085477179	12.88603588665534	12.90524765571084	14.37594124025453	14.110328638691252	15.865617712018361	12.268180816193789	11.02424714166108	13.60940357586905
296	-4.216260899389145	-3.170144788367614	-3.0809838694032705	-0.9578307842867269	-0.09356433129529743	-1.442117687399042	-0.6267126782806787	-1.061701891125918	-0.871256885713038	1.2124224870588616	-0.35645908027297046	0.8025180677179468	0.19018816899919114	1.5891624648979679	2.7084739139839042	2.3103339613758296	3.971973647579763	2.871049873732741	3.970548858154649	6.735990984122408	6.3276977379303485	8.549486138692943	7.747031192293654	7.341747265399417	10.700710269614163	9.722360586415313	12.876087156211709	13.223189320557527	14.288349115536715	14.01992317474714	15.992329557096394	12.252876250802743	11.111366243919154	13.817547763270785
300	-4.6540918232715205	-3.6442232039950215	-3.4718537242971563	-1.083341357356989	-0.4472791541250927	-1.896248574237701	-1.142441389060498	-1.0926694842407865	-0.9014818049558803	0.9521108841699426	-0.6587821228560832	0.33724579129903365	0.19924068400624298	1.8657754612546409	2.579477780505267	2.1644232218455373	3.7486894036061478	3.0972273271564488	4.458174694249562	6.664405805927899	6.31668232276651	8.53628633251289	8.007329920579334	8.053277949027779	10.576590511321578	9.644703840700734	12.977245298046151	13.547155346045743	14.050508463671385	13.853956187556303	16.04941173316077	12.03922936260924	11.011908503386568	13.806371653985035
304	-5.173573480895502	-4.005495538135387	-3.755023946818304	-1.2759395805569436	-0.7159093600317971	-2.3025388659517847	-1.740833397284811	-1.3046534028492554	-1.085236785056061	0.6638658029961412	-1.0293505165814376	-0.2250187987368443	0.13039794531324814	1.9446685265080306	2.342350238608229	1.8901437473259293	3.4531857880192147	3.227981320814364	4.701085555605265	6.415813906683707	6.181498988757229	8.447822549472079	8.176837900498047	8.438587167415319	10.242382023701017	9.421555495316863	12.938220945117335	13.624842609338373	13.549412693146978	13.461918796883504	15.805993040232863	11.53703114457785	10.612187358765885	13.426147427039737
308	-5.6328177309872425	-4.22341870195286	-3.9361665149492198	-1.5865082700728208	-0.9572303270967756	-2.6731069020492715	-2.404416793474719	-1.7728643372597876	-1.463491793752243	0.25529494817174164	-1.5216897687639988	-0.9057282782575369	-0.15629824956533053	1.711020942182773	1.8703745556338984	1.3763591016351957	2.976194612618277	3.0980317514403066	4.548043239554892	5.876592621271429	5.776066288670008	8.130027750469747	8.119473436836726	8.310437181471777	9.616421675244794	8.9461669696006	12.608015028592627	13.309997524989237	12.768988577075367	12.80144783602662	15.179428062261566	10.763514491562532	9.92295453427312	12.68352791444934
312	-5.828379616327236	-4.269370545098561	-4.008315076244723	-1.9868097255135728	-1.1974916427896125	-2.9675936623989037	-3.0061428471007705	-2.409316295262886	-1.9667240331585836	-0.27401113440950675	-2.066607708481658	-1.5912241895555432	-0.6566191895119347	1.1918761700102112	1.17147457303871	0.6902056915023322	2.3703758656737013	2.7140607765338856	4.0117988485137595	5.095501886854333	5.142794596085516	7.603906612271708	7.837531546832008	7.686172465945843	8.774797417420961	8.27892110641707	12.021910637067027	12.649535147201178	11.830499619178712	11.981014221459832	14.284623109991923	9.857908224012542	9.088003135624334	11.749181717772691
316	-5.61062859072344	-4.134774674466703	-3.9595446486639996	-2.3688466489112048	-1.4082257712095863	-3.1114387433650754	-3.3682246123151423	-3.007813207661739	-2.442548745664212	-0.8147876242093385	-2.5000793870747473	-2.0806107468526758	-1.2141292064530511	0.5558965788157648	0.40709504382348694	0.052640605584992665	1.8354558898361342	2.2567198219543076	3.2783503449639277	4.28551863542034	4.505143154213986	7.065138322158578	7.47415111562055	6.791852457064867	7.9440974988639805	7.636870364935064	11.393266649091212	11.878849953224119	10.962280245760404	11.228102655672762	13.389693226387145	9.037285781931581	8.33022020144136	10.887021037271214
320	-4.985312449266323	-3.8514339826619284	-3.7945339583915243	-2.599103444213041	-1.5205917320007187	-3.0438458842675424	-3.3577444468600346	-3.3529076491580128	-2.7337603500009946	-1.1948356598251269	-2.6501464776840233	-2.1873586122600432	-1.5968098600126321	0.03547387188657424	-0.17429892674785713	-0.2736486189608981	1.6215063292572254	1.9844307849373037	2.6232163839867564	3.732210149878833	4.15983914278721	6.788878423716663	7.240105133850618	5.959032997345025	7.406350593941143	7.297934036902857	11.014294596520193	11.320571870832365	10.40740582699531	10.795027705594297	12.800397840606907	8.511880853143357	7.8607635299581675	10.34154317152195
324	-4.139419068375876	-3.4976510913279713	-3.551816692921563	-2.594907992487183	-1.4666401110813303	-2.7633430888026482	-2.9630834981494263	-3.330023280319306	-2.7582428385713844	-1.2632219759519066	-2.4313933787947937	-1.8372051669465859	-1.6182075698051046	-0.18557627452250042	-0.35341292530477014	-0.11900454729552018	1.9033091020213886	2.0920066780678	2.2792854251535606	3.6575128939791686	4.329173077143619	6.99303339146294	7.307404022840862	5.4692163329322785	7.365589123249379	7.4700627138364375	11.119425745546755	11.237219782114588	10.31730077046011	10.850542994760774	12.732751814166368	8.40347383284821	7.797856788021044	10.24108502663398
328	-3.3685963068790232	-3.17890738638321	-3.301159850368986	-2.3751828610534105	-1.2232583730330906	-2.342899078175935	-2.3090510310049233	-2.979169838059374	-2.5458702976799614	-0.9664940213597334	-1.8951926183535264	-1.1121561499172954	-1.235229846696713	-0.06062272548270931	-0.04528878245244263	0.5075268732608541	2.68764375961755	2.6013441020137806	2.3245649279078933	4.110342492216377	5.049701677924557	7.727066497367253	7.720304469643847	5.425774560581021	7.845793227414177	8.188869455643452	11.774665802791358	11.703884095206393	10.68379876300403	11.405665368847506	13.228275265674082	8.70236108490121	8.128199556809811	10.55830189900203
332	-2.939936392037213	-2.9855589791260067	-3.115708104850268	-2.052574629369749	-0.829678354552755	-1.900951857535763	-1.5989769656819044	-2.462732785682832	-2.214473718774226	-0.37332633043447105	-1.20565974407972	-0.2145716244525367	-0.5692929611137904	0.3034808330026292	0.6641763431946369	1.4282191955746961	3.804083099297591	3.349572411663382	2.651516430836082	4.943418490326685	6.156157954885662	8.845077492316763	8.373806932288346	5.71907328115399	8.675277688057967	9.294878936188448	12.847083059300074	12.567265478829787	11.341777772878435	12.305561988279587	14.14473339324306	9.277547812880155	8.720582940018778	11.137199373736744
336	-2.961712829741632	-2.947623245426619	-3.0316812915553353	-1.7663968756901178	-0.3674142053387715	-1.5415180882634976	-1.012177941627846	-1.9657003829917956	-1.8976482105027832	0.36561101582725664	-0.5537238703098979	0.6321366413369003	0.1612011488182412	0.7113888245741551	1.5689932068312145	2.3950402676194864	4.985500799943338	4.0761909381949355	3.0342883987112286	5.889666542442033	7.367572288985338	10.076419804881752	9.067131019588164	6.10039709458333	9.5685081240352	10.503512355988505	14.067417109258576	13.513303722596055	12.042759864919661	13.292620625313871	15.22239204378151	9.932867978767135	9.382723784599474	11.768834084361258
340	-3.328891745745747	-3.0109691543853385	-3.019976131443897	-1.5976860482886182	0.08428859689412535	-1.2982928720120426	-0.6152437909805333	-1.5910071094398193	-1.6707901912467482	1.0967065068212312	-0.05906863123166248	1.2895517316685112	0.7576787452641691	0.9870171522016248	2.4496314463757	3.2174897112674885	5.991977676522101	4.561907279894645	3.256022445087439	6.695305330538606	8.424122789094904	11.151516886212802	9.602445578173148	6.322864993344162	10.261579487641807	11.529351205327222	15.148681602378256	14.2104720710556	12.561058966394285	14.107987368250384	16.18811984743459	10.480609867337831	9.932303403573247	12.274825065139417
344	-3.777275552749673	-3.0540721339365478	-2.9907467289755796	-1.5215275249213296	0.49129608149465825	-1.115718838735815	-0.33731129680347643	-1.3124015298133358	-1.5206836423627303	1.7359081462901658	0.2859885685375918	1.7600998834040753	1.1382476062646898	1.063671347793614	3.1753377834259138	3.849165668306083	6.7136959860097525	4.741831767508006	3.225384227238768	7.236371498911315	9.200596786157933	11.917434662294182	9.879523252339316	6.268945201305003	10.628640148030986	12.20124050874561	15.901528318311973	14.459271394463087	12.778984037560386	14.583361588851938	16.848829226869974	10.800174685866946	10.251813862666463	12.561111418481556
348	-4.014950265284368	-2.9407772943635813	-2.8320557999633937	-1.423817392569147	0.881985662140876	-0.8776226617589777	-0.020102931135801794	-1.0087379191679642	-1.3688000406038656	2.297597879330959	0.6027017816585611	2.1661269610074956	1.3610790933577341	1.0129617427046635	3.750700941152949	4.390198219659223	7.2009215173113645	4.724590289585228	3.0235540790514404	7.561490516645156	9.741170858584619	12.385135619365304	9.933303807928631	6.0037712899261635	10.724175426110095	12.515597311845978	16.2918166702929	14.270176851483473	12.716403929075806	14.687088929288294	17.13835902655402	10.863798114051038	10.312334988307118	12.62687012345469
352	-3.8602671525767605	-2.583618634376648	-2.463550322988507	-1.1733380526482629	1.3305356468940164	-0.4671855557090502	0.4880166637497184	-0.5569748268370294	-1.130198237426675	2.8695125507385755	1.0537666055777153	2.6688496999115827	1.5651336868824628	0.9998633836297625	4.2890939604235205	5.011776911479781	7.612486820074752	4.715501296535666	2.859294884138396	7.84577510760221	10.206208203296743	12.69213387145886	9.898567174715552	5.733178124258027	10.736103030755274	12.609354941003794	16.42129321720721	13.837005580299294	12.498576132689735	14.511386834700161	17.107828097065674	10.727508517837519	10.16503331478986	12.535140005888435
356	-3.3154678261019046	-1.9857501933507204	-1.877522940663763	-0.7042272073131838	1.9158509921340716	0.17349827245777197	1.2463724581721818	0.07740053514965994	-0.7676920275379298	3.5525324254942188	1.753667469365445	3.3738849077873017	1.8701592636575133	1.1928902834338593	4.934279906212795	5.8490533681060946	8.11484239436795	4.890217768720282	2.9590487405454775	8.286437967360005	10.76709935330885	13.007203069271785	9.922746633272668	5.692592129640038	10.879529925534758	12.673031774949472	16.449113804295177	13.422486271348296	12.28466698405988	14.213326418277399	16.873493151978604	10.497762653549408	9.909938787235669	12.367296187647648
360	-2.5417587692937356	-1.2406371800570843	-1.1461743087440666	-0.05952501654497478	2.675796978870483	1.0130580638103772	2.188505644041205	0.8042924979884302	-0.3115840248347401	4.398015011173912	2.706502430758291	4.27114724034554	2.291857713635002	1.6748130279217721	5.773678288187756	6.919454557115017	8.785321213475935	5.289382921215904	3.4468889149424617	8.994838691889825	11.505852670230299	13.429343189665945	10.075423215223623	6.023195728353683	11.285154314159092	12.84821983908236	16.496793705297844	13.216326680193994	12.190459220625858	13.93663975057997	16.54846187228165	10.285437557955106	9.651821112106104	12.180580108407147
364	-1.7568219855775735	-0.488984374957526	-0.390633522477948	0.6305482371622912	3.5799086003518585	1.9433318327476725	3.156415692943292	1.4502313100439623	0.16535770851348117	5.374487386485655	3.800067415179922	5.237541185506949	2.725847952636328	2.3989915787209606	6.786890012771977	8.10602472166072	9.567517256422954	5.789759621307555	4.275276173287996	9.937707875910677	12.368725745444333	13.9318456298035	10.300503704767653	6.698995573296623	11.935536354448187	13.158575978435504	16.583583789917586	13.237278904872541	12.238855331038337	13.748718227006574	16.18937679018044	10.162383053871258	9.457629179918168	11.984227150223692
368	-1.1166300745428406	0.14559385143714415	0.2724399857795166	1.225653287654119	4.534574497218292	2.8262910771538516	3.981244315586142	1.858340258674841	0.6022661909156423	6.378774626839478	4.855887877602123	6.098469241957582	3.012355320000735	3.213556281559402	7.852699259958997	9.209917998902954	10.300513241510794	6.169895156541653	5.241993890879007	10.952900858882229	13.193396534988215	14.37923523133508	10.441180202825565	7.5393414307025415	12.67677113193466	13.505667652363869	16.624305683125318	13.333931889247657	12.357112853322773	13.620359386388266	15.782103498667203	10.135029767197155	9.331918692869834	11.7423219384321
372	-0.6498168690487622	0.6073284133836353	0.7774577121179185	1.6522178608187852	5.4125289780338965	3.5459766298412148	4.5607194785365595	1.9811402509261413	0.9871730779519635	7.274971943607559	5.701534733682401	6.708554727782986	3.0385689658696107	3.9302537342024295	8.798554398256977	10.035068486626779	10.799649211319933	6.2310252032317965	6.077318653021724	11.818717926703574	13.784035647876879	14.600488625857036	10.32450196520511	8.29090402417246	13.287372555563937	13.720767940211907	16.482892948497	13.276659931994793	12.411539046422666	13.448775257487977	15.26474948843775	10.138670895728	9.215104079822478	11.39566323264229
376	-0.2757154696179112	0.9213620997054921	1.1279275388850447	1.9343347500601218	6.0927648390483995	4.041619767475335	4.893412577672176	1.913157339034183	1.3544543947355439	7.9397969045450045	6.229860766894404	7.009095651096459	2.821558706789213	4.40256785234894	9.464004492707248	10.461055729203608	10.942878695516418	5.907568916664412	6.558225138318782	12.340500800447234	13.993253672556174	14.475878678967057	9.858800863170444	8.736266114112482	13.568697895124656	13.643654788856306	16.050151784428433	12.888274160270294	12.262728660140661	13.111096349038776	14.573967896859052	10.057659123776773	9.008085228111263	10.893175097619446
380	0.11700516164564184	1.165531036295293	1.3796974385713474	2.1650493090326774	6.497790320203543	4.313592899875826	5.0584201685031305	1.8431668235019687	1.7476293996556531	8.29774949839834	6.424386485092239	7.039577943194792	2.518258088429607	4.579773414493092	9.75227639597113	10.47593209482767	10.72380921517352	5.311802373826537	6.599584562805424	12.418379752276977	13.776473010566871	13.997611964171146	9.098660446083267	8.78067872691539	13.419678654167885	13.194016423292314	15.309804877728295	12.147643058624583	11.822361916257362	12.526824919544682	13.694390262361024	9.771498655444084	8.618935563261251	10.223257039008093
384	0.5839500412502773	1.4182090723471006	1.601336594353315	2.4334635673119056	6.613266451351203	4.405264843308927	5.156597601269173	1.948007697909207	2.171045297863364	8.333548524797214	6.3456935722355	6.9021262948296656	2.35045742395153	4.513315189410639	9.650632833910862	10.160803769207277	10.246090863108158	4.6859745860999595	6.280157073377526	12.070733039897863	13.198512997682817	13.274332012994323	8.236934641068974	8.478379228166904	12.867170301375822	12.405018775137858	14.359275781617407	11.210522623368515	11.091290445935172	11.702067345638225	12.6868772186401	9.21202085076532	8.014137247832656	9.433593726182465
388	1.0852743359821746	1.7126498179110823	1.835308308736043	2.754149906834282	6.486169321850315	4.37709378091057	5.252856718152606	2.2950279654733117	2.5611722404666453	8.086059549897161	6.094983562339917	6.707203371280051	2.489809268387298	4.315705288481333	9.221292472446013	9.644643759218951	9.671872114557921	4.295440186146023	5.792656407036326	11.413355798515589	12.400374381228685	12.48548313803285	7.531819324550879	7.988294581271925	12.04720303354858	11.411107034483182	13.38079067666597	10.344830486882302	10.167457554896044	10.738849612779589	11.684183091227812	8.408739068735795	7.251877289582616	8.63142583575169
392	1.5090620479630559	2.0186831900174504	2.0766928143521914	3.0447094363588683	6.201167567809133	4.282754410421215	5.346163736197059	2.802589647846627	2.8032858300958456	7.629425506402836	5.77114628288409	6.524325831153393	2.9600217267643343	4.097487439300835	8.571837403590125	9.051671958958249	9.1483001478012	4.3097538839248255	5.344761834955481	10.607924434582312	11.544106454313406	11.807236641637347	7.201016407905607	7.48609588640338	11.14851090477508	10.397550556634451	12.574787108144292	9.814845060363941	9.21842954215539	9.803700422330555	10.853077861087382	7.496438484338693	6.475886328559627	7.959824065138972
396	1.740059967416158	2.2607622089527686	2.2790472449936394	3.1670861164240423	5.846692070504635	4.1551260843274305	5.379354463347147	3.279692403142302	2.789746754278588	7.050484162649678	5.438916669465077	6.360076888239225	3.60896562618792	3.9165773292839563	7.819793204591637	8.464020707695344	8.748655297125635	4.725008475771916	5.061447130775762	9.803730939908604	10.760572406303845	11.345156640972933	7.328967075917523	7.077265244735383	10.343337986580895	9.53579423404211	12.085195510869651	9.768403028620845	8.425997712796224	9.068497634880123	10.337453816063524	6.674275858240626	5.867052063434188	7.554667930602811
400	1.7254604057617342	2.3583416879239336	2.3794040619857464	3.0050952358668432	5.481225953568462	4.000518788727786	5.275495515855459	3.52194308345414	2.481140845710209	6.4261731939195155	5.114456163845052	6.166335567164653	4.168936718905599	3.759257545516722	7.061398488336233	7.908130148948685	8.452439286826147	5.363847242164375	4.9335040921583575	9.092825866630223	10.117012952057095	11.102044077499817	7.832700709594449	6.753383619423955	9.73079583572263	8.929865814551425	11.948989837995763	10.181233380361752	7.921387175587578	8.647648789507118	10.206064198475328	6.128445132995181	5.570696339847697	7.4958939363054
404	1.4963200054537225	2.26650165939299	2.327610486829647	2.533519500057946	5.112287031617862	3.798028221078015	4.976451384377807	3.4080269250656032	1.9369788120956826	5.804274067529454	4.768141257645438	5.868256554092768	4.374854076784145	3.5596814065705296	6.350434287250386	7.362923603541753	8.167717913033279	5.947060093169931	4.835157382201581	8.491185166855276	9.61102769332482	10.990179034142114	8.499361016749184	6.412477477096184	9.311830497119772	8.592786767245729	12.089682548517013	10.87926575774978	7.736215571898597	8.557830788940429	10.42742631186908	5.951261028523095	5.631270871249937	7.772560576842236
408	1.1395424575645212	1.9991012761188311	2.1093308872373178	1.8415242387053956	4.70399903063453	3.5101492316314995	4.470665443577157	2.9530770704097975	1.2990108695611942	5.199725137933967	4.347706783761865	5.404901490870537	4.086770524197277	3.250560275454013	5.698692307389528	6.788161737469693	7.789517382982285	6.2109150729725116	4.60636328487884	7.956053713738579	9.194002128276633	10.884680720504663	9.07928464504576	5.935396179472573	9.008164383079325	8.46295640716092	12.359256713180642	11.62104126857229	7.794001082769548	8.72035215083479	10.885791751080472	6.099006160596363	5.969153866002333	8.281109788967695
412	0.743609664946907	1.6218780238211061	1.7524415210348	1.0965845557183287	4.207535256253215	3.1010651510145575	3.797527303644587	2.2900135459303077	0.7326835375407158	4.604817378815849	3.810248126900434	4.7612933992337725	3.3542909537504677	2.8130342889335376	5.092888819233977	6.157198890399392	7.2603444869794505	6.016743644782327	4.151633728989568	7.427074890458644	8.80849168460884	10.687573405938835	9.386508917951733	5.272262083093847	8.712525345739804	8.446314790381647	12.604628531103618	12.193542449683015	7.9460468091617935	9.00148961655565	11.428179712052382	6.41030739119468	6.4130334692212445	8.860018707794177
416	0.3586305668836226	1.2243808477006666	1.3187311854446326	0.4693281936717039	3.6030378250706843	2.561619275301332	3.0372154635994684	1.6009775359740945	0.3557536295015124	4.011713494662657	3.1546339909061643	3.986561765142419	2.398941510819476	2.299783462440065	4.522181499507882	5.484343991738079	6.6090755295783365	5.410452829052322	3.505678406447475	6.874895555304911	8.426302888576705	10.376327488450729	9.366569495394653	4.4955439454064345	8.350672700779372	8.466278054796577	12.73119255666298	12.48165508933646	8.04135511275417	9.27427670998314	11.92349716990827	6.683490259462479	6.777551633889304	9.350411391492578
420	-0.0017895948795122283	0.8850816465919827	0.8856337048104986	0.0653749553698791	2.934927217702936	1.9324263285485217	2.295934432908767	1.0422377560050773	0.19297930549536382	3.4405453118243225	2.4421095786426155	3.194390288870975	1.5270423850606043	1.8210970117367058	4.007429589644175	4.836870658106679	5.953629001844752	4.611473548690401	2.8320770192168805	6.336561663841808	8.072216967229474	10.01776025150202	9.105361915487734	3.7879485988347867	7.927745322239006	8.499239900111306	12.736836401253225	12.489027945457982	7.998815039466798	9.472776389047405	12.307558028618786	6.775516016066074	6.948750478366736	9.65764234011875
424	-0.3308853200664656	0.6420589073183186	0.5212508426857382	-0.10646291050257692	2.3103582800708367	1.3031508889675507	1.6815499024851466	0.6935883742940847	0.17763282313798417	2.9480078145937387	1.7840771630066246	2.5322403843842953	1.0069222424834006	1.4956604204563033	3.6068918613921306	4.315138805938818	5.455430970723431	3.924936046227574	2.347504609856812	5.9098558276693804	7.813191870990139	9.73383424208703	8.774990059632389	3.3608124171281677	7.528562526768574	8.572737672142539	12.69636246336713	12.308193175711908	7.840238074535136	9.607436155858302	12.588880507156562	6.666719419813659	6.930330258991856	9.78131959352964
428	-0.6022219642693306	0.48021823046557455	0.26014330917482054	-0.11903928935275593	1.8566806269499052	0.7816658000284367	1.2723766533198453	0.5512330518156678	0.19433467041065064	2.607848637672407	1.2971047130260898	2.127462620132213	0.9662374829692678	1.3895417416775964	3.3913707647530416	4.005336274524949	5.245747076141748	3.6157412437703007	2.208940738822985	5.704963192841226	7.715759734700487	9.635749792566601	8.547051408169304	3.3439791118117808	7.270005684617412	8.72858808221048	12.705822912561993	12.062784164490687	7.6672382161157175	9.736089681839635	12.814895597528311	6.457938654807333	6.827776891636032	9.79929158597694
432	-0.7724073509742059	0.33744442377724615	0.0867286694840379	-0.07976604232914676	1.6543445545390019	0.4410722542594007	1.0835387679399868	0.5509642944730541	0.1396451290896449	2.4679229197181902	1.0415626738000556	2.0275294729541002	1.345882889210615	1.477575059974926	3.397748223309328	3.924066056834629	5.3554611070842295	3.7938458823739745	2.4249310432245617	5.774933323584978	7.791079024671458	9.756332372828567	8.512745835746152	3.7060189153563363	7.22768495642226	8.971034981012423	12.814202276302034	11.850396126391662	7.5920295523651715	9.90670010926533	13.017177548921895	6.300088389702936	6.776956064280212	9.811463331246502
436	-0.8182183483446587	0.1275485303757935	-0.06572940929030224	-0.08078774044382338	1.6771854119871326	0.26944571665446226	1.0438084576002327	0.5989270195144659	-0.030673526150031005	2.5034882959101346	0.9738178824633738	2.160875076560306	1.925328965094456	1.6481622415892176	3.582709541812072	3.983846654370465	5.682151303250382	4.356633175340891	2.8383898663383933	6.060050472218154	7.957990149433153	10.014497731673831	8.64373777114541	4.249712456464111	7.375215511774878	9.230324721873894	12.977941480295371	11.70714375401164	7.659368018839445	10.104705785034945	13.166552510397787	6.295972808200877	6.855572206354674	9.870569204205186
440	-0.7801236490580565	-0.22679394426306318	-0.2950143806638517	-0.16758239226946106	1.7809549525118828	0.15619863530300115	1.0031748984758329	0.5965396746833047	-0.2880753271459097	2.6014678412560217	0.9458009576760165	2.346385711467913	2.4101157127565953	1.753725166661442	3.8118021391950943	4.0085415738942975	6.017756923740951	5.022737490370565	3.196362725770902	6.385584815115741	8.053458193473125	10.235379193213328	8.808154083901686	4.694485175678082	7.576132755225131	9.369385695643892	13.065515485201221	11.600687951362934	7.807326773959049	10.23889539040904	13.166547742026218	6.432164175960054	7.028669816391277	9.939358686148207
444	-0.7724769095944831	-0.7615314106787889	-0.691841004532261	-0.33353269015980297	1.7560245946417814	-0.06756167096723294	0.7814348320305152	0.45781323198126345	-0.5528850541460916	2.5946879321392284	0.7633857707777143	2.3595235288175562	2.5448119576100017	1.682947035355154	3.901013126060923	3.8034362696941217	6.132128700033	5.447984681679731	3.2727277196271713	6.525216562962668	7.89616868886536	10.22273156446108	8.830453850385911	4.806702601694809	7.639334182525279	9.237547851128117	12.913635221302455	11.448761911097096	7.891267279728565	10.177229855591586	12.892545667522693	6.580881102159286	7.1594924745998005	9.899697278777639
448	-0.9379731989067172	-1.449616547739301	-1.2952340808591818	-0.5348665104713387	1.4265510999902236	-0.5453588948785943	0.24741122064113957	0.1265492138051735	-0.736468790102265	2.338085407076028	0.283229558944872	2.033327335946054	2.2102203313337925	1.4173653089977905	3.699097624022493	3.2538237489565156	5.877760395468919	5.374731527110039	2.9806823655213757	6.306699736884731	7.378719788041666	9.852339719693104	8.566724755592778	4.512630451253187	7.41500661885215	8.748586632575028	12.409922568460438	11.155403109042346	7.7614626688502355	9.817076658258697	12.2603196788235	6.5728545022955185	7.083094578979698	9.614586805864661
452	-1.3615231479601895	-2.197479004080195	-2.0602452702958174	-0.7113620620887185	0.7521857004248272	-1.3056836095269522	-0.6022737607055096	-0.40104350346400974	-0.7800664285992167	1.7949807598571472	-0.49624174708008734	1.3509762253031021	1.4705083333081974	1.0437395546310464	3.1749794403024287	2.405418866760153	5.268876539279153	4.752384650629556	2.4170310436259768	5.710062489398175	6.543581946064493	9.143706298630669	7.96918533220518	3.9350628753493453	6.883458596970303	7.9437384404847595	11.563045472515102	10.65436932734835	7.353393536121966	9.153025604027063	11.289415330994036	6.2998509247987515	6.702240450150002	9.012240387097355
456	-1.9944094369125371	-2.8652362751146065	-2.8567328380938393	-0.8016726354385871	-0.12339566616852028	-2.217071766024136	-1.6089920956996484	-1.0550017330236325	-0.6734880191965178	1.0844126912394771	-1.401959892548038	0.47827637074833984	0.5493861422973205	0.714165864571874	2.4606971678596024	1.4778778515696205	4.490315902817095	3.765113582641829	1.8138244106274428	4.902385222455431	5.596262440857368	8.269502618892021	7.109926205804045	3.3301577483975797	6.184838279367694	7.001014214959636	10.521610233445253	9.944939588233726	6.737646085894352	8.302853563326861	10.125352833933011	5.786403164559437	6.052248462655332	8.146816233093375
460	-2.6436126165402416	-3.309141389121417	-3.507598868097289	-0.7569361309967874	-0.9135237313094495	-3.0229535026522	-2.493533843420619	-1.6936304526484327	-0.44998964553708787	0.4523881960414386	-2.1409623568840184	-0.2911998026171471	-0.25795283848485534	0.5716015086047576	1.8147311164814768	0.7900665978511598	3.8253171347359234	2.7518305709026376	1.420691605795728	4.179339398322694	4.83566759795957	7.492469291843832	6.159613593762436	2.95603870599192	5.5655341007860235	6.175963386201625	9.528154349112668	9.108895278821098	6.096856101855453	7.471528034419896	9.003701187289812	5.1859111654957	5.29631661031583	7.199653607310903
464	-3.0497682017574728	-3.4336898240181446	-3.8561050794518925	-0.5566219673408499	-1.3093353476845415	-3.450001946321931	-2.9681186601087597	-2.1447479670734353	-0.16617064136035906	0.16969110028816203	-2.426949256491561	-0.6634494645534362	-0.7040436846123836	0.6808618885969985	1.5127997360181944	0.6218969210182096	3.5296115786130016	2.0537781663540153	1.3825426066778725	3.8337521456246613	4.525598514574939	7.053557854963695	5.328681932347153	2.9443766996431897	5.263038621966011	5.6951474999643965	8.824720360410153	8.297113397630904	5.638391957352564	6.866005403349817	8.166068056470062	4.701630580475715	4.650662887275539	6.412135108017458
468	-3.0198171062520376	-3.232288590853538	-3.832841148236214	-0.2224256241666321	-1.1242699594722823	-3.3386423503506455	-2.868805401234746	-2.2740957679553597	0.11975075274274051	0.40243723886927385	-2.1179850047996966	-0.4840380239186838	-0.6887662393346408	0.9984642838064821	1.715712781389067	1.0786062451786975	3.7112429048298416	1.8596763563887528	1.674257989471025	4.013780106901091	4.769109713911304	7.06414650087202	4.795492160133757	3.2409310259055704	5.386726842631512	5.653719410927146	8.554017999033064	7.686804275178867	5.488896832913108	6.603012068289934	7.765878180924048	4.476818073413917	4.279302586241698	5.980339988868378
472	-2.5438795025494896	-2.8008201051570025	-3.493322840453889	0.17585502520507948	-0.39316776295578737	-2.7317807605437125	-2.245502227835901	-2.055465454634057	0.3611217430057205	1.1180306644822366	-1.2975007262849776	0.17776940718114212	-0.30049642844626023	1.39383792525287	2.3790109097498005	2.0251998850235804	4.2747683417157925	2.123327011469559	2.1212706512299997	4.641092765534564	5.448619828772854	7.453343372600574	4.6453628422754925	3.6418111232363413	5.855343803881229	5.9678473321921555	8.70069406220034	7.417605381357796	5.627558217145541	6.655766947154544	7.806536654789901	4.516784179727808	4.214974869576717	5.962478622641501
476	-1.8249250604330955	-2.312418455007652	-3.003754131362783	0.5302711115800479	0.6281560643549153	-1.8707722378228357	-1.3567310537416366	-1.599945064319902	0.5232837782999598	2.080176109784071	-0.2520082586601575	1.0495384905066032	0.22548136058145588	1.7085112290161968	3.2561764634891497	3.13053201838706	4.960967051378571	2.5978858405326437	2.4910001691869033	5.435663209542871	6.267933829695008	7.998337248635486	4.841588961775186	3.902957667987166	6.42732761667661	6.409780486136196	9.101098991304161	7.530811290800982	5.895798668281043	6.8688587968973005	8.14256952137314	4.688187110508436	4.349819172367372	6.249352916198219
480	-1.1917499273728955	-1.9558964918346022	-2.5743517810675254	0.7276334744202263	1.5699652393757573	-1.0919088097660834	-0.5594735727489946	-1.1157456608258962	0.5817973599050043	2.9454355165503068	0.651995478414447	1.779540176667066	0.6171760543499833	1.8254650785133972	4.003722657585664	4.008342255962672	5.467075334097352	2.967685930388783	2.6062707835198964	6.042314037326411	6.883275014664858	8.426316240017101	5.24268625843097	3.8631164930084094	6.813873750649406	6.714339239334544	9.518538451004622	7.941155413605295	6.080792411710464	7.037128907556443	8.546112038970016	4.797315108584965	4.501337040026818	6.617206556779488
484	-0.9383141374739716	-1.8640408468867669	-2.37126278278572	0.6955453139864096	2.109911674894543	-0.6749859435205863	-0.14866839311734706	-0.8168947080014735	0.5244895802607216	3.4149284276574314	1.130683419233922	2.098874086802903	0.6860756856762726	1.7145125822648997	4.337970245853098	4.386469829928647	5.584534630980972	3.0034015102851823	2.4215366779224623	6.196508391948093	7.058917027771209	8.535816171076089	5.653275952371137	3.514907828039773	6.81706236071826	6.703958494426671	9.745410894584657	8.456308343518037	6.026833042187274	7.007695180366352	8.806366898237252	4.701254355958843	4.514909732863644	6.8367595499995835
488	-1.173000690359686	-2.0603654332593813	-2.4468080935691074	0.44180524237667546	2.1118109172908706	-0.7182911020263636	-0.22419837060590483	-0.8216883519407867	0.36206167844913284	3.368736735421759	1.105603453705812	1.941753978595162	0.4058435847049425	1.4368931018790907	4.167494763342833	4.222352970906966	5.2869782314331575	2.663990014026025	2.0283751436520383	5.847627625006667	6.771368963311652	8.27991578872657	5.889948353201819	2.9912683888253366	6.423024161334692	6.371116145260913	9.685937857015084	8.84332845362489	5.713998303292047	6.753710252876499	8.816894508989481	4.387936581023576	4.345769871230134	6.7841119594952985
492	-1.7607167914759432	-2.448702806012444	-2.721178047939256	0.0643825901909385	1.6745125013035733	-1.1027665110402451	-0.6522450430614916	-1.0958831282603827	0.139213248735854	2.9152526781865697	0.7261763792777259	1.4644305669050852	-0.08769964404613874	1.1130714388401555	3.63380407369601	3.7092244531442637	4.7288918375785185	2.098503345913336	1.5979461629577614	5.17866991642951	6.211912139467796	7.775639991202136	5.845083221936919	2.484753840848792	5.80475471938371	5.878512844502664	9.385825133468597	8.92156217229944	5.264476762831521	6.384187205408576	8.61251924247667	3.981148471317585	4.076825608450902	6.496736033249418
496	-2.3924045502341733	-2.8517856525899723	-3.024276964181451	-0.27720573474514537	1.0718113156914586	-1.560911889903681	-1.1408452958867323	-1.473004933452956	-0.06355453266548704	2.3344390333364546	0.2847869389019538	0.9549674367635911	-0.5735336527649184	0.8758414365590071	3.043517820303527	3.1743869701348575	4.159816731440832	1.5521907767207435	1.3010944095187023	4.517476547279771	5.690163121162284	7.239924412568116	5.522519574527437	2.154863352103438	5.238244997150679	5.479464040273349	9.00024221055294	8.640476204991534	4.877034175003567	6.087234004864365	8.34165666381483	3.669901361736587	3.864793290870997	6.146393760421789
500	-2.745695822459264	-3.0846612375580484	-3.1785464206553615	-0.420901237855631	0.6154262407977301	-1.8143932773557427	-1.3910027707266421	-1.7444686845604838	-0.1450856324347499	1.9429013680041916	0.06905517709701856	0.6831538659967599	-0.8569731690704816	0.8286868908940643	2.72351335791566	2.9217898771904505	3.8011007212991395	1.2328479258882128	1.2448937861483271	4.183014382291687	5.487620339843821	6.886438829201548	5.030550467187997	2.068417782329627	4.973556029160507	5.3977274758434834	8.718309380454205	8.102066019583312	4.725394713869086	6.035222038290361	8.188443163225093	3.603238573513781	3.846176853006012	5.942636474864449
504	-2.6479892663857587	-3.030656568504944	-3.0817594450391295	-0.2695458226551098	0.512578486102104	-1.7076485113898958	-1.243118521412819	-1.7680544808571366	-0.020064163902408727	1.9498100231533748	0.22846175672547375	0.7722184638553895	-0.8563282468156401	1.0176490519579657	2.8722383903465616	3.098857394977651	3.7514715099986597	1.2156836955848684	1.4468100034424929	4.3436999211316	5.734946713273337	6.83645818891636	4.538222301469336	2.195909256159353	5.125562654905878	5.726737484778439	8.681445099846595	7.51602075586518	4.875640856830815	6.300646766013783	8.282899835655071	3.811164846334765	4.058198441749884	6.01921413809274
508	-2.156342024127293	-2.6870775154936135	-2.750278465956605	0.16431890386579717	0.786980328957127	-1.2708786693911323	-0.7450343351627313	-1.5362750253037125	0.3404906681524134	2.3735935628091323	0.720170555680676	1.1558626860999768	-0.6230299457078844	1.4220403396943002	3.4783496768869564	3.649416199053322	3.963872661119503	1.4288387262509274	1.8472788287253514	4.954266535648418	6.369372351777767	7.081655007602717	4.209013451439913	2.4535303053899042	5.63528584011187	6.394848330564765	8.929533935890152	7.104749184790504	5.263926015915187	6.823580724654439	8.64048478806036	4.194662083525707	4.418534267713902	6.363749488022433
512	-1.5138385257647171	-2.1629104559649575	-2.3047714175208553	0.7606017570365743	1.2946680751538238	-0.685945807155635	-0.11211062194413982	-1.1720292538615893	0.8827186800604732	3.054522029794177	1.354187246718335	1.6355370241833491	-0.2951906912026522	1.9605187128159742	4.341622341638555	4.367187012136754	4.296379555345311	1.7186722712039826	2.3432142675367116	5.795241818101575	7.184749108294579	7.508903007622653	4.138869751971012	2.7558605601350163	6.313884242329238	7.207999688069861	9.393674826747118	7.001018983331206	5.740391239931954	7.443217735571696	9.156784988172845	4.586607921464362	4.772675502171344	6.827002031255908
516	-1.0092295382768306	-1.6273570019643167	-1.9061735820327723	1.3401887383003086	1.8185511781554868	-0.1790990526922733	0.39475768704883435	-0.851829526657931	1.4777662716748825	3.7504625225744492	1.9066314649127807	2.00087642164505	-0.013977597432311258	2.511152499534583	5.180617796215851	5.0137204997317095	4.6031541708122345	1.950482005916876	2.8225328851009626	6.588197214659125	7.940988997437502	7.967508295924015	4.326029289767523	3.047818414622503	6.940616113305486	7.943875292748818	9.933450673772986	7.188965779273922	6.150716289249987	7.97510145081207	9.657348608430038	4.846398341340681	4.981431471645506	7.205188733029351
520	-0.8226585367413463	-1.2356805770193666	-1.6763167338963691	1.737269635582688	2.1844253484887624	0.09733022724850461	0.6043704732894799	-0.7005234343008369	1.9673712203899207	4.258388031698555	2.2348735276063882	2.1429083293217324	0.15297780892372756	2.942786924561754	5.764385685672155	5.433098779312529	4.810771453155484	2.0825328774325396	3.187932244835156	7.121979695458672	8.471455552647276	8.33917615692412	4.682123649220034	3.3035175716917684	7.360146503939389	8.446405389441479	10.396952602839573	7.5184783745723545	6.406921847379985	8.29159066967854	9.975390409079697	4.9306688184228395	4.995079027915981	7.346036892463782
524	-0.9418078637186603	-1.066169497659133	-1.6431442457675363	1.8654708815206076	2.3381624162768833	0.13231176104518685	0.5114281164608433	-0.7215772848984684	2.2284274044994943	4.499713886344392	2.3348545969187797	2.0980777687507146	0.2355402255071934	3.154164783143677	6.004213794807859	5.606871590763443	4.939791190073392	2.1724247877585627	3.373223296231965	7.329756718249515	8.737128235692337	8.577094056408884	5.077553259427725	3.506711235729535	7.533660392814053	8.6762065668398	10.676131221519482	7.784044246094248	6.511960966835246	8.366515138483514	10.02005956027307	4.9013604994050395	4.872122275449318	7.221400719530167
528	-1.1850484579684284	-1.0942205163032157	-1.7344557003099461	1.7492859319390683	2.3522720277524902	0.044284880049476824	0.2619917684139281	-0.7984118441450926	2.2272708359751925	4.534255493160259	2.319136613712614	2.0085411021066557	0.32828596151437356	3.1113693635587323	5.968482956122435	5.631873116579227	5.069179045276504	2.3192341269112204	3.3575758849250352	7.2882318312693934	8.811326004670045	8.702842690429778	5.3980812890139775	3.6375546363543876	7.52718875891926	8.700395562140057	10.737221690725594	7.827923278118473	6.5320439173765825	8.266811349977917	9.80526635555414	4.871615874388585	4.734696376290669	6.927864534053013
