time	FP1	FPZ	FP2	F7	F3	FZ	F4	F8	FT7	FC3	FCZ	FC4	FT8	T7	C3	CZ	C4	T8	TP7	CP3	CPZ	CP4	TP8	P7	P3	PZ	P4	P8	PO3	POZ	PO4	O1	OZ	O2
-200	-3.714991560139591	-2.8129563260583685	-2.525447123827106	-3.5192866236524973	-3.2519373811634265	-2.84382652518392	-1.942276472909944	-0.8604336955281142	-3.5499606042879437	-2.917057268407233	-1.850459690190404	-1.1741220921436588	-0.1734485919864771	-3.024498693459456	-2.528661959939595	-0.5120019303746473	0.8851209260527906	1.2577551571561996	-2.219203466534501	-1.0516760322721415	1.5033812484931455	2.7691564490022045	2.3238899649121607	-1.0241966221700114	0.6013141855316934	3.15219711461532	3.8982779881283753	3.3037936604056712	2.4791886743894542	3.345985880987012	4.005661000628866	2.2372772637148213	2.24197625547847	2.854189627116984
-196	-3.591789951792808	-2.54477881742759	-2.2368225994856226	-3.273066750845798	-2.8986854480037882	-2.3844830929635235	-1.3853534425090936	-0.37391090298662977	-3.535871258391509	-2.5898234778821005	-1.401246424951878	-0.4641279864514042	0.07043619436123584	-2.9428408071604952	-2.2569420280694694	-0.07496549170163762	1.6708611207738517	1.4043983185596427	-2.1963894311764514	-0.8680598713892921	1.9112448644067483	3.1681089321258056	2.1342644637582286	-1.2455565897965561	0.7191575151406312	3.1360392491318225	3.8218855761355788	2.8865821288662556	2.5220396455031895	3.0875713747272147	3.558144083576364	2.3311672151837044	2.116092676542145	2.5127623017766125
-192	-3.177197448338211	-2.2418866100929544	-1.9521998117749657	-2.875157110584554	-2.3985345303059766	-1.949292416419452	-0.9358351803040219	-0.007864510620645995	-3.199642411736743	-2.065312141926091	-1.014122602763378	0.11367823154835535	0.22199131492357274	-2.6208474569907843	-1.7611660912871256	0.31553465048280105	2.2271838131940402	1.4516822063034216	-1.9389971445719711	-0.5724297747464652	2.178973430854212	3.2778112805579402	1.8635051203408781	-1.112128850990057	0.817900178751651	2.8901138232695702	3.4693410308983488	2.3206996859132576	2.389775031731901	2.60530566511413	2.86624955407323	2.2664337100981173	1.8877035331749856	2.0182092138833934
-188	-2.552408927195313	-1.904935116726756	-1.642345781948141	-2.365228408563895	-1.7880141689933886	-1.5374706944748882	-0.5861433133585399	0.22174060288711925	-2.5327448780964006	-1.3640034164323211	-0.6865787488769068	0.5192797170879926	0.3308660081616071	-2.051319355553949	-1.0453511450124144	0.6497100575255944	2.502873414396184	1.3727335895212414	-1.4374917709297033	-0.1457093652384272	2.318993085728357	3.138297549907371	1.6170964200200073	-0.6010689720237065	0.9206874943376274	2.474907153556758	2.9500920698069826	1.8014240219410993	2.126911396378722	1.9798450419984421	2.063907141242993	2.063234324014467	1.6104778010715688	1.498726841003676
-184	-1.8409295035613282	-1.5167175493093892	-1.2678357330737418	-1.7934877827185827	-1.1285028429149644	-1.125061985990058	-0.27867883373472757	0.3406679919701725	-1.6491328436222896	-0.5657562003156825	-0.3856720318593711	0.7759854177910388	0.43912747391457935	-1.324293729299607	-0.1960966731127297	0.9380169487158718	2.529186480812294	1.1535677880726287	-0.793819425486033	0.3642700901371302	2.369819635130062	2.8461043762829052	1.4191174471311843	0.1126642373339965	1.013376710240542	1.9960927912860338	2.3903579651563325	1.4159901106370048	1.7807817414146028	1.318662997731182	1.2834622827550526	1.747554893849872	1.31178748276441	1.0405126783803433
-180	-1.1461899251609582	-1.051059243409563	-0.8028811196083571	-1.198010680035006	-0.47743987916567393	-0.6761145574665588	0.058773930967475796	0.40365481274734905	-0.7347715478465708	0.22052946631066353	-0.06645055098445779	0.9505229568324906	0.5612751827374269	-0.5857807979099312	0.6478710158203376	1.1984332769653967	2.4011824070387933	0.822105584453161	-0.17042696432953994	0.8608205296717298	2.3748433529976274	2.5194494660663698	1.2320677010900727	0.7483699898898748	1.0593814823106704	1.5723633726475958	1.9016627025275596	1.14410638520345	1.398587938592318	0.733727512891321	0.6343156679350974	1.3496947254436666	0.9965983008018549	0.6795959455498102
-176	-0.5183905349994783	-0.49848255389243823	-0.2580881112258316	-0.6029453262364984	0.12667719987834433	-0.16659040707012995	0.46661591412036996	0.46865451217583093	0.03146530679864764	0.892447171342216	0.29829996748951026	1.1107572289079488	0.6817334873153484	0.027843182836211167	1.3446137871172614	1.4345785343190163	2.226860279183016	0.45523723844986436	0.29008355663493424	1.2394156424701415	2.3558402001983154	2.2488591614211755	1.0102804873708569	1.068022010014075	1.0283610794806641	1.2926202979830905	1.5508556326811456	0.9146137810503497	1.0292456124068978	0.3152708105233689	0.18782906186842094	0.9106466151134055	0.6674566252069238	0.41649627580391674
-172	0.036912504490402065	0.10686601671417514	0.3109340957897502	-0.034663434984190014	0.6588939411693995	0.3898313929729084	0.9209479070299936	0.5707327709093496	0.5447224364832896	1.3791288102616257	0.6919988376312278	1.282677408794632	0.767639873473883	0.44347521550745367	1.7943857862945016	1.6178042847795726	2.06780552342004	0.15164156219820418	0.5288093076706222	1.4302469455848354	2.294580453801468	2.0529947229050656	0.7425031643240901	0.9963186358092748	0.9186655259780169	1.1795616120121275	1.3373937573045578	0.6684833748152325	0.7200883012710937	0.10628121319401848	-0.035851780234657286	0.4855190801283234	0.3429230442925888	0.23568294882874774
-168	0.5235876427782575	0.6799574477194602	0.8160206058880493	0.46258842828306523	1.0913333865268746	0.9303764081353393	1.3346468176523745	0.7058798056900538	0.8013834337028671	1.650638576154804	1.0492498848173293	1.4313034975154564	0.7883741835716803	0.6698617322221834	1.9660245130492657	1.688346620111724	1.904866809804016	-0.014980842321541041	0.5871026501137776	1.4239942991543937	2.1360526030969758	1.8655545664416608	0.45761388424731547	0.6487182958436806	0.7616689185939386	1.1794311970496882	1.1914234131296404	0.39220380684059114	0.5069171177463414	0.08965102560535229	-0.07309774290941337	0.1375974562270398	0.06306663139632931	0.11983896761678536
-164	0.9226297116827299	1.1097285719510124	1.1674057215780356	0.8306599834450825	1.3837518657080226	1.3580843175932005	1.5943461616317063	0.8328598716688984	0.8804643727961147	1.7154177383981735	1.2792828050739544	1.477389927948721	0.7299941759752402	0.7778990845113659	1.8987420749409394	1.5803983171616112	1.650848622922462	-0.03621994694863445	0.5732867107222374	1.2721590963669644	1.8161849929731675	1.5665601452376259	0.19594585846066756	0.25988554888914017	0.6083230360884911	1.1870763271878568	1.0010462974069883	0.11066383840515953	0.4031422128035749	0.197281822064129	-0.005683034178422437	-0.07683559487732454	-0.12177511273871668	0.055744044341967794
-160	1.1886843412905475	1.3115510907438277	1.3139480319227734	1.0260401938282597	1.4971005878797303	1.5843088586861618	1.620101328574127	0.8953901506705706	0.8967968202837183	1.6154169995530558	1.3120365109696528	1.3461345400202214	0.6018650516573167	0.8597944953191567	1.6847672419927096	1.2631393639144564	1.2090837924948423	0.022079126853630754	0.6046252235406068	1.0667136880645582	1.304288145586994	1.0503599617188235	-0.02593286515185388	0.061892639689345774	0.5098419772627301	1.0994037361997973	0.6659705622071358	-0.14224529230443939	0.3985328068207972	0.3428867152616899	0.0719017384621118	-0.12405641345650965	-0.1699322606803144	0.03705688556613503
-156	1.27965056573129	1.278283831230041	1.2715281215989653	1.0566033098247036	1.424222465734018	1.5780421455595888	1.4151444399390667	0.8494486191283892	0.9523060893810892	1.420303221931352	1.1421015233768468	1.0201547120087076	0.42959374080914836	0.9905346010948742	1.4400451146961448	0.7739902715215093	0.5457205162575336	0.05071351291846375	0.7576675991956242	0.9087209678595087	0.6368065460339721	0.29663225933522774	-0.22927462996770703	0.18131820811746424	0.5035954701106847	0.8707564451167674	0.15449506005381564	-0.34899777085882505	0.4707891333137826	0.4644791770175341	0.09547821408246135	-0.0007587495473614683	-0.06410063041954041	0.0667500047190533
-152	1.1962071626979458	1.09633803090816	1.1219332189844076	0.9968785022362365	1.2140921323640943	1.39193904048441	1.0753098699123618	0.6835150701431868	1.102577445107495	1.214403507027615	0.8425324537939831	0.5644608721786941	0.23999701379740898	1.2045395343886396	1.2682052818704161	0.21968507711258484	-0.2676974230206469	-0.049332614863535726	1.0457872125924903	0.8747289158670833	-0.08090736696558556	-0.5970880970184984	-0.4563637066286304	0.600933967503631	0.6064095481820978	0.5388367758498035	-0.4681690323453611	-0.5154966698982946	0.6014307722165797	0.5529587850914927	0.06190555527077793	0.26723325185063046	0.18170951260942675	0.15604270955266242
-148	1.00175153956219	0.9121984220362148	0.9793153380464179	0.9645034646478401	0.9686058139187937	1.1462665767339457	0.7488102297950744	0.4217469681582137	1.3463101353032862	1.0739061805314454	0.5369447456154752	0.10593364361004952	0.04707380372321779	1.4902453384921308	1.2266976802372367	-0.2611520283781301	-1.0695433589634809	-0.3205926112187034	1.4251631462354881	0.9909840201153459	-0.7106311303316833	-1.4444661103972631	-0.7353416066677634	1.1920610636178375	0.8127588013155961	0.2052572513404865	-1.0603750917365675	-0.6603458507078175	0.7843743542894815	0.6492350681125785	0.02726679847210777	0.6326873286485897	0.5243726955526121	0.31459763566697524
-144	0.8044142106727542	0.859763620113241	0.9371442771139186	1.061414119901669	0.8043034652430411	0.9733378266555648	0.5637038335873132	0.10925447913242312	1.6331508118404356	1.0380890343206055	0.3406670680981808	-0.22616642656445218	-0.15640892048923782	1.796720977061616	1.305305596870741	-0.5585423693860196	-1.6790349441098433	-0.734284160667473	1.8162170602719756	1.2225391833910464	-1.1400779456918313	-2.052538628164396	-1.0565165254621298	1.785290951989766	1.0932064028795676	-0.02094545396344567	-1.469922658070113	-0.8033445457203157	1.0183804009475135	0.8086619952765925	0.06822901201903393	1.0351107094379883	0.8991393424221216	0.5324044810204625
-140	0.708608804344205	0.987356541048119	1.0212503645862026	1.311864849593133	0.794651923557509	0.9489237642172044	0.5604602680361152	-0.21165858155694495	1.8822189521951807	1.0871623727053132	0.3012914053939449	-0.3674012413285656	-0.39496227999150935	2.0453283735134105	1.4263130390395917	-0.643523631855331	-1.9860539386197291	-1.2096343009925978	2.1244003719099642	1.4809097014231107	-1.3340824808770657	-2.3155100287150563	-1.3774464095624432	2.23302196892576	1.392101761164236	-0.08583784081721584	-1.6122543771092586	-0.9639412140350935	1.2868761983805885	1.0530371639367957	0.2275281393743916	1.4065532648814116	1.2303864924837826	0.7640086989186892
-136	0.7643941025508338	1.2280396192063217	1.1749215096373682	1.6353778797822005	0.9261609888535323	1.0495874855244849	0.6682852489764992	-0.5185903893729056	2.005724901857418	1.142490026450512	0.3728519072655791	-0.35441082626508025	-0.6933636647838488	2.146400923078173	1.4709335528429515	-0.5817165360068929	-2.008887285882637	-1.6528170067065548	2.256750101113777	1.6505686003020141	-1.349134560993482	-2.2680189552265615	-1.6523829656843962	2.438683503669576	1.6306227404433151	-0.023134080634717787	-1.5166856012198702	-1.1635547846981098	1.5407658776483313	1.3400238718532762	0.47702270625794424	1.6785622792779678	1.4468834363646708	0.9309465861658212
-132	0.9438306665432956	1.433524128155602	1.2874649730601935	1.8745266151784692	1.0976194115583062	1.1636469334786999	0.7430998068167854	-0.8066235164304209	1.933686847573049	1.0968393059694554	0.44149145372504767	-0.30467304510441645	-1.0526806089526495	2.0229828306621127	1.3268536295769575	-0.4966315316536119	-1.8816083622156432	-1.9883408496246973	2.1389949267742394	1.6287279087906894	-1.2997684445943767	-2.0622301049618263	-1.8577206087893205	2.3554708898202197	1.722709174575138	0.06486870332075749	-1.3081531491630511	-1.4163069689278307	1.7016103224708148	1.5734891851752708	0.7272905688996992	1.7949608519058426	1.5026202163905749	0.9534919237859016
-128	1.1608417004840734	1.4579188786891037	1.2536988226708965	1.8690770817297033	1.1684278220240634	1.153117892215	0.6486551149203782	-1.0708312961245359	1.6364592272449856	0.8645439722168029	0.3898617913416671	-0.34850656898247123	-1.4339982234989483	1.6389629799470993	0.9379942393462697	-0.5021974431710077	-1.7764521792383392	-2.1689267103748167	1.7362722114595348	1.3635654415036174	-1.2956881490419343	-1.8802376938078489	-1.9943714091492666	1.9736664245366247	1.6016311605070512	0.0662535203810696	-1.1330316038135646	-1.7050738291606786	1.688117857485654	1.6504404503160706	0.8802493788429526	1.7273118452330731	1.3952010834754418	0.7982804159036946
-124	1.3186839785660898	1.2427998749826543	1.0324695084253697	1.537520762376373	1.030685899039614	0.9322205758400338	0.336051165209139	-1.2870622840811075	1.138052937495345	0.4265868653017559	0.16400791663246675	-0.5507221804065877	-1.7585968926852138	1.022196409505689	0.33308333074397584	-0.641997037697198	-1.8037384702918844	-2.167746299992665	1.0749779912510904	0.8750199653467867	-1.3845487798066576	-1.8298904849582178	-2.062472338237582	1.319060083873673	1.247650500962229	-0.07639580200695968	-1.0709388229034391	-1.9552380989300755	1.454308982992041	1.5173752269581804	0.8926272965782724	1.4863938055657588	1.1709004611016829	0.5128318058417598
-120	1.355544444476444	0.8522645213544034	0.671185610983947	0.9226191616606313	0.6658424718258369	0.5181491361887475	-0.12370951442479271	-1.4086242878635484	0.5151005970347621	-0.1534936573206338	-0.19428352962556247	-0.867002067761134	-1.9310599516751403	0.26964545181860033	-0.38114380740257253	-0.8680645205515729	-1.946252102706425	-1.9700485418171823	0.252804457503057	0.2492778443956965	-1.530935760447503	-1.8830913257739108	-2.031664843198176	0.46424949051947206	0.703372417104618	-0.3330527535612833	-1.0845341655052227	-2.033085579507455	1.0188953850770726	1.2037090032704363	0.8106055835285214	1.1223947973523827	0.9102393365766834	0.22178696039947626
-116	1.263084885269269	0.4367941904960929	0.28130423951652067	0.17599388912589434	0.15453685781085885	0.023933002664818546	-0.5748631343632769	-1.3868132794652468	-0.12249994992083897	-0.7533104400688991	-0.5686466679521226	-1.1622939080457146	-1.8800275278309013	-0.4753509747901496	-1.0609898540412288	-1.0713800164829528	-2.0674071259753672	-1.5772049387211875	-0.5778375253393487	-0.39318326016338984	-1.6442749458760706	-1.895204896910319	-1.8369320584649145	-0.4655884194540036	0.06359348430074942	-0.6071081146171017	-1.0431108448395428	-1.7900168850527853	0.4634125817042938	0.8067973831787917	0.7452878933209657	0.7072095257069908	0.6931805593155611	0.07410839926367324
-112	1.072341200982174	0.1470858152967501	-0.02110539930200631	-0.5060052858928696	-0.3639166941991491	-0.40139666098341226	-0.8606677033629117	-1.2046331136807007	-0.661935923812476	-1.2422610489952453	-0.8291675427483195	-1.2826927867929452	-1.5949324329162369	-1.0661438676619441	-1.5798784454511927	-1.144328710527901	-1.9898163029977423	-1.0244500611189566	-1.251374122321236	-0.9400664544212991	-1.6363480049781156	-1.6950762229084544	-1.4119167292233388	-1.3084975447996938	-0.5569976554159207	-0.7960476259160457	-0.808286128387588	-1.141685006120208	-0.10215840462879738	0.4362616229963694	0.7995986918288636	0.3053827278056429	0.5596184716400777	0.1639813776644475
-108	0.8212910869843617	0.047263175129771684	-0.1773907388738401	-0.9604420637677439	-0.7579138855872143	-0.6509875638738399	-0.9090849138195883	-0.9040949321808807	-1.0173084710185791	-1.5319224557346236	-0.8980123974061985	-1.1413227290901777	-1.1404432029540927	-1.3992286885220357	-1.8683602762734444	-1.0378013823056458	-1.6000521142616484	-0.3960221995845517	-1.6425446230426097	-1.3198543753679444	-1.4724396430033335	-1.193811652030471	-0.7478507142259027	-1.9098631095350538	-1.0626548501841808	-0.8529984929483145	-0.3310851744398929	-0.14353997969149807	-0.5876047000354532	0.15273262521806302	0.9919686888445494	-0.05178385587373488	0.48678371187332997	0.4691048848706167
-104	0.5328601585286198	0.08373187461216759	-0.21304316764925912	-1.1099572153677935	-0.955862877339791	-0.7091056686617982	-0.7689403276103091	-0.582053242644379	-1.146289107289614	-1.5984450538332717	-0.7808417658164974	-0.7675572614364328	-0.6356755479022146	-1.4415374957882632	-1.9201649378934436	-0.7792481760378059	-0.9180210209556877	0.18561887694224605	-1.7061428980666709	-1.509309764866117	-1.1850122183444964	-0.4472444344195987	0.06424019469492961	-2.1766436045051134	-1.4016402924435594	-0.8104230741066799	0.3003921799228113	0.9897152160452156	-0.9565594768215223	-0.060937940920517825	1.2267960279008678	-0.37348434234737166	0.39954912561629646	0.8462755658717824
-100	0.22357867601690085	0.1300797757202404	-0.21109141356101666	-0.9648854708152411	-0.9549549197882199	-0.6402426941919532	-0.5724573716969265	-0.34742763550779354	-1.0458673212348661	-1.4661673270401656	-0.5463679419074493	-0.28879040406747464	-0.2018161857993239	-1.2252435653269675	-1.764568682030183	-0.4425213027748767	-0.09040691680732416	0.6019690617621871	-1.4826211891888703	-1.5155932865024744	-0.8424506762215578	0.3658455601038556	0.8459664561847577	-2.112202877433924	-1.5656981428670604	-0.7503890972265435	0.8955225325862824	1.9499702404381265	-1.2269673316495198	-0.2771083407558283	1.336322542631359	-0.6921929699587711	0.2126521462793586	1.094457861998112
-96	-0.06875799578949937	0.07816299776370171	-0.2501779490353383	-0.5875369295545146	-0.7901307324487762	-0.5305402265505293	-0.44866630321712575	-0.26333734326633523	-0.7362921815402413	-1.1699444026018995	-0.2722870402614091	0.14198219740306506	0.09189986414356642	-0.8176300505022109	-1.4289729559106228	-0.09360621845930758	0.6844621879462766	0.793543873213932	-1.0690809461304809	-1.3505399193044478	-0.4969599234431728	1.0352467272370223	1.4017598593606768	-1.8127653553017475	-1.570616956560086	-0.7418168168412345	1.2593787876757818	2.4640605387464967	-1.440799232659939	-0.5639295563765077	1.1731153696959442	-1.0325902674353795	-0.11755134880666215	1.053726908884395
-92	-0.26368817620459745	-0.08161680379765289	-0.34511563094743813	-0.048124737916082926	-0.4902250158330711	-0.4205798496118135	-0.439647077404097	-0.3053539685646114	-0.24535179076238223	-0.7240517717200712	0.006552530901726799	0.43050920854594227	0.25632733041896727	-0.2846433215107301	-0.9180310345359848	0.25163197453864056	1.2556782929188894	0.7944228629082155	-0.570601759900464	-1.0157897446735367	-0.14699830077727957	1.4266391956549793	1.6125802953060675	-1.4211046659829785	-1.4330074750959931	-0.7847731093620222	1.2973412242559614	2.41921233520067	-1.622800822929189	-0.9265583134146019	0.6993509513364204	-1.3848061526621478	-0.5607714042810572	0.6862401348907928
-88	-0.2508140498027753	-0.2438730889362053	-0.428349732271182	0.5991789683472954	-0.054971497367113556	-0.27421355178265294	-0.4708890008958516	-0.36442726758500604	0.3951479484595159	-0.11994915425295508	0.31504693547815776	0.5885145053310077	0.368209450507357	0.32916217959268196	-0.22389015498854944	0.6311483367243748	1.5859346349729508	0.720784721938891	-0.05946164190657735	-0.5096757995135158	0.2606556707000162	1.542473193088967	1.4977295360898122	-1.0605242225574192	-1.160130021027252	-0.7982007244938312	1.0640205118018267	1.9145882081330483	-1.7550673440491056	-1.2868809667521586	0.01854595909800666	-1.6983070330657026	-1.0193369362844538	0.09388226246972667
-84	0.05504123852661498	-0.25114020641816276	-0.38870206377120037	1.3058526482991084	0.5262996541086906	-0.008368958697945137	-0.3996009518547978	-0.30525413078486463	1.1351292104672042	0.6412689073584602	0.706121800547231	0.7117968779712572	0.5143083917030525	0.9911152099381654	0.6357308014077819	1.0963010760284926	1.744866366749421	0.7084512096638168	0.4340964246757251	0.14510004185758796	0.7850055674760593	1.4988138637848285	1.2000218599539396	-0.7873458842426115	-0.763238189677623	-0.6655456406956048	0.7232345920422638	1.2015343874159412	-1.788077349916691	-1.5206942519894735	-0.6757222993002824	-1.9049719523971342	-1.3750990594478254	-0.5399824367241388
-80	0.6457676275161695	0.0012928823674983128	-0.14575302564061493	2.0017628619199117	1.228770372149423	0.43512850889972765	-0.11187253864176622	-0.046560432644353784	1.8881391239179046	1.5056990347040295	1.2030690878057433	0.9053809619933076	0.7315932493812372	1.6533470112065594	1.5799576004192546	1.6551156002218697	1.8399872733390978	0.8315801599488017	0.9012018419400771	0.8748117067184673	1.4305657112242893	1.4362145626046807	0.8995619989571568	-0.5823677167494199	-0.28174903917703403	-0.31213006298414886	0.44347637779802385	0.5423620925561434	-1.6799795585178587	-1.5315759143307743	-1.206232425505276	-1.9575636337447606	-1.5510240754068556	-1.0514388057865343
-76	1.38180410513097	0.48250090954077446	0.2841148369291634	2.579666608019439	1.9540106008786702	1.0216442320778838	0.3897787918740269	0.3820610930810275	2.52849745112043	2.345252031127148	1.7543091729694769	1.2028125494152777	0.9781996583083289	2.232413524713429	2.457070106024888	2.236534589842795	1.932072873005896	1.0519915792607857	1.3221745457646135	1.5510349234521774	2.1111738628491197	1.4214652740829592	0.7047271710722974	-0.38406568668672997	0.20175597020709157	0.23117196501540696	0.29248613045279714	0.06805753690702866	-1.4383975231094233	-1.317451473724536	-1.5110576114650975	-1.8602985096693476	-1.552166696444315	-1.380660768837775
-72	2.018846029906566	1.0189062331223944	0.7724647502469796	2.910113327308432	2.5326607163381905	1.6056894023409825	0.9619906520397434	0.8406198003526146	2.914249174389665	2.9784300252102898	2.2303874436333393	1.5276198348577303	1.152593967388747	2.6152446203960436	3.0784132402898874	2.698617928367309	1.9859571406768581	1.2304848401474138	1.6472489792242748	2.018591637283307	2.6613712243597853	1.3986186945889445	0.5854991063594338	-0.14093853497684417	0.5711525664214427	0.8154408315097829	0.1929258252279741	-0.28263562846350715	-1.1375832528957006	-0.9904611085680517	-1.6777199464401287	-1.67449080521293	-1.4640312157860984	-1.5927176435312647
-68	2.3012063445165505	1.3736506665834403	1.1298763723457006	2.8888416217346964	2.780857794416387	1.9829263637069712	1.3799602950541432	1.1440000505174392	2.935385219792234	3.2332117475894884	2.4716143545690996	1.7234473184941728	1.1540431947181569	2.697316639765858	3.285077086737716	2.8812949584694483	1.887636895182295	1.1988493173848787	1.8077079012053243	2.1485867446058573	2.8953487799976863	1.220311877030703	0.39614131946683456	0.152138009283285	0.7150087338515148	1.225236174351034	-0.031625490555786784	-0.7037100178117734	-0.8951705075551278	-0.734193740421577	-1.8899897289242185	-1.4935535154781023	-1.4085593188009073	-1.8250877811129216
-64	2.0796472973769586	1.3680928911000356	1.197461363630143	2.4904940065447487	2.5840973788822756	1.986776466121872	1.449606057321847	1.1570721835487052	2.565090411385708	3.020984165193793	2.3613395631299876	1.6365972716019368	0.9460000967937082	2.434510224871519	3.0139155311784367	2.675856583515108	1.5159006080501602	0.8538261034389313	1.7514836743956779	1.8910435390411868	2.6843049458442416	0.7396264653605584	-0.026031473585805206	0.4509700525342006	0.5758393988375882	1.269619580878076	-0.5474437461382842	-1.3794527019005176	-0.8180412033408334	-0.7187517863246694	-2.3171157778412512	-1.3987575734109206	-1.4811717234408819	-2.195110792339958
-60	1.3938109839534998	0.9778967475043452	0.9292215681457319	1.7965365602911465	1.9634890506762117	1.5774143894423993	1.1104927034951035	0.8672018625299166	1.8851159763425294	2.3828391968647686	1.885569567688125	1.2037428587085832	0.5813547358140198	1.8780728531150723	2.328889364084719	2.0754592366270344	0.8247024396101788	0.22008417491183202	1.4809681139748432	1.3004969325609823	2.0141577669789497	-0.09141215658950373	-0.7431035023047522	0.691444872064084	0.18428695155345798	0.8677455164935404	-1.4007686341205647	-2.3440816343252933	-0.9457367634737555	-1.0172899935787454	-3.007372371710093	-1.419160720103182	-1.702433701031663	-2.72086762695005
-56	0.4701505589535937	0.3494195929288355	0.4202434409975505	0.9774603819010462	1.085176226737122	0.87325876730741	0.4724183368676374	0.39259323378624794	1.0673890086881586	1.4829132519475323	1.1473867864250262	0.49535697573527526	0.17486242905814098	1.1687767476136977	1.4015802109617774	1.1827306717575445	-0.11202836008397687	-0.5523070679071639	1.067783353016997	0.5214811550325688	0.9970591639140945	-1.1724802226028213	-1.6487954813337127	0.8309919217109986	-0.3418043545199463	0.08826758690244713	-2.468304627862368	-3.4263558301249177	-1.22241627861383	-1.566062923292165	-3.84338997824193	-1.5160115918984518	-2.007356877027248	-3.2979168808642343
-52	-0.37304013873330455	-0.2754049592217378	-0.13702583278392583	0.23255939722950197	0.2006769324242858	0.10442681584219023	-0.23506540000695025	-0.07798158357720524	0.3149212292826439	0.5486356006122037	0.32843214190531617	-0.30875858586558586	-0.15892565210271858	0.48723935957916503	0.44873678570939474	0.17302468375390478	-1.1172447176382125	-1.2520325152257625	0.6302845462144706	-0.2612788968642142	-0.16650219219608509	-2.281619543037072	-2.496247046843944	0.8726955034157047	-0.8373768904525075	-0.8750089384875311	-3.4954841048679883	-4.314121235445781	-1.5142061672127636	-2.1875278894507777	-4.582931506983898	-1.598655219810219	-2.2745912017614818	-3.7424597645685314
-48	-0.869004724215886	-0.680725632379386	-0.5450977669304926	-0.2867286198052546	-0.4560197878291447	-0.48888283844540753	-0.7728733996905279	-0.38149452113154547	-0.21608225946707138	-0.2151127303176027	-0.3823650469662922	-0.9986788009224871	-0.36560505536279414	-0.019399803082838975	-0.344822793328396	-0.7665632943826679	-1.9798983285507368	-1.701050754067076	0.28216493058490427	-0.8864185191662747	-1.255207535435642	-3.162664643885767	-3.008809082064132	0.8576117732329928	-1.1531196803543386	-1.7777059033333793	-4.200918663862694	-4.701454150727626	-1.6663582282910188	-2.664324038454503	-4.96221779524138	-1.5657749136493375	-2.3797762333867842	-3.8744268319538526
-44	-0.9220369434919352	-0.7766232470931699	-0.691824970882857	-0.5330562578094358	-0.7642365674750902	-0.7607094626294115	-1.0013456319322944	-0.4576066422829935	-0.4770105767127631	-0.698285399104461	-0.8578281380929812	-1.4237136804874997	-0.4694719600745392	-0.29854792281114984	-0.8841770269005106	-1.4943485222281092	-2.5366356308789357	-1.8239582730972796	0.07799550871230573	-1.2673792807052042	-2.0940971321640847	-3.6259059814460533	-3.0114107055927195	0.8290032127430887	-1.2147440879670015	-2.4149875579896567	-4.3918752559403895	-4.435282696016343	-1.5757193525585562	-2.8295392918673303	-4.809176432865321	-1.355294939434044	-2.2486360016317	-3.597287645794431
-40	-0.6408207996401701	-0.626568494645331	-0.5924580082240359	-0.5718991145953697	-0.7571338992076528	-0.7135587912663693	-0.9306224561083509	-0.36225163845155245	-0.5388394580588116	-0.9116739607681603	-1.067995307133283	-1.545386548908943	-0.5396412001336612	-0.4082286049549633	-1.1791630953581655	-1.944714541293681	-2.723891728199739	-1.6586619573677621	-0.013315008919596525	-1.4105989897399716	-2.5948135787300974	-3.610880365791851	-2.5093755658690258	0.7933161238668203	-1.0501861545750972	-2.6863508156663465	-4.0326189892998165	-3.5796804337722343	-1.2415884701852977	-2.6301195555086343	-4.110314358824114	-0.9781391595940346	-1.885371561058681	-2.935136549214859
-36	-0.2692722075339592	-0.3917593946102678	-0.36408102420438	-0.5405310974779111	-0.5874548539588662	-0.477562545524312	-0.6896553618185105	-0.21331541186358338	-0.5491591678105889	-0.957021293608076	-1.0693545314493094	-1.4297282659673094	-0.6227049811853894	-0.47890323279585995	-1.313322183154212	-2.1246960109473036	-2.5783071452848336	-1.3108465638443612	-0.08902016259606174	-1.3942838872039538	-2.7574038435936443	-3.184997550552404	-1.6740426974946399	0.7097139340601953	-0.7703639249425303	-2.609477751819295	-3.236644021445569	-2.3676881730382755	-0.7674915175134115	-2.1352171843979133	-3.0026183052548108	-0.5178682194986303	-1.3651657070025067	-2.0139546343500676
-32	-0.05480516688099747	-0.23164947272465822	-0.1532477732603949	-0.5785923585588786	-0.44189190752996005	-0.23374678135507468	-0.440847753365421	-0.10773955258347542	-0.6550936682374049	-0.9637484526143765	-0.9627689694892555	-1.1934841841129018	-0.6929882747320012	-0.6416233761800445	-1.3895465100491664	-2.0893092102706556	-2.1965172235345274	-0.8854529239233513	-0.25810366803807866	-1.3235130276643101	-2.644430392264495	-2.4906670984327395	-0.7474879603587155	0.5142627941499145	-0.5160676227891565	-2.2875051440659133	-2.199013942888575	-1.078594562668351	-0.3152068547396864	-1.4935562572917551	-1.705470676884591	-0.0982892659805193	-0.8001246432130338	-1.0052356694590943
-28	-0.12534254757706464	-0.2226670825820076	-0.061854202144143285	-0.7630029301452885	-0.45112991219108456	-0.12690231171993144	-0.29446419999164153	-0.06519898755778523	-0.9287880635653749	-1.0266394589253185	-0.8469858148171328	-0.942044851785689	-0.6618852598645449	-0.958551702463465	-1.4807964525983235	-1.9136562299096933	-1.6863553481440954	-0.4417588997654796	-0.5799311980864431	-1.2843191591261802	-2.346927636896843	-1.6797369676142353	0.07001961004937181	0.16569045144209968	-0.3977437009306081	-1.8539276076239704	-1.1146696777811276	0.07995317856152721	-0.03393318868056801	-0.8666810371451842	-0.43587693461996024	0.16660252171414996	-0.29757890030116046	-0.06623814983333695
-24	-0.44039723165902367	-0.3373827627723817	-0.10974416854091959	-1.076699611806436	-0.6405231340449133	-0.211448653998576	-0.26837000183059434	-0.02807285257046693	-1.3321025337919157	-1.1732447117747804	-0.7882872799998172	-0.7321974020591552	-0.43810379394546894	-1.3898237908559614	-1.606707568880465	-1.6724301534389578	-1.1355150909365057	0.009711409894444956	-1.0263131831006418	-1.3145526614378484	-1.9561971376620901	-0.8688700177190338	0.6904677135201033	-0.31196930925759553	-0.4536995578278311	-1.421460028874232	-0.12279044805757959	1.025133130346358	0.004316144146303835	-0.3687078347433881	0.653891382950676	0.22088131252788432	0.0744703708198997	0.6994919163209583
-20	-0.8354076125987453	-0.4876344787683835	-0.24907644030150897	-1.4239602052976683	-0.9419698691427508	-0.4522244024780094	-0.3101344100751402	0.08173359164821481	-1.737779851340677	-1.3721890414879483	-0.8151752928179788	-0.5751935229084327	-0.006621047837706984	-1.812666769219538	-1.742054100406729	-1.4300993644847442	-0.6079323872476194	0.4753906416811474	-1.4878281317340125	-1.4008468354143127	-1.5487106999396738	-0.13088591363763108	1.1364904613411477	-0.8200594166078327	-0.6439436061813582	-1.0554257604654942	0.7042739373545697	1.7728093817774435	-0.16729477005682358	-0.03791172420347452	1.4947708807399214	0.09026976652004226	0.30223229451167133	1.2518267599925175
-16	-1.1291217775447493	-0.596714733524568	-0.4123653461058655	-1.6827290015651164	-1.2527048556171314	-0.7688292841573728	-0.3576838961153676	0.2909144751833277	-1.9954533526584979	-1.570509072153315	-0.9310473776198819	-0.46724435569097267	0.5289590941425645	-2.0821840710521946	-1.8466778946982432	-1.2381558387013496	-0.15768834908727253	0.937869784848293	-1.8231193973288287	-1.499003168136157	-1.1829173535045097	0.4867734896767768	1.4788022003984633	-1.2222746579782011	-0.8797862507542171	-0.7769342641288226	1.3367665972338145	2.3635060727528137	-0.43193378935479976	0.15252822599048307	2.07999991845456	-0.1305588033479296	0.4186194826524227	1.600417967570356
-12	-1.229726669067785	-0.6528049094884533	-0.5605094418679307	-1.768325801199469	-1.5041878185442097	-1.091754910573662	-0.3950200666944732	0.5376396761671569	-2.0096623846813393	-1.7356536344576174	-1.1306331129138585	-0.4195066679853421	0.9761860942036105	-2.1034865326225565	-1.898024196601077	-1.133819696424795	0.16067622561419084	1.339113708929854	-1.9269063424098094	-1.5648907383509716	-0.9013507939469948	0.9410677528463529	1.761522765480561	-1.4103010857261362	-1.072249171410873	-0.5851148352155371	1.7561726525790298	2.798785917845244	-0.6494480951124679	0.25619587237524705	2.4275674758656103	-0.32308021106212376	0.4774710821971351	1.7800911620019788
-8	-1.1782153815086296	-0.7096127849782669	-0.6999549252004046	-1.6750743346838077	-1.6990055995007065	-1.3951648438515099	-0.4646083998870809	0.6976116282016211	-1.7875738098788998	-1.8747090053910214	-1.4055759871281417	-0.4611231076996066	1.147599932634205	-1.8761016083080375	-1.9046213578774505	-1.1338579626066443	0.30360239667534167	1.6027041633195889	-1.7791602566622269	-1.5759891231801286	-0.7280139904715117	1.1943380802517982	1.9695033977374428	-1.3595184053428755	-1.1710380286214772	-0.4765440213569616	1.9458937595829402	3.0341930312798286	-0.7228137236465674	0.31445944229841244	2.5547726089825584	-0.40036541122443453	0.52352607118036	1.8303506328147219
-4	-1.1098891468636318	-0.8396397807856919	-0.8626243450320134	-1.477487321938038	-1.8964247655672124	-1.6914349751683189	-0.6304258688268762	0.658624051338538	-1.4329637252868386	-2.020630831385214	-1.7368828014390723	-0.6134222134361516	0.9670580601118188	-1.4893780909128385	-1.893817181574162	-1.2253314225731446	0.2665786736433598	1.675754900516135	-1.4506556951136915	-1.5331728419695647	-0.6592141373203245	1.238046285364529	2.0519318528821144	-1.1429368228666201	-1.1747227877521886	-0.4469915915170999	1.9091027926882185	3.0257215423485806	-0.6362512095600019	0.3404384246813997	2.478458875120667	-0.3430898776928939	0.5750472531105232	1.78791224505108
0	-1.1629334658825399	-1.0748343440575443	-1.0676929923757454	-1.291249987203164	-2.159172052654083	-1.9985358664599193	-0.919395980897895	0.3955986787821694	-1.0913075181111074	-2.1962225381715017	-2.0834109730571537	-0.8557669498772075	0.5241980539438611	-1.07537531581216	-1.8832583379881498	-1.3606927360512755	0.1073364463718772	1.5626045426017388	-1.0657066079889759	-1.4456744157530992	-0.6546063406629516	1.119158503567829	1.9782407233837183	-0.8955480433741819	-1.1117949457708685	-0.47702780245505966	1.6949142174843639	2.787766211146992	-0.4488836813560728	0.33018776691042034	2.2317178193013674	-0.19993938455169724	0.6238690002902691	1.686697359594953
4	-1.3916645014912676	-1.374629374848181	-1.293867942404379	-1.2127377956289274	-2.497321122540085	-2.3067421854907333	-1.2829325166736265	-0.0008385220404964119	-0.8751899577932569	-2.3814666211083466	-2.3795545041087793	-1.1110295029245953	0.041142362997369494	-0.7452043276092015	-1.8563799811224173	-1.464668627855717	-0.058460641504746724	1.328881975633543	-0.7423809748026091	-1.3121846881161903	-0.6391268356399304	0.9438351368916426	1.7838131144309362	-0.7463265042535546	-1.008804676369944	-0.5163673745469752	1.4058809244900428	2.414982551199508	-0.2513571673245974	0.2883897714486284	1.8771462393097336	-0.05371714369801449	0.65083819463441	1.5590212305761788
8	-1.7346798137737358	-1.641482945112551	-1.481405135229233	-1.2677192655981446	-2.8439714836796477	-2.567719453050823	-1.6062251288868712	-0.3639839878429306	-0.8110149482278053	-2.5070183213834	-2.5492141182434183	-1.267309543270993	-0.23503977000976156	-0.5423253760950545	-1.7604970887558558	-1.4552401267503714	-0.09722602342853912	1.0733742686828127	-0.5416616783771562	-1.1141689987662784	-0.5230637775566492	0.8443850853582143	1.5676360090731054	-0.7556920628541764	-0.8687419273377349	-0.486041544640783	1.169472214607181	2.0439197965516347	-0.11260721059025162	0.24634039339813085	1.4987595043489306	0.02749243371698049	0.6463953240287142	1.4337277376216404
12	-2.0534017034185643	-1.7757593348492193	-1.5641363819685987	-1.3947825396608857	-3.0801074427087056	-2.714541428388141	-1.7646367505343445	-0.538831292222498	-0.8331840613310133	-2.4833850797896257	-2.5343906815437833	-1.230996963254031	-0.15966765542249284	-0.4354620266887263	-1.534492369592271	-1.275862452146799	0.07881096730599961	0.8819174744274252	-0.45181178932559346	-0.830838201332511	-0.24040637849669283	0.916617689202639	1.4380928241661006	-0.8939424134572763	-0.6767090541920476	-0.30966162603397546	1.0783646079493883	1.7741959050207081	-0.05002955334668328	0.2523656481093285	1.1679459780769157	0.023355180338663576	0.6194813831901408	1.3267997469782167
16	-2.2133684102443016	-1.733215327655302	-1.5098946056391764	-1.4751341305682468	-3.0966353338260344	-2.7001190117375424	-1.6956784682377444	-0.46792334200021724	-0.8288850763374421	-2.253543848070114	-2.3258845747398884	-0.9835625266038099	0.23329436720121052	-0.35157048613476977	-1.1545636624750215	-0.9275503731197388	0.45610016469242143	0.7910043577250434	-0.4120915819731033	-0.4698833215294179	0.20801812357835087	1.1590224475208322	1.441105600533311	-1.0700163814232242	-0.43086719404155943	0.0358152500380828	1.1304748029777347	1.6003164012559152	-0.04048286368162696	0.33477187072155473	0.9001749135178346	-0.04152893264537459	0.5866314157933732	1.2284002273063024
20	-2.156832689561845	-1.5491758545863266	-1.3429524864622762	-1.3945243323403707	-2.8578424381581766	-2.529248469642704	-1.4428843223382075	-0.22466354015371873	-0.7073326092981412	-1.8387713385887499	-1.9787335345854768	-0.6076738819038813	0.748411593931823	-0.22727562429743817	-0.6709228737104405	-0.48429545637881877	0.9060385204328095	0.7784697393790048	-0.3585598459727752	-0.09303436404819568	0.7305495720538551	1.4511547051984912	1.5168794355241904	-1.1908957928154207	-0.1759412135212071	0.47932273028473	1.207420584491229	1.4010859692485478	-0.061634134345607564	0.4602772283854123	0.6310620888036025	-0.1327852603420871	0.5465010986835414	1.0937131615681686
24	-1.9219996880642873	-1.315054413336301	-1.132541772844037	-1.1026205988702034	-2.427725308964577	-2.261795991909143	-1.1412018508708786	0.02853726402170701	-0.4506022322722203	-1.346335765300475	-1.5986908633877048	-0.26062562995912525	1.1308237285673688	-0.045234203224417666	-0.2065890426188242	-0.07733869533086161	1.2291364638767093	0.7827075700071907	-0.260764866408969	0.1888868058919345	1.1621717185242335	1.5938229520611888	1.5197743139043327	-1.2119390933909535	-0.008395405465029721	0.8595138766522628	1.1161255808307355	1.002069232318041	-0.12974153426315524	0.5229399191051186	0.23723235666461093	-0.2458087199680767	0.4607904243756327	0.8494114258301433
28	-1.6056697328082563	-1.1220543356222854	-0.9543341374144515	-0.64124351577985	-1.94337355599891	-1.9847172448593708	-0.9498950815060118	0.13123592701202966	-0.1195035797320616	-0.9285103059214229	-1.3021609750296204	-0.10427796069282011	1.196221587021945	0.16438399213772759	0.09042906738338288	0.15191124341280954	1.2422791688072112	0.7372906189423531	-0.12828934160267524	0.259731590092074	1.3268949952003273	1.4006221259040768	1.2949882713047487	-1.1481384009937463	-0.038879435411282144	0.9865046118624952	0.6839630586521876	0.2793598764042117	-0.3023349039073931	0.3841081549960252	-0.3971239318357984	-0.41826102031964857	0.2612130337319037	0.4193845380685057
32	-1.2991013494117347	-1.0091683839114454	-0.8490511157533857	-0.12469542740095266	-1.5480401476876438	-1.7679108336635905	-0.968703803954557	0.013456186245680898	0.18874873173266088	-0.7090144139508775	-1.1654643983026025	-0.2247396999883882	0.919266638819059	0.35537287503164855	0.12345350502554818	0.11500559718182964	0.8702018238985326	0.6036193355579168	0.013178365271793935	0.0653586162466713	1.1245880098560006	0.8008494952963172	0.7701927404031675	-1.041602489702665	-0.3234720817982102	0.7429530601817189	-0.134083687920596	-0.7519786338894003	-0.6341507418834204	-0.04415398079929996	-1.293270942283816	-0.6984136086950492	-0.10908783199663247	-0.23187062085737775
36	-1.0399210426777965	-0.9445715522759832	-0.8009459356113203	0.3169484726533038	-1.3197909560260634	-1.6275116164124737	-1.181401488182409	-0.26530879668962626	0.40408107536338406	-0.7143758517348875	-1.1864834993924176	-0.582003174742894	0.4386175561798133	0.5074036108557699	-0.08740113653527665	-0.17174072520287859	0.1965079302594804	0.3880937387681586	0.15629352589724402	-0.33147945916408667	0.6017282589979025	-0.09772019063596303	0.013828444259718015	-0.9128139592012562	-0.8013315776620434	0.1751167024721108	-1.1915420263724439	-1.9131443452216548	-1.1093031139976797	-0.713043211090364	-2.315610879773762	-1.0846441956792001	-0.6362113936573925	-1.053137538158344
40	-0.8107899406943462	-0.852085349792661	-0.7503656129965612	0.597890315930505	-1.2369505135777448	-1.5194700917981672	-1.4602122269956916	-0.5475770817283101	0.526174067122466	-0.8518289902161293	-1.2813938823772792	-1.0188918087983951	-0.019630543838052846	0.646364866055311	-0.39351931114978506	-0.5777373299317343	-0.5555713758746914	0.14060088956620523	0.3277056804966278	-0.7487887721230093	-0.03839813535651663	-1.0260448429905404	-0.7757866363012147	-0.7342748623429115	-1.2837862936032336	-0.48491155978798406	-2.1739270632216887	-2.9173262045637807	-1.5972228009905933	-1.405488368300543	-3.1789901176299495	-1.4777152500990838	-1.1959878176057261	-1.8856956911161513
44	-0.5808528647062781	-0.669175146320749	-0.6351604445633662	0.7055466157266006	-1.2021841972516418	-1.3705331052509793	-1.6325808722285324	-0.6638600809502572	0.6178040488857514	-0.9545182561616978	-1.3248040642668857	-1.331045624233427	-0.2568718188476158	0.8252211192277047	-0.5797607288028159	-0.9071613527282535	-1.1122672529748763	-0.0638730673369431	0.5685548171947555	-0.9539598202462071	-0.5081783520266043	-1.6558804470216963	-1.350988027022738	-0.4498497236338309	-1.5189313850200474	-0.8988375641063857	-2.7153437069047923	-3.482012501508446	-1.8757982206668968	-1.7981033279797567	-3.5425376802649367	-1.689660187269968	-1.5710393150718982	-2.4909558233313023
48	-0.35551267772561623	-0.3970741917598589	-0.4342482973102294	0.6842799169430136	-1.1104826899148066	-1.1289129228699837	-1.5733406504008656	-0.521771131628669	0.7526948432992132	-0.8743733741618958	-1.2157074182334293	-1.3634172643570797	-0.19049125861710878	1.0762215825565444	-0.47597920774449604	-0.9895637606432237	-1.2686186996855344	-0.15036183557694635	0.8911890961081181	-0.7783870081322654	-0.5668564424508136	-1.7435914234008945	-1.5209171733603706	-0.029444573372767867	-1.3105483022026583	-0.7795894126282835	-2.5606598789414496	-3.4410211953070076	-1.7259036258991651	-1.6039087731874582	-3.158439389837597	-1.520912047360933	-1.5322941502985044	-2.627910368960257
52	-0.19426886688298475	-0.11399773479528656	-0.1891898359052075	0.586687682577899	-0.9211335754980002	-0.8063263872769657	-1.274079677226068	-0.15075343809213196	0.9495419239866093	-0.5736281857312935	-0.9376580691505852	-1.0865732403978405	0.12471941827041419	1.365749474891963	-0.061064261788929444	-0.7709494213666807	-0.9828280185680973	-0.06879682821547249	1.2428864209266497	-0.2204049224057198	-0.14963151476751857	-1.2485803334183774	-1.2330692975383495	0.4806624042773193	-0.6323533042201118	-0.05253767208901574	-1.696975346095493	-2.803572886064359	-1.0552753183424608	-0.7316195350295167	-2.0076022097445243	-0.8730867483030226	-0.9544946527224264	-2.1558773463177974
56	-0.1801755721788437	0.057205714140943144	0.008713012539203807	0.4276216019324442	-0.6910070759493141	-0.4870331275087629	-0.8532794692430763	0.31607869187661486	1.1375623912700819	-0.16228976804767045	-0.5813541993722181	-0.6154156907756315	0.5425091968190777	1.5870732028945755	0.501190899537227	-0.35771706610010134	-0.4005638946910354	0.1852513547034889	1.5084696970047735	0.5242583738442215	0.5741394743728859	-0.36640137341498286	-0.5895512089149687	0.9534456705816727	0.3279351285761114	1.067097303557364	-0.3852866878318711	-1.7371674732218008	0.016574533614392834	0.6246878488981261	-0.34909140975553077	0.16444925922359185	0.09321227646182044	-1.115541812941279
60	-0.3618113985463529	0.011096342438756032	0.05951726794117355	0.17419327751525948	-0.5494568930104903	-0.29732853099141354	-0.5025850521750034	0.7087281924473887	1.181281206009556	0.14382643961356534	-0.31485390583654005	-0.16092364449402882	0.903708574874422	1.604753371001793	0.9229136086050783	0.01535742819157147	0.20399543591493846	0.5614254460465262	1.560684319370503	1.1324101657887053	1.253468629533355	0.5450199232646125	0.20550914056867134	1.2361506192468785	1.2292808263259907	2.1352345889541438	0.9327847338014086	-0.4901006209397389	1.1709238261223758	2.027418608315098	1.355478640948778	1.3132560219986784	1.3388638462595863	0.25753784114665446
64	-0.7086219769706671	-0.28416794466752415	-0.09752967184000011	-0.22165426555938006	-0.6275550111185177	-0.3488346925511313	-0.39664807815543546	0.8983201957910416	0.9532166695370238	0.12773458627399012	-0.3115238539459913	0.06241231768466915	1.1046202154880795	1.3298600878518376	0.9268407798254793	0.08547618218537366	0.5447489605501477	0.9623779034158715	1.3339248861966775	1.2984039750696235	1.5048176012193164	1.1160348625616163	0.9371283030691592	1.2365394799484115	1.723226423681193	2.6643807820761856	1.8172815992249765	0.706400988702654	2.010056490591599	2.966951362748426	2.6208007269493985	2.206145519408656	2.4006578861660945	1.6050789315707341
68	-1.1154655189961593	-0.7663689832411907	-0.45346966271351286	-0.7687232474945852	-0.9807200407062929	-0.6830364448468489	-0.6121855362694741	0.8452721812841668	0.4150146533501532	-0.31382307331007464	-0.6683027131373743	-0.07042460870843686	1.1213072510065567	0.7835738639121691	0.38941782614617854	-0.3140500477968063	0.44464760906490325	1.270099159848728	0.8776770807995202	0.8852066375317612	1.090738055336361	1.1235165567642234	1.461847778444199	0.9888296102353789	1.6171747405230443	2.3508891999971926	2.0178041407185225	1.7093647675272254	2.23661803634527	3.0913278978500545	3.142994634322392	2.550433152435287	2.9487082883773708	2.5829608375185678
72	-1.461862083558909	-1.3068058457759497	-0.9320614314388853	-1.3984998429275624	-1.5513033827715679	-1.2469983069407433	-1.0974457236238693	0.5961856230942327	-0.34077674064429064	-1.1090980740201701	-1.3557499612911106	-0.546118019632537	0.9868299340128579	0.10840481492329512	-0.5852294549471508	-1.1686642140446457	-0.09537457650661979	1.38460242398682	0.35243406802841765	0.0012717002504994163	0.03825551634309039	0.5808171019195031	1.742453093897848	0.6548852307951516	0.9709627603811963	1.2305637566968972	1.5760579069400258	2.4802119669283744	1.8041570141064405	2.382279151623873	2.9323012754793414	2.274014944057248	2.8598925995146947	3.0035216732487457
76	-1.690615172886148	-1.7731262400682695	-1.4252122604626591	-1.9775742242475225	-2.194971317471536	-1.9147210072812726	-1.7059677796207628	0.23859926997979386	-1.120817181618451	-2.04066299876933	-2.2270276490251226	-1.2300229041515707	0.7453626971499699	-0.4893725502056457	-1.7055638985487844	-2.2829081954538624	-0.9107252932443103	1.2564636437164671	-0.03988649686041307	-1.042742488135761	-1.366734858876902	-0.2840579442958689	1.8257671548523562	0.45128038411644017	0.07341658305467315	-0.32129233994427747	0.7916169146578536	3.0504000109904967	0.9590061282740853	1.1851420372604895	2.3046052397716412	1.5769965608835788	2.2873067798086018	2.9157521651085263
80	-1.8537148190426593	-2.093877310234708	-1.843032355423695	-2.370851987574965	-2.7562086512596258	-2.5436146195087765	-2.2740442695424035	-0.15726210137239868	-1.7210606293141024	-2.851390831423977	-3.0823302191160575	-1.9371939848627784	0.41576176776820406	-0.8402159788852809	-2.62979602149761	-3.3683350001169874	-1.7598106816683554	0.9005765892179619	-0.15798298974681457	-1.8791384649516765	-2.70905780108265	-1.1480746240239976	1.7862919523915965	0.5394729362218851	-0.6916815621078894	-1.750906343807841	0.06853990239481685	3.464794865443518	0.14648476206035257	0.07069763523372181	1.7318904356145797	0.8574829079913138	1.6051635701661016	2.5830566817871246
84	-2.088958019704526	-2.2889239730265647	-2.15223478727548	-2.52123236019639	-3.149705163632842	-3.0363538188567705	-2.698404305320973	-0.573190628035102	-2.0288469740188892	-3.370293131902205	-3.7558395767753514	-2.5185551579784176	-0.014066907541701097	-0.9001580454034058	-3.1290457169686934	-4.174421299885404	-2.437470906779327	0.3826862265938535	0.0014866334348636024	-2.2558052482871833	-3.632576218016737	-1.748389120456042	1.671420093131144	0.9418345665994523	-1.0216857169105429	-2.570353263087508	-0.2796432368847585	3.7357766533946086	-0.17658665731668902	-0.40880083934568473	1.6225308138890382	0.5445356355270351	1.250889298141857	2.3651637971291213
88	-2.532011502548936	-2.4502937731867718	-2.383715623559333	-2.4931094583508893	-3.3988246831912536	-3.3748397741941925	-2.9722983762084367	-1.0345032188999712	-2.0783257431963356	-3.588418474674245	-4.179825772222833	-2.917320720936475	-0.559617637175053	-0.7759308199365623	-3.189230910832243	-4.594228256070366	-2.8576681541772935	-0.21293888932348787	0.2976916126841462	-2.1460030024706573	-3.9906072515824	-1.9939117381299192	1.4801871739209678	1.5319950541917766	-0.8233126381114599	-2.5634996826299585	-0.16787169831330917	3.834171523904242	0.26616111330544	0.046943042308781616	2.139181370102626	0.9186860895804124	1.5384091099998625	2.558778517938509
92	-3.214768878449651	-2.6831057003943886	-2.605506651975805	-2.4473674235542675	-3.6089551357704663	-3.6101572422432615	-3.1648549953664427	-1.568027134751134	-2.0261537977561574	-3.6447327044972755	-4.3956098445540075	-3.171146623234469	-1.2025780647433233	-0.668298004370449	-2.999093286571694	-4.692972171378924	-3.0682387274524165	-0.8149603584694615	0.5178984986580997	-1.7409290031347893	-3.885597934449452	-1.981220836405674	1.1840832203533727	2.1038291401198608	-0.23279343486662166	-1.856046791158964	0.244721769668697	3.7179310227939126	1.4610768519706203	1.369956013081721	3.139264575661765	2.000321621612881	2.5261378224490194	3.2678291715133185
96	-4.016151418082849	-3.039014808611405	-2.876143448243807	-2.5558469230972776	-3.8922386071164015	-3.81699584950913	-3.3605399046929425	-2.1547775214151783	-2.061358446638832	-3.7331700230758726	-4.510241973933779	-3.365521660890692	-1.8718773079341815	-0.7637392859249846	-2.835552923672826	-4.649819362344807	-3.197781316312975	-1.3816837037488277	0.488805531221329	-1.3357502188336705	-3.5857872872419234	-1.9158482503204188	0.7683888654382395	2.4763853487434555	0.4724454271786194	-0.8244152048277313	0.659762440446229	3.374387732569357	3.121031276452429	3.1708886543325328	4.258320797659418	3.5512561708435104	3.9953970808244574	4.358491409741717
100	-4.701926219513055	-3.4777479083948237	-3.2028963484961057	-2.9011213706203187	-4.289041985173407	-4.040082921318326	-3.596507063368423	-2.7075107029267658	-2.2996749819868474	-3.9863078493563164	-4.626669395209652	-3.569357862997515	-2.454210275175785	-1.1345258922543109	-2.913267128264825	-4.650358188332216	-3.3695285235209567	-1.89331376074566	0.1638099845088286	-1.1769614189950108	-3.3725333128657873	-1.988535399184753	0.2647824280729437	2.571607344810416	1.0132871840643154	0.09776715909592745	0.8023066500434622	2.848658316095793	4.80747793891209	4.9138240690146855	5.085144506967152	5.175858484551842	5.540480599720127	5.513774381068072
104	-5.041694151547069	-3.8813571831936793	-3.530239811567348	-3.4231941613554344	-4.735639560187214	-4.266250122743158	-3.838060607756728	-3.094630233580853	-2.723125450888441	-4.403745163289571	-4.789372908897986	-3.793195238073249	-2.836272947779895	-1.7040744976888975	-3.2824795163249627	-4.792878138839088	-3.6332139877142233	-2.3308131635946325	-0.3635436287284418	-1.3554805482974062	-3.4054765615313927	-2.2777998389909295	-0.25089338358477103	2.422068589771095	1.2220195500992066	0.6094290002695062	0.5514315352822687	2.238847726891398	6.09250734698362	6.127634509828282	5.336861596938317	6.465323908694937	6.7226157018685795	6.358856661954463
108	-4.938798891949677	-4.114594925982496	-3.7657143974596483	-3.9461796184090465	-5.097050653940266	-4.436962116483294	-4.004677285573976	-3.201802245639371	-3.196311465776525	-4.862219321372758	-4.972463118396665	-3.9908597368570313	-2.957957021874528	-2.2942795695554015	-3.8250079058396094	-5.055385576835988	-3.94776176409597	-2.660477154690412	-0.9224635339335157	-1.7946087076653987	-3.6717274096293155	-2.7254631450506297	-0.6916957480133101	2.1174442714636594	1.0793439122605752	0.6386762841312108	-0.022591268586699367	1.660912032702352	6.691947920116174	6.560512526160908	4.955119120485132	7.123795968189682	7.221861821060985	6.603857500569294
112	-4.493258941750094	-4.0988902942167265	-3.8309004210072275	-4.272831429184062	-5.246038423644674	-4.492791641336235	-4.029617299396507	-3.0001461430143483	-3.5479309469291764	-5.196817861787744	-5.112269865480211	-4.10029601015556	-2.845716946092843	-2.725147002015539	-4.340749252804089	-5.334020601156916	-4.218968380766586	-2.8390576767767706	-1.3629305328290728	-2.325339788288017	-4.034146298713686	-3.1895508685645897	-1.003545758574689	1.7340310768216385	0.6738764030608937	0.3146821252507311	-0.7221520524865863	1.2013206451603162	6.526751501771048	6.224813445587568	4.092249383131199	7.037059289331522	6.932566625258183	6.148227199290451
116	-3.9584958453371795	-3.862288226866702	-3.7121395971035787	-4.294567574148714	-5.141699777973046	-4.4224309809609	-3.9166681667623644	-2.5834517413716984	-3.6688337233420656	-5.301238046613219	-5.1603464949975	-4.096693028597274	-2.6096112662232547	-2.9088275359145834	-4.666250693937844	-5.5216569761104255	-4.36557005733737	-2.840119593125408	-1.6301764208643637	-2.7929992605264795	-4.336154449959245	-3.535411348953583	-1.1929023235720735	1.2973490920690518	0.12625835804056515	-0.14671814404638137	-1.3389682735969692	0.8838618375397341	5.7105712746446935	5.339250074257727	3.01596163941912	6.278745635392808	5.979880794686188	5.113759504758676
120	-3.609108200497863	-3.5330598265138415	-3.478931179799917	-4.048862447052995	-4.857149111882385	-4.280906189600686	-3.7529115582127974	-2.145835394209972	-3.565105906068553	-5.183197008398061	-5.118112551164922	-4.018774976120659	-2.401166432994034	-2.8807716296896415	-4.750540244506283	-5.5712275364405945	-4.368396748004062	-2.6842706135689376	-1.7695944264556656	-3.1246387879637068	-4.490109432328114	-3.704454889481379	-1.3184243407341036	0.8042496422489448	-0.4644097078042238	-0.5623567090141458	-1.7491190389341187	0.6709425432431667	4.4939722901369645	4.221664418052259	1.9976851889718326	5.074660765233367	4.669019210471381	3.804678668906683
124	-3.59186910676087	-3.277892819711787	-3.256130210284921	-3.688914051279039	-4.53825186537307	-4.1621947183427865	-3.6649982836697426	-1.9035209369283856	-3.3382408534644523	-4.9433636540536305	-5.030176150019753	-3.948199262187517	-2.348526233465683	-2.7544383933142664	-4.648120868391576	-5.505201325822383	-4.271610249224986	-2.446900361558987	-1.8656339598283012	-3.322411767200706	-4.497207630247205	-3.7200736905588885	-1.4460657798497063	0.2801626317580199	-1.0236477826023054	-0.839092967775903	-1.9350575159808434	0.500344394374264	3.1962497153646936	3.18896769672158	1.2402206628004455	3.746346941072389	3.3929531488585436	2.6131772929018733
128	-3.847986688435402	-3.2177684225857544	-3.1628792206064165	-3.3850304994950013	-4.319005955282082	-4.142186154397942	-3.744067659461933	-1.9954812476321822	-3.108795635003829	-4.6970291019106725	-4.94389771166947	-3.9556755919721076	-2.4986383851862954	-2.6332940988813567	-4.446259964207623	-5.3726324899449285	-4.141170968090691	-2.2341818753101608	-1.9613805959772503	-3.4029171380911993	-4.398724068026369	-3.637596359605625	-1.6000798900260436	-0.1818408216415354	-1.4703892432282368	-0.95491200444409	-1.93789612757646	0.3329024902521839	2.1378714984323492	2.4924499925627597	0.8600945451001986	2.639882081042458	2.5224776204318933	1.898290510153261
132	-4.149549950613482	-3.361391535855343	-3.245635024459368	-3.2153518118740823	-4.238607872751913	-4.220879544091838	-3.9783065218618696	-2.40517305720572	-2.9303202555105883	-4.4864439851022615	-4.858597266328192	-4.041522969532464	-2.7886311937497883	-2.5356357033607084	-4.1782584084877765	-5.183417307164595	-4.004020203971631	-2.13033770977034	-2.01332187144273	-3.3320352947032643	-4.1976790322180415	-3.4729041965540253	-1.7378727153770026	-0.4380519379046453	-1.688720102814944	-0.8942161775900385	-1.7795890524756586	0.18701703799237357	1.5784490068637984	2.29122399705335	0.9090673900540687	2.045758719047602	2.305765861411777	1.8760789585430802
136	-4.228140343481466	-3.592128267755699	-3.441206208123923	-3.1124370019532535	-4.2090535057611005	-4.299521912209936	-4.234782685078465	-2.948982708161224	-2.7477199961907255	-4.240302552007888	-4.699126708564313	-4.108514298556442	-3.06175326528007	-2.3795735775950595	-3.783253183349815	-4.867322432626963	-3.807269802017817	-2.143149608923174	-1.912707323967265	-3.0081336422312424	-3.8107428454508208	-3.1596846500731	-1.7634861424745054	-0.36800044682097977	-1.5398188790545309	-0.5960191473217954	-1.412652131328721	0.13763985003052928	1.659103270156565	2.644349329947805	1.39825391416384	2.117923731225022	2.7979044843605307	2.5521845753129453
140	-3.9214289089378447	-3.716370811616211	-3.592757215965781	-2.8990583346605616	-4.053933610217682	-4.2111468208803275	-4.306532372092139	-3.341588250306587	-2.425613158777649	-3.8072554969031067	-4.33507632114727	-3.988424529496236	-3.1219315450048435	-2.03641223393326	-3.1399462143776957	-4.289153088230988	-3.425208798343756	-2.1810970251329076	-1.5600593050669662	-2.310547346003587	-3.08800911123734	-2.5658385688850394	-1.5724174936649151	0.03851902102639651	-0.9188643670724855	0.042798176299759016	-0.7318679671883133	0.2809914343415292	2.359636539223765	3.5070300013689892	2.3012645186497043	2.8146047521101147	3.8399684332218817	3.718545904307863
144	-3.252518884076387	-3.5499753862398102	-3.514903298086782	-2.392569059053338	-3.596276512603014	-3.7912938499097146	-4.0028905767467	-3.310292712436992	-1.829678173214064	-3.0418980044812005	-3.637062540408364	-3.5115561396632256	-2.8039009500283747	-1.4172608816604078	-2.1494431441398283	-3.3130659973420995	-2.711297028371918	-2.0784499592757335	-0.9414021349026986	-1.1806957691900501	-1.8899061632124543	-1.55867623889309	-1.0992364855669798	0.6473279579031601	0.17885233416700969	1.113082167676188	0.36369007734028524	0.6887639147535004	3.4962012679521153	4.737487781007744	3.54388784467498	3.8972525498222486	5.105817305071697	5.02460526151453
148	-2.3999690948928087	-3.000471822792579	-3.078323356485793	-1.5162867269380405	-2.7484290530431834	-2.9553847238310955	-3.2392706789248993	-2.711458676168141	-0.9128664708931707	-1.892826910008364	-2.5427446301158314	-2.5873362952711925	-2.0352396913641995	-0.5374839292307521	-0.8131003359292968	-1.8819172334840895	-1.5710809191138464	-1.6648929077075603	-0.15339784285439925	0.3180852226332676	-0.17701293483388517	-0.08335436114485519	-0.3449267438286218	1.2314935891530456	1.6281748968978595	2.624554627467875	1.8976383161317754	1.3713364566512336	4.774465072021562	6.126381381779688	5.001261698493633	5.004696356535499	6.211179240757489	6.10417745956402
152	-1.5816072185638934	-2.1055538601167267	-2.2727212848503093	-0.3524446478528386	-1.556631441954588	-1.743553038009756	-2.080114120953661	-1.5929627378299624	0.24404340920822096	-0.44170659668982126	-1.0975036593384446	-1.2548304764537448	-0.8682312347425887	0.48134717223709256	0.7452743034619912	-0.066271632742455	-0.017933478533647452	-0.8474562742771572	0.6425308568944587	2.004664892857409	1.9418407629577359	1.7905056431387096	0.6276136024841841	1.5886115987723444	3.208922139649105	4.47046469513406	3.7786915206873823	2.26749324226097	5.891975387956223	7.454169254556497	6.520591719376932	5.7871794554510325	6.851973039493644	6.7120060751253465
156	-0.929657576121163	-1.013055083578146	-1.2167140214718546	0.8914671517752933	-0.18074560119771396	-0.31127497475236005	-0.713629243956316	-0.1751375044930849	1.4597880803445407	1.1269656391300882	0.5505161271501194	0.3227390638786131	0.5306015597298483	1.471626158813493	2.326951259460096	1.9437296341458992	1.8158439351966238	0.33645835433889404	1.3097228970838926	3.650154104553778	4.231639374539526	3.8787584206880332	1.7210369066655418	1.6583706098648356	4.693276870322245	6.450215800212574	5.820426926222804	3.2644503034188217	6.65285490263675	8.561049439750175	7.965727309142622	6.048112377155522	6.91840217750952	6.813080770457316
160	-0.43388739118702563	0.08142021277851881	-0.11147239776123809	1.9812654206798535	1.1741886109270603	1.126859185234788	0.6252862199255155	1.2383166520325475	2.5320768292394447	2.6041366988237464	2.196184152780363	1.9145439814867367	1.928630227941651	2.3039026202208026	3.7450330162862775	3.8982567688748886	3.715239277042652	1.719967122503814	1.812855835152288	5.073366152352115	6.410873396900038	5.9414133875567465	2.833306543826203	1.567459698534305	5.938452705648938	8.337338426521045	7.804525355661679	4.233797062674948	7.041097146376991	9.39760587226942	9.259577727781481	5.825536713197207	6.532152159411221	6.583277208873207
164	0.016775030600394997	1.0060278151861592	0.837807593614567	2.7626345087873476	2.3356683195271986	2.3716998040401096	1.7432599023674906	2.375744336805777	3.323768607330947	3.8364717863496063	3.641144028053699	3.300709954511357	3.0934071462731496	2.9432718679504224	4.897295462641621	5.568732724435175	5.446135984022045	3.058979741956384	2.231995100108162	6.205993159837965	8.246330240410487	7.757117251838501	3.8697321317246165	1.5687661131351935	6.932527047774151	9.954785321851446	9.549709295957662	5.063115107150945	7.214687329196775	10.028170560313628	10.396404240109025	5.369949804099651	5.985492691186912	6.318140967629771
168	0.5266306983049373	1.6606928068194218	1.4955272636802113	3.215655557143091	3.213088027471229	3.2989911949789534	2.546938889748797	3.087988607239589	3.8092071913867045	4.767213809375075	4.748128879003338	4.338424671663718	3.856781949796253	3.445608845594497	5.784808144269275	6.813140375101941	6.820284349388103	4.1169867411620045	2.7040574482357775	7.092878800604165	9.617588972605128	9.180161452957574	4.740681159448167	1.9054582070879842	7.77027795737168	11.219762773796845	10.953250857355465	5.673853383044282	7.422678451871111	10.583602878552409	11.416020364548901	5.027550207796158	5.609495148801253	6.293088420238188
172	1.0934888096858004	2.0259249159207977	1.831506843711156	3.432421675599105	3.8009748362896913	3.881176700329755	3.049252502372178	3.377938023621795	4.060970772980677	5.422515855450088	5.466706262137835	4.990114676274462	4.158239354125478	3.900047292399421	6.471042616718829	7.601149062992781	7.738208274377697	4.743844020310543	3.3269073879168944	7.832510928405963	10.527033779268963	10.160787556743939	5.360496030624984	2.674942963522297	8.576172807021562	12.141925781112162	11.993295639275503	6.028796180762639	7.885619143603909	11.188088388806015	12.358222930224267	5.0846958032024165	5.633523926816759	6.644334776315487
176	1.5880401094396808	2.141107553798325	1.9088320683923323	3.5408620744952413	4.147336472530691	4.171754826503465	3.331483117275459	3.3656778250596093	4.190568436532869	5.862514004211026	5.828966126030346	5.310421453419867	4.056180466901463	4.356863487687721	7.014473420553096	7.998659590553617	8.201676348006137	4.919683443999892	4.085859765227409	8.499519326685308	11.063673945150404	10.733295413574861	5.6665663576110195	3.7704920673542017	9.423318839123446	12.788276640075987	12.706396070824708	6.137919887304756	8.701009728398272	11.901762932292245	13.231470074625976	5.652860150370234	6.106134399256344	7.331536751356593
180	1.828537221106654	2.072657818329664	1.8371772719729014	3.6237072853151298	4.312514771063851	4.26747654791096	3.4897706420528234	3.2160375037058473	4.279820431394199	6.132095798269167	5.924610599818408	5.40703819817105	3.7040042783680147	4.7853050111116255	7.4198498538557915	8.127484301074313	8.299372652080766	4.750037181305649	4.846490370911981	9.096901870648253	11.348601312595095	10.988227816495673	5.656163678193924	4.931774126952764	10.294863674874668	13.241561856216707	13.162152257112998	6.063795551249226	9.818981145863752	12.709313360551228	14.017933810128138	6.648991567990742	6.9122896019939475	8.196886995601236
184	1.703917737473534	1.8918216180721203	1.7201659635982827	3.679974069841039	4.342895496847743	4.26921509618538	3.595925322036884	3.067633859518763	4.341486919885967	6.240787967184199	5.86852310606353	5.397189126693232	3.2993330872205218	5.087140070469195	7.638066749361975	8.120175341131828	8.174557665213277	4.4160346873369125	5.419414506580965	9.56350419490965	11.490154237347571	11.043581934703084	5.41842220845725	5.874268040131057	11.104743929482748	13.57339760214404	13.44826313438136	5.9206604808098255	11.090729685438541	13.553387607687725	14.708450280247545	7.869291762511098	7.8667902747854805	9.07950399013798
188	1.2655779091353503	1.6684827762440289	1.6230298239738379	3.646679869027882	4.269609917351374	4.257227886895576	3.6881563570365667	2.994896642752944	4.327196587127857	6.17887209285932	5.7717408988188685	5.377262101902234	3.02313780021338	5.156154142713163	7.611093978739158	8.085878351777502	7.9859943188265605	4.106357564095334	5.659423813836328	9.826005910860665	11.563857049356313	11.022545786684907	5.1331152786355885	6.424725516310866	11.758139580604078	13.838139499058638	13.664729083847044	5.856146797653616	12.353241889282254	14.384907686154744	15.338096579927372	9.1057138213096	8.82394216216993	9.913748716120093
192	0.7239520531496138	1.471047874551342	1.5696623285717737	3.4588220032149457	4.121921052062632	4.282243240988913	3.7843770885288626	3.0085098667481147	4.171194066006834	5.95018433022259	5.7181534622781385	5.4086289269268	2.9832186623594543	4.943634020721649	7.326817494013771	8.090048769552618	7.867721060915943	3.9530694384905285	5.538284764612146	9.854944204244635	11.611042947064329	11.032104464334115	5.014363753056501	6.585909349979843	12.20642563599082	14.074683153856931	13.910981143161841	6.00539587412006	13.495155300400665	15.190516433510426	15.985851247481403	10.233362172039222	9.735803579545436	10.747639628931713
196	0.3459529867974511	1.3610763515440814	1.5604927500426784	3.1031811158987415	3.93651293714378	4.364676941342311	3.8979601761632354	3.079835168692059	3.8387820623752678	5.592590794748474	5.746381268298179	5.513390527156687	3.1813924232269115	4.489373672594865	6.843953115350074	8.144968965947161	7.893837908841948	3.9933552641181866	5.151205526697826	9.686541532855845	11.64276978414243	11.13868710566658	5.215834127608873	6.5032210185846075	12.461631743439748	14.302696191916507	14.257600748304776	6.430240138031562	14.469074212736677	15.97776027460144	16.72842784472767	11.223085375106816	10.62992665468057	11.672944039437342
200	0.312030493425303	1.3804643119290914	1.5942788083832802	2.632480614691516	3.7532675171504972	4.497149456114051	4.041742314624683	3.168857328043716	3.3509695445333896	5.171560274418652	5.841464027915295	5.6755723809952645	3.5184948355533	3.9019749066065903	6.270834906958191	8.211504915486204	8.058338144937855	4.168232907261868	4.6581826092414165	9.398927664868621	11.642162293604413	11.346231431924808	5.743978962701217	6.362962706713383	12.567061392526591	14.512229882793735	14.711753808071236	7.073524934075881	15.256481132135384	16.732080417350286	17.57360072467389	12.087445228576373	11.531046838257511	12.714742628420822
204	0.6186336859342854	1.5341008862863745	1.6770199494936537	2.1360747760247762	3.5990555195540055	4.6481027485796105	4.2174773109766495	3.2395784773097422	2.774877541211881	4.750770080015957	5.940546974442479	5.845892414592347	3.8334405325425625	3.3019163525185653	5.711573109511549	8.212955454117797	8.278476694186747	4.35524271819108	4.196549881830268	9.061387039194951	11.566721886995564	11.588900536841914	6.430699332213752	6.284889682160744	12.5496692340622	14.656547509382493	15.197870216145668	7.7582139772996	15.821360548128634	17.380870775209317	18.417818022957487	12.808228460399148	12.385602919779163	13.755559886535199
208	1.0836735936461284	1.7823674633802038	1.8150036289167018	1.6888202386179136	3.472695103460681	4.77035139786813	4.402993191092984	3.261443845143942	2.188740963178184	4.361159790472284	5.956575855475007	5.95454786704629	3.965673675061489	2.7632932593197417	5.2154841291356355	8.063393572476361	8.426556565944228	4.422986496248804	3.8172752760831314	8.69421861360829	11.360159845280755	11.751251191034068	6.9914126219663	6.269472583200645	12.393149344625833	14.66347786062232	15.57550235630552	8.246380785149128	16.095729787243048	17.80017085349639	19.067127179643336	13.304216351297779	13.047779050309478	14.553872071714478
212	1.454617139004752	2.055008167800495	2.0023541399945906	1.3147519793694742	3.3475389396073587	4.819212424508684	4.554438579504566	3.208772889618964	1.647321577681428	3.994207372117744	5.817596420858856	5.936477646144647	3.8183772467529566	2.2903184832922086	4.765741813071418	7.707030753704459	8.384010293773816	4.285368431715885	3.4805276306015505	8.269143083675644	10.97908970921894	11.716681450825938	7.152728539527766	6.223590358279865	12.054559677206765	14.469821893398851	15.697366674845497	8.341025331418964	16.01362033615641	17.870161011400736	19.322248410078316	13.465613331175934	13.342807736088039	14.856233559293374
216	1.5555478295153073	2.2817807139961377	2.2153694573736487	0.9910683010828456	3.19406532434848	4.776483046869983	4.629621494048634	3.0699763220525216	1.170572158719089	3.625733127976641	5.507760987681154	5.7647824141867785	3.399268857002998	1.8403167678145844	4.315061558319384	7.155088883454913	8.099619844967906	3.9395263095574364	3.106935016417218	7.750871638756125	10.427098247905064	11.427389116046077	6.789453012490847	6.039331897746537	11.515110940470597	14.065326655162291	15.484179457671342	7.984992960796862	15.572658499501177	17.550676301514	19.086629819364603	13.232909169165799	13.171089139109478	14.541941606046358
220	1.3872303927683318	2.426928275656653	2.4209563671023946	0.6854286772588694	3.0112655086784135	4.669430244100714	4.6208996656099615	2.8636562751948897	0.7586074452320697	3.2562632478517237	5.090454088710339	5.476973519802343	2.82182454350424	1.3748972381211253	3.8453109167289012	6.5017609432098755	7.624292831244896	3.468591919724703	2.648166411389584	7.151293736522356	9.777230238071214	10.924856158330476	5.994979843262568	5.672595486624118	10.828841182071425	13.520194019514694	14.975572548249884	7.3026771361035285	14.876950226416362	16.92838092344647	18.434625579067397	12.66385838172312	12.585599867516407	13.712229694078678
224	1.1251219482625505	2.506030076375519	2.59459232628925	0.40104019540623304	2.8474726605049145	4.572717178243817	4.575978267560535	2.649450057016226	0.42144355071475065	2.941553108418019	4.699207294043846	5.177239404958512	2.2641799392755604	0.9071581936820884	3.4126646432545775	5.907020077096706	7.1031746684980925	3.0088312549919323	2.1344146674626834	6.559865934976017	9.16631696294126	10.347716305356462	5.046506868972662	5.178335653582454	10.133778546497188	12.976234403273313	14.327333414144343	6.558497889172585	14.12511154423254	16.20140262327996	17.596996262944902	11.939030617134677	11.790513962541384	12.666604963747435
228	1.0195094321259983	2.5765085155286327	2.736984007600888	0.19826014289867985	2.7957713533386945	4.588121402600677	4.589194286203925	2.5165994103789853	0.2013289923353211	2.7908499170413057	4.496291626068609	5.006870733971415	1.9013905477202022	0.5158674107878615	3.147571078936692	5.549292550381473	6.72626255244531	2.6977515152530414	1.6726469951361032	6.127840026642949	8.758275963605252	9.885763143375808	4.284647930771659	4.688137042606951	9.612790083457089	12.6016568819412	13.754440272890564	6.050749763470884	13.541190113211684	15.60419746273942	16.867919879287598	11.295093507859583	11.056591006020337	11.775049179865585
232	1.2547154394896187	2.706261866412585	2.876450292954336	0.1743352259764337	2.95996045318966	4.805492388990345	4.760251033208572	2.5486869747663556	0.16801252918739668	2.926950685740653	4.612532127178938	5.089312063719325	1.8391053630172278	0.31555950561960966	3.2033762850946252	5.564173684377105	6.655168993359667	2.623411410383969	1.397087093640663	6.0097818222901385	8.687983490943369	9.70799443654924	3.965637435437557	4.346930016033113	9.420618987140516	12.52776905711554	13.445731129077695	5.988560184617888	13.281686749303878	15.309561690778224	16.480081516619332	10.919496508685805	10.598256084386994	11.313822717712199
236	1.8462963057633546	2.9357204363136042	3.052278272551917	0.4107819785237273	3.404820910440519	5.261082159110844	5.138588892360783	2.780176394119035	0.38559132717054895	3.4263923081674283	5.093945967211044	5.473335252294438	2.0775890297887716	0.39929318327227714	3.6804220583500395	5.995603546263923	6.959284288002006	2.796600334736138	1.4025455677861223	6.294238074623713	9.01173589338525	9.899837468901797	4.164258946395437	4.2481098067794365	9.61827371076258	12.800039259064844	13.49507519175829	6.415658934607682	13.372457470510252	15.362378081636088	16.516017872119424	10.86934849855851	10.483998272175468	11.356300325332004
240	2.62984060577179	3.254240504631733	3.287880650802293	0.9187197662046255	4.115510930161092	5.913568481773776	5.684402928305733	3.16672419702188	0.8693973400100303	4.2713012587472505	5.879494652208925	6.103294833986414	2.5216662820092592	0.7866964916394231	4.567396152408863	6.781198484466033	7.59165475835977	3.1595411220888434	1.6980931716007883	6.961820584840085	9.68805978236373	10.43987653003833	4.774329173431817	4.399347771027724	10.15129754364534	13.368380512817907	13.883209193463891	7.2175416764185725	13.712416614244223	15.681097944722998	16.901336627250103	11.062651606285797	10.630229923112422	11.776277512382014
244	3.3421759521025884	3.6021075157773788	3.5680467992343456	1.6144795377023955	4.98671291999643	6.649091226956555	6.269622310067942	3.5913052468227185	1.5577334126244131	5.338833318582509	6.818629724453316	6.832511884605035	3.0276698989720794	1.4052958452984046	5.731837258172545	7.775883178152206	8.413064935424092	3.6228928474509754	2.2037134114893813	7.892046908480259	10.595725986431956	11.222218485155391	5.592768655008035	4.730200755574481	10.8822784149077	14.117917025207737	14.511881791669126	8.199408510487448	14.140586817325794	16.12127681476644	17.474815324532678	11.34349343296932	10.876201602178902	12.35244461755575
248	3.7440278435593233	3.893402328198058	3.8330483339809307	2.342537397192351	5.850530132781322	7.315332871087445	6.723085863305381	3.911167134900643	2.3193986357303853	6.4380345181998715	7.722469310336623	7.477720718577846	3.46820782739474	2.116637224575438	6.968095284989038	8.804078079883656	9.253426528456192	4.1119804278506695	2.790387623417595	8.916624046701555	11.581482858027632	12.111083000123138	6.436228259049158	5.135260092167771	11.660983056191172	14.9239196400551	15.267301520902011	9.192669845259978	14.53002639916726	16.564243274829696	18.091508819679778	11.58327099736638	11.093645067816434	12.908855405640695
252	3.716814031753642	4.046528329169484	3.9942536253219734	2.9354844019208897	6.531971914965876	7.769938926153054	6.898779374824688	4.02123450217646	2.9985084457986346	7.377382259816283	8.425322511381914	7.8890151778360575	3.7818026447182236	2.773229353578713	8.077750185599294	9.715462660102162	9.978184674819712	4.595969188530571	3.3389305984120514	9.889221166438366	12.512574164270603	12.995008435818688	7.221081238634977	5.526458726281408	12.39140507430553	15.699482878148261	16.07209201569628	10.129668210203855	14.853568993260062	16.97698016648783	18.69461817789828	11.756569832683237	11.262196512398207	13.404136623872652
256	3.291651479039843	4.00762270869276	3.9646072287598604	3.281384936631071	6.907950383865254	7.923036555313638	6.733049852538037	3.9002456566567325	3.475778570936417	8.030916193713143	8.830352760908628	8.001180628602672	3.983653296903302	3.2766203797583344	8.941237427071542	10.420133564389934	10.52640626157035	5.084169374981089	3.7863926791914984	10.734814616757062	13.308997120633853	13.811683619914007	7.9667672909820375	5.868791565382921	13.05958363096815	16.41106792121252	16.8957500031187	11.047626467468753	15.18451400737812	17.408979371940106	19.315383862366158	11.946680038807258	11.466096849102646	13.920320475718826
260	2.609816544619343	3.7594361210320177	3.6910552885325436	3.365662327852007	6.946422559366265	7.759422759492593	6.265247805989631	3.617734661505136	3.7163157369245776	8.374691942051737	8.925816513414187	7.845805625180259	4.14028118995573	3.6107089428339094	9.548439001771415	10.895127268940202	10.908370944138698	5.596706376250534	4.142569054635013	11.458702058471902	13.947195971561618	14.538495027075568	8.734023072125957	6.1911663852782315	13.71417614335355	17.061029391129143	17.7265738993365	12.030703514242093	15.637990912055955	17.935195877569544	20.011186549208055	12.28409191844854	11.822514504147602	14.570746385026366
264	1.8443903876468286	3.3176102554483022	3.175158492654882	3.266892186499815	6.708132250061885	7.333379726968395	5.61250065340182	3.295190087581934	3.777867307661509	8.47683713680117	8.769255615982317	7.520926933373546	4.319310177388247	3.834929694983871	9.974865888206997	11.164762468759927	11.170166941097357	6.1294092977266335	4.471120346224934	12.113915412835714	14.438338243270822	15.16218467699016	9.547850584719678	6.5684785677057365	14.414131128158598	17.651271775503183	18.530199004119066	13.130621876943582	16.288164097670283	18.581865263754246	20.78610414979064	12.855317083327137	12.388073889926734	15.390533408408263
268	1.1283476324203612	2.720508806989408	2.4723007616566	3.1093573491747737	6.309406741425016	6.739323122175518	4.910919177054246	3.0396208686379507	3.77247714043879	8.446525552405042	8.44865033877663	7.13358162032562	4.541263092019521	4.040398110679102	10.317241642652641	11.266762705013631	11.34615513797969	6.633600218237121	4.84522579877162	12.74583908677737	14.794561348755721	15.64960761887477	10.356224987585955	7.080874902013867	15.173341712789627	18.15029139704601	19.22499651823401	14.311660730468093	17.10852618666352	19.280284832913757	21.545896475753207	13.63626190557419	13.102144208253273	16.28170962991314
272	0.5233111964364872	2.0202684351458946	1.6725162225457961	2.9986040516486128	5.866317257375252	6.074526294630337	4.257191647271644	2.88910006747379	3.80149315827935	8.36982248100446	8.041587809286787	6.748734933980369	4.759845244787966	4.293615807183344	10.624583217499236	11.223652811323646	11.428822488540016	7.025306683922962	5.301697717632567	13.34554573504353	15.003597221641042	15.941325147435128	11.04646679950293	7.7671184343694035	15.933031041926284	18.484563780845612	19.694768855915136	15.449696501825786	17.968351318770015	19.877513835312147	22.11861223358458	14.48917671360145	13.802618945559452	17.048391299120034
276	0.03171917415597597	1.2768276897618547	0.8722568132312655	2.9715878888445078	5.446655736523175	5.409779534986639	3.6793441679566428	2.799363844479527	3.8980820080568486	8.264778116340473	7.590238552003482	6.370010359893833	4.8814425345200245	4.596487987357386	10.860934230086102	11.032540293495611	11.372726411716313	7.2230629738594665	5.815042957883125	13.836013759012737	15.02494331381127	15.973689992629295	11.507636041197477	8.590853669411255	16.574825245017824	18.559383345476046	19.83433909176881	16.384014088273013	18.68413538983881	20.19783205654932	22.32932848061117	15.221209487632152	14.302245103965985	17.497802690197297
280	-0.36905544903084053	0.5508167729776074	0.14717614613567914	2.983191244222927	5.049621569282181	4.776185023646859	3.1456444184038364	2.6751058034114124	4.007752885236621	8.075907686824648	7.098289471824636	5.9563641397773	4.812294947872096	4.88080452640396	10.917075129602562	10.674205753079518	11.125846834702905	7.190667611087253	6.301206095998943	14.096750223808542	14.807500801848052	15.713921507262198	11.693456620257134	9.435981726664718	16.964885668837702	18.297777129705874	19.599952648268783	16.98675342085769	19.095434140631436	20.11996073411409	22.084302846464176	15.66884132243949	14.478023492499238	17.542306855734346
284	-0.6959717852187007	-0.10319343928270884	-0.4613106537139189	2.935617677906271	4.624687183148006	4.173640717459397	2.604999297240758	2.4295351443939674	4.01857136665462	7.712477187711705	6.550108416232342	5.463732228789631	4.510595787104272	5.039845453889383	10.666921588669197	10.136933301127895	10.670150729896397	6.959848386358736	6.649121744534603	14.016282999890608	14.321434938512263	15.187856635848684	11.645869225662924	10.138311360511622	17.007589297269927	17.68001933402435	19.036273908236858	17.212472872192098	19.126497220386995	19.63009257128839	21.417858069704405	15.7626666624736	14.322282754977408	17.239889101370924
288	-0.9466287469805671	-0.6432391388865364	-0.9434637999556293	2.7358381679126187	4.1185703173603985	3.594214907154728	2.0337724634321126	2.0380997606318805	3.8269452952084975	7.111459714100954	5.940665230057414	4.8866815443639755	4.017237176289336	4.983483778769231	10.04198834744915	9.443193411827174	10.048236821554468	6.620900137397603	6.768906099395751	13.54989239132692	13.59009357835921	14.484519921926196	11.468881578099522	10.547710392070764	16.686344104599545	16.76687808571946	18.26587100185674	17.10744281264282	18.80797381420877	18.82730669990214	20.479186960013774	15.54405017742985	13.932006800762565	16.752532916688295
292	-1.1063753338537046	-1.0462911102581491	-1.3094704118092615	2.3482327401955496	3.521290770223365	3.043844215337493	1.4592872821204024	1.5544198712204256	3.4010169420205574	6.289888366077566	5.297433839774679	4.273768891034722	3.4463176640283764	4.687585342016303	9.084979034374644	8.662770249429878	9.358217215752656	6.2839617570532225	6.633782846868252	12.753980604395974	12.70403286587462	13.731774295469762	11.271950693281783	10.592765781361306	16.073755223699894	15.694417913866614	17.445491746725853	16.77901645238803	18.253358794857082	17.882072403582576	19.468702267130432	15.130844078009229	13.44832989158334	16.252166707014098
296	-1.166674372588488	-1.3094142642340247	-1.5748918016725841	1.8186962558605038	2.8880140708487243	2.552617781870079	0.9498452520231054	1.083023068554692	2.8074769902872903	5.360759244735648	4.684524047468368	3.711001148391243	2.9408032819886376	4.214061726421064	7.956959227499721	7.905920008725994	8.721100785171279	6.031623348266488	6.29796169598272	11.782562226111265	11.8098563849779	13.056401219782337	11.120749445494583	10.319062206918064	15.311402282204241	14.643049203142159	16.713827090980352	16.349534947124713	17.610042527560402	16.973751025260633	18.562038374766217	14.658590279763079	12.987072911851905	15.834747274474232
300	-1.1409851283830224	-1.4465774261191664	-1.7516591504694536	1.2593085734044138	2.3221838415644176	2.1669888441687717	0.5782502278987316	0.7254738193315322	2.187724107940883	4.500912178119932	4.184932698174295	3.2831544793206953	2.61305069263669	3.6919400598773557	6.891428930049545	7.295607548413858	8.236867883866994	5.887124046720913	5.881985649517089	10.84489438179896	11.073772402461334	12.547430960447247	11.024993868648941	9.87967679390387	14.568284951621937	13.790193522922365	16.155431706647978	15.92046066079347	17.009872393577638	16.236619908347297	17.859497025221604	14.230132067038678	12.600229231493143	15.492675742134754
304	-1.0710463496823426	-1.4857207499186544	-1.8497517062215496	0.7992830256309301	1.9254767846131258	1.9249737214124916	0.379026173588339	0.5296706543900966	1.694941516411602	3.881879081462015	3.8656825921688007	3.032960168810407	2.4985029634337077	3.2664992726824473	6.111089214154723	6.925406915345839	7.9484653272220935	5.814325317961841	5.52812527214512	10.136828396953355	10.628676387654918	12.235418288810687	10.960008593544458	9.474122023504458	13.99013325020077	13.25959393014579	15.7911710340447	15.55533882028465	16.535465198730478	15.73216815791193	17.377681688303305	13.892053569051914	12.281116454588865	15.153773269540693
308	-1.0202966902722042	-1.467024561039161	-1.8854712200244939	0.528129695512609	1.7420355037576059	1.828545327338323	0.3247312895205559	0.4700491714530867	1.4266655409079034	3.5963082222739544	3.742841711131288	2.94024514409637	2.5443546707764395	3.041184417675751	5.743128762050286	6.820622903769573	7.830105761786059	5.74836729505708	5.34536884865634	9.772719358566002	10.525062534461927	12.093424766525143	10.899812670844875	9.264210677598886	13.656499828191551	13.084011998521222	15.591943701478852	15.280550918146393	16.209262806975936	15.45054431829093	17.075653033059996	13.640143360032164	11.999869316321895	14.754657708109399
312	-1.0572017404567378	-1.4409637414791039	-1.8881977748882155	0.4583296764246159	1.727773781228916	1.829587574154234	0.33549889837436697	0.4672346401338988	1.3879240716224766	3.615115395001739	3.7648613357857768	2.9317018911729935	2.6377820902030336	3.038485996204293	5.769629940724832	6.921152574231092	7.803871135082276	5.637522683215354	5.36730574206409	9.745070432854558	10.70728776135781	12.055776565631426	10.837973567302274	9.307415938720272	13.558697666268067	13.194834675853725	15.502219160994937	15.09420200351678	16.000505406990303	15.330632171071706	16.891647296219876	13.439935650271526	11.73833176510233	14.296606981421627
316	-1.2307906119743395	-1.4594044648517348	-1.8965984535016494	0.5248073922258615	1.7658402875186106	1.84221636783878	0.31884920516574733	0.4358912099323479	1.5021614990455416	3.7988779448917875	3.8269209765134904	2.9167144224913506	2.662697785330557	3.198141328366509	6.036721691149124	7.098422509391439	7.7755837244176105	5.47384975958684	5.542725549055279	9.930146192274982	11.029500933456898	12.044448822129752	10.782073947387255	9.539427733178444	13.60688969037735	13.445273365406976	15.460279425688226	14.972928009377167	15.844007452063156	15.286611518411853	16.76872821388862	13.24795719616638	11.500864953568088	13.848164523447391
320	-1.5460811814374016	-1.5589266976098037	-1.9431635092312518	0.6219845398458083	1.7245596603721627	1.780614252363207	0.21890598480269272	0.33325403844618157	1.6604717927971526	3.96110342933023	3.8146753214845934	2.8313057351154343	2.5544261867879987	3.412237397161906	6.3210377533585405	7.204915028501233	7.674016933139618	5.29638336751781	5.764303192843994	10.139882062106778	11.310186357552922	11.993878334281357	10.731181117620727	9.81523129846111	13.666206325359427	13.662352527456559	15.41013332290956	14.876500092140155	15.665052374389974	15.232416114495948	16.661605792894427	13.025589910045676	11.298619241798436	13.496695484417772
324	-1.950742597423176	-1.7406705573956955	-2.034080500235534	0.6597481949361637	1.529562827063213	1.6058498580443128	0.04961239161482445	0.18234223081328124	1.7800553992152037	3.955753554847277	3.660610666569614	2.670179121905296	2.3293485582669096	3.579314222835659	6.427214129433245	7.140155774209168	7.480247001835627	5.169139849009723	5.922575935669491	10.202502224912545	11.408827752872725	11.871761292048168	10.663712474602592	9.988139127309228	13.61354633708906	13.71457954758837	15.312343558752158	14.759797058987536	15.40941806717406	15.106284103400826	16.537443119257713	12.749929395910108	11.129091234719128	13.289227452104665
328	-2.341224664499132	-1.9562654445848304	-2.1360561793756534	0.6100655778741002	1.2126437394997092	1.3575779165324673	-0.10595872971485602	0.062005415402266374	1.8411906911140747	3.7482864762084835	3.3858575735438166	2.492139571573553	2.0775296635627254	3.6524209883981524	6.274406417264116	6.903616410945288	7.236654263345415	5.148417459840851	5.960698589534423	10.03853700010679	11.291093797786674	11.691128701256662	10.548097583842246	9.985370610775691	13.39384457067598	13.567762340622624	15.15601917255016	14.592125855797583	15.07102581033799	14.892323456358017	16.380800205834838	12.425835578063817	10.973076792669179	13.204999890366635
332	-2.5904235774441844	-2.112869972616566	-2.1818091814268863	0.5232511745593499	0.9098587013161088	1.15038311191032	-0.131848409439034	0.06781108660266584	1.886334056860084	3.436498871710027	3.104501954823629	2.396575206427867	1.9211842965258188	3.6588332560668992	5.933691486636301	6.607894880777606	7.033639413241524	5.254316316690181	5.903606399889749	9.698493933033188	11.0512609202794	11.51053711846066	10.373316738641435	9.841659521050635	13.050509419870455	13.302840199262679	14.969138107653336	14.37764640992796	14.703818284104456	14.630634270922528	16.203792531110842	12.094648330670003	10.813271495221086	13.176739659419919
336	-2.5929474765161813	-2.1056005901581125	-2.0977289623703697	0.5058276640518874	0.805450616233492	1.1299545736394485	0.06511114521276928	0.2642208033089656	1.9872963378322905	3.2099428095836617	2.983415119268138	2.481468194418489	1.9582169006498498	3.682789316415962	5.599189744164186	6.441920741029414	6.979844075700342	5.461818204441435	5.8460755200606345	9.344762778530765	10.87949940795671	11.421408624422993	10.176536534365308	9.675703024277253	12.714673963870213	13.087023702004828	14.821068726313309	14.164875948429021	14.409410440304306	14.410945855949844	16.055789906972795	11.831790894199866	10.662093135617424	13.145966496655817
340	-2.308595174682832	-1.8654614639867568	-1.8419692469821651	0.66997110674507	1.0473641130706868	1.4065912926446822	0.5075936900674787	0.651248632217297	2.2033395711582937	3.2663359559561753	3.1723649421706024	2.801847689230336	2.2175152245801453	3.8224277399830866	5.5054750303505005	6.596661074195862	7.166213017490548	5.715642437809381	5.906939014780016	9.184992767032291	10.98502633182358	11.522511453147224	10.042432759679475	9.627048468125679	12.55492588688096	13.106854405690113	14.807562790678462	14.032056773044141	14.300723993435158	14.34545704080757	16.017373998256307	11.727541893913752	10.575244876864527	13.11220356491733
344	-1.7822983219924389	-1.4002450669221795	-1.4331995212609747	1.0780259343586294	1.6751037793782524	1.9976661154855526	1.1315436334651485	1.1598483294767548	2.552354329340837	3.7228219415132537	3.7351348305812877	3.3452668105542576	2.647137635223358	4.140822876966081	5.826419338774813	7.183381062491148	7.633632163801883	5.955891594154714	6.170039161363067	9.383978819996695	11.506397218263594	11.884976357017244	10.06577679953753	9.786455129710522	12.705598799098205	13.488360370913425	15.015038452386083	14.049061739737049	14.451963388194917	14.523694955396625	16.168785054392586	11.851189583420908	10.631767246106588	13.13770767709659
348	-1.1333723039622405	-0.8070238212237217	-0.9535437798267252	1.7047357516163661	2.5928716594082184	2.8069889474571017	1.8081569625979284	1.6762257772086715	3.004585020108854	4.560324657370565	4.612569797314341	4.032867421458613	3.1378142754487524	4.631494987238484	6.59785316708836	8.179470995278997	8.354372003443371	6.14396856664129	6.6380166839852475	9.990820859480191	12.447549788519247	12.519760100226582	10.297771427858049	10.15260217010689	13.203445401234818	14.23835369329966	15.477424582505291	14.235647165596532	14.855998001737817	14.966685257317733	16.543991047097624	12.211766212149211	10.885965319805619	13.301904644760645
352	-0.5127441870141612	-0.2407772236943878	-0.5182217346459006	2.436281674909771	3.6029691605200767	3.656343450851628	2.396478408484996	2.0865800328025705	3.4972622306264385	5.626719937423537	5.638208375047119	4.747312056953398	3.571088066621687	5.215532289688492	7.6987404628928715	9.428370451964696	9.236108756588294	6.278346999529557	7.223827343822136	10.914776774505826	13.669432605563683	13.363276447889389	10.709470721862553	10.635460826724703	13.964077914268017	15.23431964842669	16.147968251466626	14.541139565948285	15.41389461440397	15.603996237459166	17.095422701589182	12.737547842291466	11.31936356547653	13.634983981993432
356	-0.04627464699982882	0.15046374461809378	-0.223395078810295	3.1065559308774033	4.483211029177807	4.3568467983872265	2.8020377088374	2.323776000831638	3.956799973988312	6.695181829714943	6.6003289056075	5.375271306771762	3.8710267446058695	5.769294724203462	8.896801926085098	10.69346615952503	10.147360776077154	6.394474490233677	7.782787303348398	11.958790748920725	14.939701042603147	14.289618456048647	11.197058649403484	11.098241778009907	14.810102425376641	16.26731486981765	16.903413729905992	14.860279045733355	15.96647163174664	16.288919407726972	17.693687394292578	13.290906872571616	11.826123207751772	14.076167071089513
360	0.20435194619560115	0.2912932925022413	-0.10012501452916055	3.553583374588245	5.068772303181584	4.783581721626231	3.0103623791030567	2.391883367221573	4.315564621520018	7.547052364368376	7.319115620253919	5.843557343034522	4.032499780010567	6.169242366473721	9.934118245792785	11.739150017663741	10.95382878398975	6.549616320286318	8.169827440615844	12.892214742535735	16.014459569552727	15.145765266326048	11.630021065912898	11.4133224199146	15.536799391620521	17.11618609875356	17.582307771160696	15.081170997690306	16.35386081381301	16.84729381122444	18.168704940700696	13.715227092447575	12.246706931665486	14.487047158858292
364	0.24812745985327472	0.2119861388814811	-0.0997635123595105	3.6765758898416836	5.302684770547555	4.9178342695050485	3.0803592127276014	2.3607032239439723	4.521364677457942	8.043258646684912	7.704008082966242	6.134573444136935	4.114896763902877	6.335647090174683	10.615204784295376	12.403773276483776	11.552906960882984	6.796078187950195	8.296520212207597	13.530621494463952	16.715532260653784	15.796340902500885	11.913260429821811	11.506731004273492	15.986149747541683	17.619972184517753	18.041336014020317	15.138867340012897	16.47532268179248	17.1390456720601	18.375238372186086	13.892964328021781	12.435618369176812	14.714871369403697
368	0.1422799375041276	0.030647234913815987	-0.12045633017406837	3.4728379161892025	5.238020406849732	4.838729369344662	3.10343240908048	2.33309387571656	4.545899856534181	8.158427217866306	7.768655280526412	6.277122004873226	4.206694592345426	6.260750754761972	10.864113780248973	12.637204138321177	11.895344704159037	7.154494744357291	8.16518972242687	13.791469539154496	16.97410579210544	16.161235768522975	12.028068512112515	11.376751870995701	16.09836574304694	17.72071833904855	18.205320312312352	15.046066246192021	16.323265034471312	17.10671992751281	18.252719833066703	13.789779628270091	12.330049483640126	14.671416245612043
372	-0.044316667951513344	-0.1083160412557069	-0.0633747725078789	3.0399537009735362	4.9954156749488225	4.669507014882991	3.1486432472842045	2.3977227150461857	4.395153034557602	7.967603663355415	7.600035648231188	6.317759497904171	4.378702152641129	6.01020430001124	10.730043384164128	12.49171063130326	11.986330955760373	7.597819785962613	7.864820460489917	13.704607928961202	16.82741923852071	16.23012157157171	12.027997940213279	11.084201784759221	15.918575246674695	17.461723283550107	18.085788681144415	14.880877457241407	15.97413249751099	16.787191348607628	17.84622950816526	13.461176838267214	11.979112594877718	14.378093683181225
376	-0.2600246363273724	-0.10703603896296768	0.11105875642870242	2.5426626141248274	4.701982963134737	4.508675087035879	3.22184347292947	2.5874986583231507	4.119563092321271	7.599310378915392	7.302413921992865	6.287220939021313	4.647568690963771	5.698090538897396	10.347015354735673	12.078077285789966	11.866753548225363	8.050744036375486	7.5319018173790395	13.379641499117602	16.378622013701666	16.048540074837778	11.99253651452156	10.725437137227514	15.55981536751456	16.948371844416506	17.75915713594857	14.735557518948637	15.542157133916565	16.281949955840272	17.27581973482513	13.018189397369047	11.51513764335139	13.948510134766307
380	-0.4782045173492445	0.03936577578380875	0.35747778325425467	2.15493773869993	4.442039478531022	4.383361328502168	3.260614386909342	2.8632013725471124	3.8121852778507432	7.181074601162742	6.948257905583556	6.181289180408149	4.966466414310243	5.445738778670265	9.872356389869617	11.51395031883046	11.588256806679965	8.41053388379474	7.2950277144309466	12.951277700150289	15.746432264626405	15.688209494082486	11.973820656109341	10.400361988512119	15.144889793305797	16.296615559440937	17.321161226409874	14.659750901403214	15.122746429409068	15.704619368003456	16.673166232928715	12.57266136809839	11.083627672822194	13.520666088300123
384	-0.687360225372584	0.24479751227085408	0.563711641795759	1.9968376109252666	4.235457409655619	4.244800556909862	3.1651213089186268	3.1300339619765745	3.583844891082887	6.797377569203017	6.5570087267312775	5.963484272205612	5.24622343646159	5.337609754437649	9.429226851498667	10.885909053021093	11.191828699465518	8.580766656192091	7.224801998971042	12.526111571157811	15.026310882777544	15.214935264320356	11.966081589051244	10.181252453848032	14.753707848492656	15.59193607208434	16.840431170860906	14.62848564269309	14.753074608748161	15.131493530217062	16.118287999466368	12.189651458481901	10.769669505585076	13.177869763482008
388	-0.8757103063408324	0.3803799440793821	0.6054927095384776	2.0906901306773253	4.0481004612761105	4.005984296221311	2.8498883175422725	3.2795514977624087	3.5204400927352784	6.473970873699961	6.107570632773226	5.588627801136653	5.395730004992814	5.3919186455969195	9.074645973182472	10.236950848482797	10.699412318872811	8.509069421265687	7.310863953252048	12.151559799032174	14.274817430695391	14.66920658222651	11.91741463513359	10.092036221773476	14.398712121849872	14.873236618637652	16.33536716151595	14.55607887407707	14.406665765628619	14.578124009519458	15.610084494279732	11.868448227481338	10.560430500070874	12.905499425729735
392	-1.026581046373586	0.3400038472174395	0.4083263863744705	2.353080266733604	3.821176519283121	3.596651306608415	2.2889730872537353	3.23688220160549	3.638627281539057	6.186448081609724	5.569892869238154	5.033231245684647	5.361900316052346	5.556380257883109	8.797761894902044	9.574904417659186	10.117859814847925	8.210515001548274	7.473260383811275	11.813459366536186	13.513740505431866	14.063931429640911	11.771970719179999	10.100699399241838	14.033957445951941	14.140799486697816	15.782273252695095	14.348470651639804	14.01903816498375	14.009337389861757	15.083976707522089	11.557164163020673	10.36219117409433	12.608151404019528
396	-1.1278829546108653	0.08793082066031642	-0.016275390941536457	2.627816432040328	3.5018508345882418	3.0044808311900497	1.532270070022076	2.9923028870374466	3.8644695184413944	5.882760033060056	4.934220778405328	4.316725243160154	5.150470243801733	5.729848847227858	8.540869691265966	8.890221573318508	9.450372672062954	7.763173560569548	7.599937419776846	11.456784219426451	12.743838278066601	13.395971264396197	11.511975259326169	10.12684533423442	13.588149990107281	13.377494778236791	15.145741424468198	13.961877787625625	13.526474918546688	13.372432674978088	14.462826692305674	11.187500925428592	10.05808255517219	12.173123328945994
400	-1.1860338419533674	-0.3307554415458279	-0.5757716283566496	2.750317089766322	3.0652518195009733	2.284156316712308	0.6882058364658775	2.6011490756165676	4.055585374129528	5.5101761678813554	4.2234434974850235	3.503617516254924	4.816914546249104	5.803371414791255	8.231789568144952	8.173287371027032	8.708476044602566	7.275983792054712	7.594429473776348	11.018465014295307	11.959746330583352	12.662783590771244	11.169124575072155	10.06738469443093	13.004644361087328	12.571239439696217	14.411608659598073	13.431527103845001	12.897231069427368	12.634045568993214	13.70989986772958	10.7091264454352	9.572442984254756	11.540963143774468
404	-1.2291479079684773	-0.8174649456365999	-1.1371650667090123	2.6202464037543867	2.5252461369654307	1.535222049651769	-0.11463586212064078	2.1570649092573038	4.065242280233076	5.039527403505664	3.487304678695402	2.687697165379134	4.4366593248886	5.7063836907319265	7.816491107279417	7.427597027145557	7.920828322439575	6.842715246090504	7.414745788927272	10.460232708270627	11.163706751294331	11.877533882670802	10.801906558421168	9.834435438122098	12.272082297812357	11.732071846905244	13.606016124705729	12.854808774917775	12.144218414163015	11.80432030558514	12.856647458995164	10.110222790941426	8.909361816800457	10.74453351169102
408	-1.2926714387681788	-1.2662492958524052	-1.5810121257919585	2.248513454482351	1.9326211165271558	0.8638228752261309	-0.7679303269071401	1.7531404450976718	3.818307151690878	4.480050075664058	2.7866337228991185	1.966626400750688	4.07422923013104	5.437592969517247	7.282122116776763	6.67854498130724	7.136492234331943	6.504456026821235	7.087994557605023	9.790770505981364	10.377750370527215	11.077495546983185	10.453579876256173	9.394647574547397	11.435874910092036	10.90085312952145	12.792837110645527	12.336979834879951	11.319720239669966	10.940105410611311	11.992962806939918	9.41955850130335	8.147861460141518	9.895020459941792
412	-1.3947746718477951	-1.602169271238725	-1.8424320174430329	1.755574817993442	1.3626177276540814	0.3488607695831547	-1.2090724676123634	1.449792619859523	3.3583795939531575	3.8813080689665083	2.1794652883816563	1.4193276131081316	3.76378821376395	5.066256987178413	6.665184004168122	5.978297218487794	6.425277216901514	6.243222697707837	6.695446951174235	9.070434547411853	9.653524374430905	10.326994869861903	10.126850102605989	8.791340805745893	10.58898160168336	10.149569485788374	12.056974380569809	11.93627163734428	10.500949833106791	10.130553219967245	11.231297464624657	8.696432091691081	7.403797130965413	9.129235244590056
416	-1.5184514484215277	-1.7962801411099703	-1.9229242753117088	1.3201841082620094	0.8941438771561084	0.025854494357397857	-1.4269099199508655	1.2590658632915013	2.838222734914865	3.320459595879951	1.7137088732367776	1.0913983555895157	3.50653885909728	4.703094470547703	6.042355045321912	5.401906953524582	5.870465263803989	6.0048656312014765	6.335818751551203	8.39557454850536	9.071799255355186	9.710876440326144	9.792263959957086	8.134531954254761	9.844822858750168	9.570122694648799	11.481835336306563	11.638940781771726	9.77322957432399	9.47236249439513	10.665560695423123	8.016777972008116	6.783005220453904	8.55122659431599
420	-1.6187580783028603	-1.8595569086809247	-1.874621028935555	1.0988512011441245	0.5831379279672629	-0.11202451558439856	-1.4529273473296358	1.1518541545396628	2.45265220976529	2.8761713432174916	1.4224896395054827	0.9899315809052041	3.2842469132473804	4.453267086229726	5.505141721177758	5.0292491785865465	5.551158414176811	5.742195114896882	6.08445881261063	7.865910510230817	8.723411538034096	9.315389609659613	9.420473074970475	7.561172943098594	9.300711608292863	9.249325728905998	11.127732248821681	11.377831430319148	9.212729430780621	9.04216764074494	10.343119595162989	7.457631092316311	6.3477353889417705	8.197365740106864
424	-1.6521372753392525	-1.8257000400225085	-1.771000500022367	1.1529302567937207	0.4392266858455575	-0.10313042227217915	-1.3468759025900658	1.0792533132007454	2.3441495836201653	2.5981628829208603	1.3180773224930975	1.0860732766387269	3.078428260660333	4.371803272653664	5.12697504656491	4.9155316228739	5.5182733396443595	5.453900323449464	5.965759262281656	7.547066669483086	8.67441747382674	9.20168874324746	9.02150056468628	7.180195313445235	9.004791237030712	9.236863112970667	11.01899239619095	11.088186236043107	8.86949060108081	8.875256515983244	10.261253331026419	7.080267888313007	6.108901962115568	8.040967920982688
428	-1.6117842156724573	-1.7361656383549455	-1.6802606540219098	1.4179444277249662	0.41768109692977057	-0.0055518853337962045	-1.1847374409327758	0.992453870651796	2.5296254094153117	2.4856264528461005	1.3821502889069515	1.3185999360171687	2.8800706790688526	4.440847862475681	4.9346938008650705	5.059232699018658	5.765514359222772	5.18670414568779	5.947986587765981	7.442171554849239	8.926348663681397	9.374378180677674	8.653796174135152	7.02514980449831	8.93683431276381	9.51582143288404	11.135356874962099	10.758296939390645	8.750554062684806	8.953659035011372	10.37918755771841	6.911700231267896	6.03826044465476	8.023934344060361
432	-1.5447559317688115	-1.6313420492946484	-1.64816343368211	1.734401221664759	0.43525573501367953	0.11473496974349084	-1.0452942821814424	0.8571960904413788	2.888790361740319	2.486731284538868	1.5599670370770868	1.6028327901426893	2.6878821781960496	4.579046714665825	4.897696959527814	5.385774598828984	6.2120952449360844	5.0038084857491665	5.9608821718398675	7.486727218799246	9.39346787942098	9.760683988723342	8.394363382126583	7.038697701802971	9.011910415784712	9.991365407513484	11.408760995670745	10.442155811648787	8.808838822059137	9.20600316584399	10.632434818126386	6.928253156335967	6.085584148301148	8.089380243858505
436	-1.5313574037035795	-1.5459278782914263	-1.6917378859723027	1.9263447474481536	0.4077074815470078	0.19770039568100736	-0.9927207206457818	0.661829469917176	3.2221996702857485	2.5227782662593814	1.7678492024610484	1.8473365260213483	2.501160615328243	4.67832325707875	4.942137705722986	5.761644825693724	6.711598379356112	4.938842760968121	5.926952347096431	7.572486381485557	9.916015599964467	10.21576211257438	8.287448862132843	7.0991201221521285	9.108680702100449	10.509229633500926	11.73001477140995	10.225966427734162	8.947063423455758	9.521234488290295	10.941661807091757	7.051261884052744	6.1901984058495225	8.194713571839634
440	-1.6362922150307466	-1.503054495831312	-1.7988296701791557	1.8890892219532256	0.29452574178721674	0.2070638830202285	-1.0546351644591894	0.4214604188291795	3.3503849421789087	2.528639548593216	1.9194509934601265	1.9797078321065156	2.3150896967611616	4.6516585232593535	4.986608969496205	6.04146240616401	7.093603593082804	4.963038908825732	5.7927875372545	7.593146781824021	10.313357327171724	10.562660190617002	8.306602457055188	7.076378327623364	9.114589668149982	10.904495211726609	11.971952408128217	10.168966267660789	9.044413543754406	9.778181051362271	11.220602960867478	7.16701028921705	6.290249808642572	8.308301904682734
444	-1.8587661934653306	-1.5053472480914534	-1.930807704819088	1.6414976078551287	0.1265635487222058	0.14682063423281388	-1.2051030366989235	0.1774185891440411	3.2021927752709534	2.4882061418654664	1.9620858381324522	1.973062987114442	2.1247589534520275	4.469888199011248	4.981649386226255	6.128981097959648	7.225521069403797	4.989295470038738	5.547974572479527	7.490513782662978	10.455685589141483	10.655424091139633	8.357130029559455	6.891309243923138	8.969115234618345	11.06106373855299	12.026069610750374	10.254404995777596	8.999020553756708	9.881831144179193	11.387702913143345	7.167662602447825	6.332127555118872	8.399156549228739
448	-2.116438145062391	-1.5326993426726645	-2.033077711694365	1.3154976334737316	-0.004146448791734163	0.06364993734978977	-1.3680956329136884	-0.010955203296897122	2.847190849745128	2.4426238475164395	1.9026148271207979	1.858743901328241	1.9340032290267182	4.171157349545744	4.931060301728737	6.019699558318566	7.067432862558059	4.916469561561717	5.224707590263471	7.276772957549545	10.317631695447066	10.43817612873647	8.321743944138541	6.548956377661031	8.683780648241576	10.95225998974322	11.84031864991564	10.383513424406708	8.76722905806507	9.791501974180202	11.383566827643534	6.995641690711726	6.281973346108536	8.433098771738257
452	-2.276983493778147	-1.5516896208687372	-2.0550453610987405	1.0879144641111902	0.008481206350967269	0.028274776342649802	-1.447232004326437	-0.08560752101980462	2.4567124781571383	2.4648709234948165	1.8060033275783414	1.7147061781506414	1.7639414027501503	3.8412704370790682	4.883240210601912	5.80088852371476	6.691528780255172	4.689945209106292	4.881897914004959	7.021489125644026	9.98468110424667	9.971049283602376	8.125553110588466	6.13117216469606	8.329831102321249	10.64241311247375	11.441572160443862	10.42107674828648	8.381122567951028	9.530201887864823	11.191024752018816	6.671340925539296	6.13875339865519	8.384544351389653
456	-2.2255735341148535	-1.5366110762901077	-1.975921864289231	1.0893349620018908	0.22274240795165232	0.09925343071197174	-1.3734189237251386	-0.01743966336615585	2.215123647819216	2.6130003863166267	1.7620626643515733	1.62963199204036	1.6495302873926483	3.575952759297393	4.896929251705045	5.604759678995094	6.25108002038087	4.341345776087495	4.583200919977602	6.810238344164444	9.605707144327022	9.405241942501606	7.780965785408661	5.755507931483144	7.999740103551377	10.247410748358732	10.9279031477637	10.268808338941914	7.933551291462629	9.170137382243137	10.846083613668517	6.287286742548979	5.9400033800835	8.255791643279665
460	-1.9346405218870477	-1.4925470314489662	-1.8248707009971976	1.3377494778236791	0.6054838284464285	0.28466454076421654	-1.148819205244652	0.16889136987006856	2.229039663409081	2.8873228953896537	1.834245200294513	1.6568034845483577	1.6218234259666298	3.442584744344808	5.000340925943468	5.536491856901828	5.909648403506086	3.9805302519435353	4.377161491786865	6.697003824491837	9.31451127561642	8.915311790845493	7.386322002835705	5.520630822548563	7.761759261561889	9.874878858430144	10.429989788425107	9.924758886075205	7.536270599411466	8.800758339596628	10.430036518466494	5.96801660938289	5.7520232055397935	8.08771894320352
464	-1.4929946623300991	-1.4620246850294456	-1.680173869659336	1.7313679412997978	1.0354982588373394	0.5255153761947161	-0.8600273706657062	0.38940602442654276	2.480320208963013	3.2193150439044818	2.0194184729135434	1.7812139942974226	1.6871803956349933	3.458060017438061	5.169471250833838	5.616503224497671	5.762817368262785	3.73979996690679	4.2863674055597984	6.678458196944666	9.163603759517933	8.619442917996299	7.073378545068682	5.465631471185959	7.632913570206285	9.577647184986246	10.05709073388563	9.492158865805111	7.2728228385409635	8.49550340414906	10.042352651037099	5.814580902677993	5.644566521698547	7.950045088723232
468	-1.0710000964781137	-1.5055850706235068	-1.6387804705252578	2.1051676220195574	1.358555075076448	0.7172567826281876	-0.6444500072420913	0.5274363146816875	2.8464133667606406	3.5028350264802883	2.244924301201618	1.9222004365073841	1.8145568325005936	3.590709438795048	5.340745912419233	5.770819649431546	5.79385374513755	3.6990885641165097	4.306691158865419	6.705170614479763	9.107118583574119	8.528858163281157	6.935932141912283	5.561240659024403	7.584403972550439	9.345283484706208	9.853461240686366	9.129276252585559	7.170860749259819	8.292633035703739	9.764468168401287	5.862519249419753	5.661215767872331	7.912382582714804
472	-0.8346561768439592	-1.659117098434118	-1.7639529660512077	2.3202855528424036	1.4690883122546536	0.7649762015102406	-0.6202885492876512	0.486711888276557	3.1737790027596833	3.6540775206815677	2.4096529422957276	1.975575918931828	1.9431102226789572	3.783314218505911	5.453299508631645	5.878001675070361	5.889493927391199	3.836214771121984	4.415411461172714	6.723291380120048	9.042894340572207	8.554259278634506	6.981302243726446	5.7348570678878215	7.574841480203977	9.136135078251836	9.78833196076047	8.965632416023622	7.206092339441864	8.196702936458635	9.632112478733012	6.073785766525517	5.799987778325189	8.00964258079078
476	-0.8564320185019321	-1.8954430770702402	-2.040440077398433	2.336386674704218	1.3722515071555152	0.6424625499717185	-0.8180748799650466	0.2433031344231408	3.360183230499507	3.664762726114185	2.4466202197292497	1.873184199372227	2.006991381346408	3.982385863739998	5.494049535231642	5.845985397837962	5.907005771981996	4.031341065719059	4.5826635245016645	6.719312174044889	8.887470222922623	8.564314820601306	7.127280694133032	5.913997158377919	7.588411312017861	8.926276184433535	9.783162092304284	9.029396034331873	7.331118088332747	8.19450280981624	9.629162764079814	6.365104182385467	6.015346988749476	8.221838930352693
480	-1.0731710168446418	-2.1179952567985723	-2.3655450284361423	2.2300543728791755	1.1887702911880966	0.41992309583501397	-1.1539717883538962	-0.13308249380367032	3.4030351552875566	3.614766588621394	2.3701634347202583	1.6270679194378859	1.9660564611387847	4.159273137081852	5.515107140921884	5.673987374285399	5.757075772055357	4.126683701586741	4.780471789688281	6.736890775837666	8.637800194866456	8.464549996939612	7.24792144852815	6.061702712967156	7.6505117223224985	8.74082372365908	9.760848974379662	9.228577590530648	7.506447296264107	8.270258882623022	9.703658079443489	6.651711447134265	6.238966449244462	8.479631402541184
484	-1.3157623973051555	-2.1958095971935405	-2.5869245463861237	2.1493380015467096	1.097382185072699	0.24088896750189837	-1.4635792933705523	-0.5046484457626284	3.3905515585173167	3.634479275110321	2.2791163863814043	1.333149191351529	1.8274011565801032	4.315540779662168	5.610429749628972	5.463804708037495	5.459265218302862	4.013809670804825	4.988364683908276	6.85363100228853	8.383538224988385	8.254574754855003	7.243327599357619	6.187728389376267	7.810488204309954	8.647102334125197	9.690858816475316	9.400227522958602	7.714196662499844	8.409671762214886	9.79631707579158	6.8809070413432	6.407857401882018	8.69210813235141
488	-1.3959252799076343	-2.0292417951848845	-2.574734442886017	2.230349535079358	1.2432309357725817	0.2553627484550025	-1.5826123912908479	-0.7308637481356729	3.4431354912611423	3.8346433542710927	2.3104851187545985	1.129454729089624	1.6436088043677428	4.471684921418821	5.861451134188075	5.372057424333588	5.139380442041402	3.7002501394309597	5.194958673712604	7.129784089207278	8.262181261183455	8.032397249922782	7.093689423771064	6.333741172058157	8.101806620169905	8.713701226168965	9.605668997354462	9.40100953589608	7.948971251445669	8.593129136324453	9.866330121879463	7.040786725387785	6.4868802860514005	8.783946015115148
492	-1.2047527998071075	-1.610916968093165	-2.2906866015774123	2.521854155849117	1.6607308345826925	0.5427566156989156	-1.4315594398594758	-0.7404172997854417	3.6403448489785686	4.241579998751489	2.567280524447805	1.1299880714497277	1.4880245886426962	4.646136272144145	6.281703933114832	5.529008374559883	4.96998499569174	3.315825930806811	5.393916116447589	7.558958988178647	8.3833961275156	7.944563368766368	6.870717031298127	6.539626581847184	8.504661538586387	8.962370849869748	9.581335043558477	9.189689613028733	8.196235636044776	8.787625290618555	9.903030370505064	7.143723469817836	6.475314123971228	8.724122025398026
496	-0.7671616654100574	-1.0406585905503851	-1.811551566318606	2.958983652273547	2.256468051935412	1.0703561278975862	-1.053671476564894	-0.5656366930032095	3.9736537833024497	4.777619826652269	3.0634269637011373	1.3726352418576102	1.42220246432768	4.837277400201599	6.79638241005636	5.971550926390568	5.088128077058497	3.055456392203317	5.57774494670246	8.05530069224777	8.769812561781691	8.11211870052717	6.702813131575558	6.81073473164488	8.94013497956456	9.348264670611767	9.696827864006632	8.855823494486899	8.420994737344989	8.951964355755397	9.923811887481405	7.203462105683856	6.400169833236877	8.536065080072042
500	-0.22158122006739225	-0.4810733186973634	-1.2898831334926257	3.400288573263241	2.863820545595476	1.7140920118924265	-0.5806789383532626	-0.3150881222875936	4.351200092774041	5.301785932506611	3.719874372627263	1.8124455167786901	1.4738795720081819	5.019769179068245	7.274353485814931	6.629688246201099	5.536488995878886	3.088975898573156	5.734370217150525	8.490552880785094	9.350317931409807	8.574561097430903	6.7132792303345346	7.1060018360019415	9.30497071777918	9.784870123000657	9.996914838346642	8.577643372813748	8.57999131897481	9.058806396501272	9.965196584337367	7.225106697914365	6.303960784254928	8.288372972543108
504	0.2615159147335651	-0.07316104304200502	-0.870600459761784	3.7056958581824695	3.336656800428901	2.329856151420535	-0.1469317074880724	-0.10182498369734626	4.649628627482008	5.687015042251775	4.412669170682812	2.3594274461304208	1.6353578526216066	5.155693518019502	7.59562252034316	7.370900135504035	6.25274847359321	3.4792697341813867	5.846805080910844	8.760803200537348	10.00622842169715	9.276987052383523	6.9619769874275805	7.350555878200663	9.526741957453636	10.197736714365494	10.47549340464323	8.528838136120562	8.650638558481504	9.12047765336461	10.072428677877667	7.21328971948961	6.234107478614639	8.073020914676174
508	0.5768688902595495	0.14193011784482404	-0.6097862109047433	3.8098843001496436	3.6284739879550725	2.834592096801473	0.1970976586133992	0.03335685274523837	4.779773700090435	5.890287384420446	5.0445318094683715	2.936692707276726	1.8802571249219966	5.212821947288108	7.717067222184979	8.074841478941599	7.10807893865783	4.150845040331891	5.896157726660263	8.844651199898406	10.640007945853847	10.101998303657505	7.416131954542668	7.464957695233604	9.606083845681052	10.571494075787571	11.08309266153204	8.782673813580274	8.655203797422613	9.196943259861005	10.28770921017105	7.186743718122306	6.2332568011265534	7.976153830417568
512	0.7413178663610793	0.24887454446900326	-0.44285762198217277	3.752961626114282	3.8141095541978136	3.2510170854504183	0.5196267353289988	0.15663640161544876	4.732520568343282	5.977578148055039	5.598940835168232	3.524289122266576	2.187271827897469	5.183453069951369	7.700738410580698	8.695935227373488	7.971815565963189	4.927837836221736	5.870983585793646	8.820070244455096	11.22566220310324	10.926472636292702	7.9637465275924475	7.400866966635652	9.620774244813884	10.958867999064916	11.75101086510694	9.267453170266482	8.661105134077635	9.374510741407319	10.637608501279827	7.184369545917607	6.3304819900900675	8.051306704220744
516	0.8756206609553165	0.4107177247168216	-0.225828945066586	3.652546396570443	4.038249959286821	3.6845400240378847	0.9621053909806464	0.40289392965638987	4.5800070647000215	6.08483694447613	6.139595016237294	4.156447876926632	2.551341765637949	5.092471109884445	7.683337669047482	9.273647284935901	8.759636856851328	5.614021763932647	5.778053269103224	8.824811913144297	11.806867569677829	11.665195435636104	8.455500581374082	7.166975003267432	9.683368658413173	11.439587564196431	12.41127297128906	9.79379651457968	8.748272873725723	9.717370008730159	11.11610695893404	7.250112515264561	6.529958708489025	8.299017885235958
520	1.1233053179036727	0.770427999935502	0.17112792985148995	3.6349575427787912	4.4204549677822955	4.244179714931449	1.6379327732694025	0.887273070956262	4.433900345098202	6.336348994469786	6.754610521428914	4.875400530903687	2.9776561185044796	4.989050852577197	7.8017020028550865	9.885740255192273	9.44388196468188	6.075331672588508	5.64675568108633	8.980058647371477	12.44559475617555	12.281935660824589	8.761560417942663	6.832008821404401	9.87479207406757	12.052502601711469	13.003678289007247	10.14343640627505	8.958907104761305	10.216205571130388	11.668596238239822	7.401061516195708	6.798126680376663	8.65631673534705
524	1.5544508656356306	1.355284329807301	0.7707137446018338	3.765646209746197	4.972785937151953	4.954374777683056	2.5355837281105957	1.6167085129927883	4.38544272269247	6.767330629429025	7.479588012884655	5.67305277345768	3.461673966250958	4.925523745498818	8.115447977557338	10.57570836258113	10.029748891303296	6.28586433730965	5.522996888521593	9.320103621793708	13.156540837449432	12.771310774029955	8.820058800363329	6.5032410457452015	10.19330403615403	12.745835272080113	13.47401710923089	10.174518559516889	9.262285209158923	10.768648120394785	12.191090553021725	7.6022267149676	7.062096101096923	9.007204986719442
528	2.110683435833146	2.0415048547700123	1.4524956904932624	4.017134179463424	5.577967152817622	5.712073311689241	3.4874408157037253	2.456306689736532	4.460368145171758	7.294882279098062	8.247601488271046	6.459670527361554	3.968555440419814	4.9328722829253335	8.569676377594604	11.300411195834439	10.518206569818593	6.3158325989527375	5.452174649778283	9.767605756894342	13.870486224440837	13.12954136394582	8.656188942988974	6.287850364068552	10.5488710137109	13.380524601532365	13.772604907549292	9.887114499878743	9.559205031102143	11.210475893327128	12.554154364360937	7.769496421271358	7.228117924560815	9.217044807051465
532	2.625597470330232	2.6049556666408926	2.0010595271133376	4.289822567599415	6.043685420989941	6.321831210387788	4.232944001001076	3.1775674739720423	4.611699569502818	7.755870322672949	8.902582146102242	7.087256890523144	4.4294338114485905	5.004327761413139	9.019493080255312	11.933882683187713	10.88604638212231	6.274377330197538	5.456261621050924	10.169354413106587	14.453813516364074	13.339746441540104	8.367639520499718	6.249147876220709	10.808014842402327	13.792199100004705	13.863785708710685	9.417973494593484	9.729359602205747	11.389763803335896	12.650597540386972	7.8072042268097	7.219068508995284	9.18464944427925
