time	FP1	FPZ	FP2	F7	F3	FZ	F4	F8	FT7	FC3	FCZ	FC4	FT8	T7	C3	CZ	C4	T8	TP7	CP3	CPZ	CP4	TP8	P7	P3	PZ	P4	P8	PO3	POZ	PO4	O1	OZ	O2
-200	-1.0403553221185335	-0.5171886669452618	-1.192843911020341	-0.8213164189583273	-0.8406494238609932	-0.4590609062048742	-0.11084968568709998	-0.08399020114197192	-1.2620161739911446	-0.5567773566493871	0.1917933220789398	0.21667651777398167	-0.0691326780361921	-0.7190437894786869	-0.3772419979584594	0.37734919691181734	0.1167500388654861	0.5088939057853263	-1.0536210510355413	-0.11736188799314132	0.25748151475748393	0.546943543960592	-0.19279594670733646	-0.48276826617423946	-0.31064060251961717	-0.3126202515815441	0.2521397465062001	-0.10492430600855199	-1.0340087387681631	-1.238535877915478	-0.6191968306167015	-1.7694866612581837	-1.2622169224342412	-0.6071345790793151
-196	-1.2483395306540928	-0.2595464878681914	-0.7419027667387835	-0.5577530250772521	-0.6148975475999072	-0.5526078925485858	-0.8769884087355242	-0.2278617763726795	-1.049490210744457	-0.4004087438010768	0.010306782994474243	-0.49828475587925053	-0.7343348842200488	-0.45719405893289994	-0.13631886209402985	0.27831855346029233	-0.631743548705599	-0.4082958985987448	-0.2789800160040172	0.4598523366762037	0.3750902702875004	-0.04587468120794427	-0.9949728225382891	-0.08057738075178093	0.513108430997464	0.041077475891114705	-0.17616283849108363	-0.868784187030774	-0.5617273435715514	-0.9610934829288494	-0.7872949222714571	-1.6378803211821324	-1.133411166190536	-0.7851188759054912
-192	-0.788820920383144	0.12139846353875133	-0.18869748663944463	-0.0985262913004508	-0.11662352800726974	-0.4306844760034618	-1.329727169494324	-0.10828279676516736	-0.3937343647075917	0.040817506508292904	0.05009011166562218	-0.906706807708344	-0.9875465606551832	0.1320298161749499	0.33218657886559416	0.4483827937249674	-0.9984227393691785	-0.8629257061152368	0.5512942657856975	1.148203131637809	0.7222731691244642	-0.3801353862224861	-1.3868091071401232	0.4884043621606811	1.3362309898972151	0.5020751344402373	-0.4122274507605258	-1.2532603709050356	-0.01611793223424376	-0.5426496253618139	-0.792625902082064	-1.2637392250579613	-0.8485193231140423	-0.7988444546557801
-188	0.22278371397037736	0.6127028449801736	0.41724502934969476	0.44329136498110816	0.5697843418040781	-0.01451744973719502	-1.2299387423933603	0.25116366084582264	0.5063302504153646	0.6485511048155077	0.3463400295573229	-0.8248023965992147	-0.685884473976316	0.8978564120512151	0.8480058291005987	0.8239346721827654	-0.8678632952713192	-0.6324170215852158	1.16425549690032	1.6696582990453213	1.1405552596859876	-0.41631424321923227	-1.1879826754140232	0.9654830073776058	1.8134908630361217	0.8496338107592387	-0.45028439050475805	-1.1013854714242861	0.36420306471424946	-0.18262007786420023	-0.7018145901127015	-0.7950237373306792	-0.5531038627965096	-0.7074299436828136
-184	1.3457401956913828	1.091171381102784	1.0056042645814547	0.8876650907039599	1.2382230727404864	0.5971954449834679	-0.5907270893441288	0.7358719687956358	1.2672485081148972	1.186132904872734	0.7822014669696807	-0.2913409762179412	0.021446946954223018	1.5152509174237487	1.1604919404294145	1.220865842597847	-0.33258488690330007	0.11802064597611632	1.3032730784890318	1.7615768864978805	1.4149092400113767	-0.2351724797510189	-0.5288729058264369	1.0675102445353255	1.6814089971052533	0.8917481876746998	-0.36410775688749425	-0.5224565254372107	0.3614952853135847	-0.07273212801928422	-0.6229903086192088	-0.44572695977209326	-0.4084447910010179	-0.6182470306046036
-180	2.043336863127203	1.3599338497159112	1.4781516753070272	1.06648933618219	1.6458239513805826	1.16702842417756	0.33418184434441284	1.1681519717287394	1.5098723135020868	1.4145536387015445	1.1461257905633417	0.45998123172020505	0.7932966927526726	1.6520405966056708	1.0815677615515304	1.4291384184041014	0.3604540517766323	0.9321616864511444	0.850422260998337	1.3147083487696087	1.3840815986020876	0.017254795835561422	0.22923223616421756	0.6461591704267103	0.9016799307946135	0.5633967504582057	-0.2583350532685125	0.17487418607429323	-0.10045678143172333	-0.29829117580442804	-0.6447094662601435	-0.3868929435975453	-0.5116742240384996	-0.626449642983949
-176	1.9696588466506246	1.256244060205669	1.7280594066859585	0.910825131024057	1.636137719791879	1.4480370246567411	1.181676384803419	1.3691880668403738	1.0725399228673533	1.2260873286762777	1.250265595140502	1.1246441574312374	1.2952840295513774	1.1675479382601106	0.6041244849211129	1.329608317832942	0.9346767044310922	1.32647025250273	-0.08200686404265883	0.45717778686491733	1.0352991793242923	0.21343854015821725	0.7078121882687932	-0.19815744409599115	-0.2789949469674957	-0.0216513350059321	-0.20289123007093982	0.660502134086024	-0.8809229709318587	-0.7756927589859305	-0.7756826858009889	-0.6405239089052935	-0.8331799486105341	-0.7511634807695101
-172	1.1524249286165908	0.7647858242753087	1.6817727046467543	0.49916133158542664	1.236760732389259	1.3313566412690798	1.6613535839097335	1.2364301650301694	0.12676672605457096	0.7208191734234842	1.043086526144536	1.4790276251644348	1.3759200538228886	0.22069044355463424	-0.06467200054291472	0.9661831235333699	1.2123713462737733	1.0692224475568204	-1.1557222575572406	-0.47263249635577465	0.5253918753710534	0.3073339454520837	0.7294168453874034	-1.1264005870990441	-1.4028720820293776	-0.6042787417414022	-0.1919573689621087	0.7653394322145848	-1.6521434742222934	-1.2720366684269049	-0.9258870459068362	-1.046739575604307	-1.2141990630965513	-0.9111646986844851
-168	-0.022382898199671285	0.06198435633626234	1.3459877933851547	0.03413181370819992	0.6696818454047053	0.9230821109354329	1.6906716780892523	0.7987760285237507	-0.8802990891165697	0.17494381920037627	0.6489108784504637	1.479885693628455	1.1257461281010626	-0.7838031033753965	-0.5852319583422251	0.5294264541610684	1.1829224795039475	0.3126237086509323	-1.9293776701852472	-1.0664283010260942	0.10918304296584017	0.34317311557911256	0.4113008667575094	-1.7071024136358426	-1.9913674542694606	-0.8938508011184878	-0.15155340692880395	0.5642011747420634	-2.0378663488435294	-1.5094972810781069	-0.9468232965406228	-1.3347717489875082	-1.435662027549008	-0.9604260301183397
-164	-1.0178153489164694	-0.5532631264069474	0.8250780084759604	-0.2538560622481742	0.24798263546799734	0.49097061033268397	1.4077427351695462	0.21054032391797597	-1.4433875047481308	-0.09910317485345294	0.29893240257130277	1.2558692662002675	0.7909842709598048	-1.3994632924032793	-0.6555480344433805	0.2493000769281416	0.9750168298900037	-0.5012242781382169	-2.0613954015184994	-1.0449655029616913	0.0011685490578712304	0.40390947359150897	0.0779713166771686	-1.6370341736470373	-1.7741754010229571	-0.718544958207821	0.0027487305854897604	0.3102372280871181	-1.8051594450197421	-1.3134773936488153	-0.7195358258200655	-1.2727346388154626	-1.3347332443870805	-0.7743645886897538
-160	-1.4195967876832576	-0.8124508241168191	0.29284465239021595	-0.2260791057600767	0.20813287742041497	0.30870598476670436	1.064640161687347	-0.3152355841783956	-1.2624288765505274	0.07180613261213345	0.19192889284313913	1.0056853268981445	0.6107622965651206	-1.3827751840011988	-0.1812552805139015	0.25770485336089344	0.7593691329857314	-0.8970290399791769	-1.4927772245865074	-0.41371607676003275	0.2469937348090256	0.5378642068634589	0.05473294840345382	-0.9166382528050346	-0.8398178794638311	-0.13271461393704542	0.29612418934444507	0.27061676910740773	-1.0060929034580897	-0.7232632022716837	-0.23880726038721245	-0.811274645664436	-0.9048758722347562	-0.3361294559098538
-156	-1.124675867102178	-0.6325902326824958	-0.07735504935523056	0.0819606853442357	0.5628995285127447	0.4832211422640995	0.8669842459723911	-0.6072127207684184	-0.41579213633464046	0.6030711516413017	0.3621059348977669	0.8668343402911595	0.6782348734898005	-0.8389520027913652	0.644164024157181	0.49689915650797767	0.640861509612449	-0.634340999909063	-0.5095207678328464	0.509012340214196	0.6767111403546094	0.709722576733666	0.46931683898690285	0.11718844592786343	0.37568828368702206	0.5804586991913735	0.6556532962457882	0.5642578587591017	0.014014416338883147	0.0004950121498276042	0.3569658091592491	-0.13605713809948192	-0.32134976901937357	0.22900073172449445
-152	-0.36311954168193566	-0.1822149003912013	-0.19739550302258985	0.461202501086247	1.061169383230839	0.8676994421032453	0.8542901255973362	-0.6235425456516586	0.6525129659390805	1.163267609520307	0.6344150288776872	0.8318891504265372	0.8985600448810122	-0.1764188404397476	1.4016433918850797	0.7308672052050612	0.6009465440836469	0.16483306843149276	0.36655932572323885	1.2196054427826086	0.9738656853883629	0.8076280335062843	1.175219652069782	0.9327679252916243	1.2722637621229258	1.0251096461163758	0.9289686656385884	1.0924526425436412	0.7627738098913505	0.48747232433268145	0.8345502593904607	0.4111909259904987	0.13122770157107144	0.6973931175744262
-148	0.4401952613207122	0.19561225126470197	-0.11244776071529942	0.6256495102345042	1.299873110350338	1.1279791565072899	0.8946063495937531	-0.4705014216941782	1.3422979082550055	1.3290291991057666	0.7106193882166922	0.7665531019884371	1.0616607639211266	0.11468007386579131	1.6381586748725308	0.6692283732683991	0.526793478589408	1.0941468449624594	0.6234407409186392	1.265936609886703	0.8384768941690601	0.7097023111544934	1.839612717752275	1.0613357993986319	1.3662680353001997	0.8837060906033293	0.9589161252607017	1.6004012782698611	0.8407875874272337	0.4421327997012116	0.9771494840746827	0.5112683760132486	0.20144505747956692	0.854842839466943
-144	0.8779650904423478	0.16853836136227757	0.018662633327214764	0.35948818831280804	0.9400422549355815	0.9321753955194082	0.7892854789833504	-0.3391850284119049	1.2020026415041145	0.8109146336109015	0.3429990998191301	0.5136185871508085	0.974131224080167	-0.25595602328527645	1.0965665551156518	0.13812321389611493	0.30290329379853614	1.6944971041812786	0.023242888913480548	0.47837272165637595	0.15888372023522496	0.36853030230937284	2.1334378665465707	0.33912637744159396	0.530861257166479	0.08833950735676765	0.6726061088746478	1.8232229902011867	0.15117184779623763	-0.194973095759228	0.6986581069473006	0.04701040300778834	-0.19164498101962957	0.6099228843548682
-140	0.7350611072101586	-0.39139705797559304	0.007875687422835738	-0.3611460318984051	-0.08669237025546134	0.15691345890482647	0.4170078922710546	-0.3962606777676959	0.16862656133516127	-0.36904099490451897	-0.5025652634329879	0.01394520137663505	0.5658239111919764	-1.1970727413471887	-0.13395617868458215	-0.797841606509966	-0.09628760045298407	1.697106595522957	-1.2520815102436442	-0.9231170392571831	-0.9018239356160273	-0.13984703982331176	1.907180304480487	-0.9913636420969619	-0.9256511307234109	-1.1179639072802567	0.13391528989836948	1.6267923075611403	-1.0324757073084105	-1.1961908310253186	0.0981821042800643	-0.815899250831593	-0.9005354620131707	0.05038600402270136
-136	0.048481285449648526	-1.3179351058110225	-0.2524123483483921	-1.3356412615432962	-1.497755166087001	-1.0095572446129781	-0.17265820459642858	-0.6872929317288025	-1.3869500125200163	-1.8485385132848542	-1.5899759490878085	-0.6310658438962139	-0.08135046044314652	-2.2688779773648955	-1.6306495625333963	-1.8342342330399022	-0.5696794376295382	1.1440426082337014	-2.661460392908144	-2.406700605038167	-1.9559948394982332	-0.6329624636881783	1.2580642668432243	-2.3793988167770195	-2.3886189400447564	-2.2680878581957478	-0.469608246094474	1.069352504891392	-2.182568306180829	-2.1392936652530996	-0.5768450484016995	-1.6989088015578355	-1.6076302487792586	-0.5899507984525341
-132	-0.9448178386675733	-2.2198522034865986	-0.7183833104115983	-2.216394657261197	-2.7613966395277774	-2.1337180083763077	-0.7739995102414262	-1.1053230734574964	-2.8314752507247474	-3.070266477462556	-2.5039200719557972	-1.1954717605925638	-0.7834884504564216	-2.9135651514879495	-2.8145792413222153	-2.555528157457824	-0.9316844916662774	0.33574342642894067	-3.5510616212834547	-3.361463061428893	-2.5600671703552993	-0.8995060301958541	0.462511240268276	-3.217249862177518	-3.2156066813344983	-2.8702704833996258	-0.901502189744342	0.36015906839038364	-2.764012568171075	-2.5992898875414276	-1.0413386795455553	-2.196040863214685	-1.972723121430791	-1.037468907597928
-128	-1.9243056725555356	-2.6793048314159478	-1.2048600881674323	-2.664335005709114	-3.3459105407162064	-2.7510461737793737	-1.146208402600792	-1.445712562725659	-3.5721297173911517	-3.541106215119625	-2.8541059421959307	-1.4502024613959639	-1.3453019823441006	-2.7580723692877576	-3.215598336684251	-2.6385676794191895	-1.014407512964685	-0.3516849270524496	-3.4694139869833696	-3.3805119905952767	-2.426413053108515	-0.802188930870328	-0.17547881558936826	-3.122041217550953	-3.035582773173903	-2.632006876976037	-0.9809947585133691	-0.2513308518739955	-2.489860051544518	-2.3472962320192035	-1.1042007179992095	-2.0762436337502983	-1.7973619654099122	-1.106271979399925
-124	-2.6058638030063976	-2.473530047847344	-1.4778788052439344	-2.5065877374306296	-2.9910461827101753	-2.613860362129275	-1.1654906243462373	-1.5180829725084566	-3.336165181320035	-3.075200311526027	-2.484434121535024	-1.29874932438058	-1.636758680979581	-1.8217344238063244	-2.695052378525847	-2.024310583725777	-0.7690665702476246	-0.6679969413104486	-2.390973800344597	-2.4558496413215485	-1.5706633289736043	-0.3502307823398581	-0.4679916191206351	-2.1095845646048415	-1.9221363019097677	-1.5989215333624032	-0.6642795188344827	-0.5879991039689362	-1.456329818863404	-1.4558623992402553	-0.7529533486429514	-1.3943402731977688	-1.1210677595444538	-0.7806350569089382
-120	-2.814563028858877	-1.6950019555212517	-1.3874754870670294	-1.8136601402268566	-1.8517554951645494	-1.8306561662230691	-0.9075481868718691	-1.2480602232893805	-2.280854696237245	-1.8899123620954954	-1.5666669567607938	-0.8411387779933637	-1.6195641715167675	-0.5140032755272177	-1.5096709690125438	-0.9604397391866035	-0.30184888763512163	-0.5893399104497734	-0.728710887976466	-0.9832940076797748	-0.3134746543599198	0.30201238317532775	-0.4004562189005206	-0.5735411033454965	-0.35176655561326337	-0.1354589458860264	-0.05875338226624136	-0.5989785179274218	-0.08591306932931304	-0.2550393038509454	-0.1460594084151481	-0.44869500285351266	-0.19602990100958867	-0.20816446788206616
-116	-2.5059935983330086	-0.7062645536711075	-0.9604867076465678	-0.8603578784201513	-0.43388298044332335	-0.8169034102795887	-0.6070702060631202	-0.7110173684288528	-0.8871846176636387	-0.5037595616973372	-0.5232348428867227	-0.3251453629867651	-1.3271734681000147	0.581065653287589	-0.18539768410604304	0.11091168941867104	0.1785806412956482	-0.2785177223803064	0.8692492224681374	0.4251657117599643	0.865225670537378	0.9289779639631499	-0.08932802058554937	0.9127672887645149	1.0294235918757477	1.241998550140317	0.6327429993866693	-0.34214296850606035	1.0872931452956203	0.8328216054870492	0.4769465315221136	0.3854510476394243	0.6432377083750653	0.3864340474385782
-112	-1.7591011479787404	0.043761260697027626	-0.3992390622549577	0.003642135290546714	0.6461200101751918	-0.08404088744164483	-0.5185180889389756	-0.08789092280132063	0.29275777862067515	0.5095278607855568	0.18072502269415722	-0.013784549164242063	-0.8315116146074831	1.0108939383733362	0.7318820934890894	0.7623223047083169	0.46951818347644575	0.04367928940950723	1.8315610839377645	1.2253781526145306	1.544611092482373	1.337539431056021	0.31033685725060867	1.8646897030481535	1.709917660210766	2.0942203945691693	1.2039164274337308	0.07215453666112717	1.6739422040638023	1.4895636997762005	0.9143290496629766	0.8486530759365806	1.1424552173380509	0.8147130587989128
-108	-0.75077736188163	0.24441064832491616	0.017445165619912786	0.5100616799828174	0.9588907336820914	0.023775804727846087	-0.7564980368587944	0.4302124966249995	0.9017263032081316	0.790448425204627	0.27032926610405955	-0.04116369773485492	-0.2216635787851027	0.6878036243239486	0.9282687879014028	0.7839165906187623	0.4793493735608773	0.23125591815736113	1.9260153721819564	1.1858352392774771	1.549243327044042	1.4484851323750312	0.6834551674753387	2.092118257962538	1.5408036669930234	2.2420813980715883	1.528871890022721	0.5341742025240205	1.5987193544078355	1.631713147812083	1.0896149846223386	0.9124190188259715	1.2396261660749568	1.0065411303856688
-104	0.2883352928034412	-0.13303843107013136	0.08811120666669311	0.5771489128799973	0.46035319450498674	-0.4978813814467515	-1.2131561010249048	0.7316013556129061	0.9157028175122914	0.348032116011257	-0.20647571928823108	-0.33953529510604313	0.40101742643198635	-0.07854838649468518	0.4502663302974367	0.2747049622752629	0.26974627307498333	0.27659147907996345	1.340547319842372	0.4750545310901076	1.012026784249077	1.3154268231559174	0.9797711347638645	1.747827883122254	0.779865203318963	1.8181260778300221	1.598382111328548	0.9579448079718943	1.1026598187263665	1.4151339495216126	1.065661785296218	0.760125575530666	1.071494695819211	1.0214098666152187
-100	1.1336085767735335	-0.8443579056402655	-0.19475041280690936	0.31553304115739617	-0.5112119304147889	-1.325487610331444	-1.6085854728140172	0.8139526227427882	0.5940753802559327	-0.47644448160043806	-0.9180644727416193	-0.6819797737069385	0.925186631727849	-0.7657962422109901	-0.35013103396707834	-0.4243066300169856	0.010308989297647937	0.2783906154756438	0.5474579916483495	-0.4475521433974748	0.28551691698467496	1.0746496888684964	1.1869301765992366	1.2048810690023404	-0.06370326860556791	1.1680090397909288	1.4952834806836954	1.2758054701065376	0.587852953380316	1.1216716738037935	0.9848140453269991	0.6537665708248315	0.8769314266952627	0.9898187493129291
-96	1.6298624235964798	-1.5187597236435277	-0.6374149306416586	-0.05836725592778066	-1.4301050865306282	-1.9932851741056223	-1.6515904623294635	0.746428308986574	0.28630918192102917	-1.2075810401945593	-1.4365127050370945	-0.818073389848931	1.2419767348403843	-0.9251271462925134	-1.016210434255299	-0.917338965007245	-0.12815687027999642	0.3477125457091006	0.03569260975647677	-1.075333830979501	-0.24848397013393742	0.8569672682106637	1.2879911628629421	0.8422862270070377	-0.49769949787367856	0.6597767455609389	1.3294230665974478	1.4270487987728415	0.3965128352167816	0.9978757475454558	0.9756863092584306	0.7723917345573141	0.8566150047609306	1.0249820921768784
-92	1.7383115247707313	-1.8517208052613778	-0.9474937891880083	-0.3430334320944341	-1.8562928391319757	-2.1434216445212417	-1.2160284488493789	0.5999665841213689	0.2205693716202399	-1.481999274326854	-1.4654780589297234	-0.6211357697063495	1.2783923116832583	-0.41563179984059945	-1.2211247651740975	-0.9574369167950455	-0.07559701036201905	0.5249816166021001	0.061994757346749384	-1.1037737103251166	-0.36845010426003	0.7154666167315232	1.246928092669375	0.8569690563500024	-0.2881622009154505	0.5034004437134721	1.1729028195332118	1.3646496499893443	0.6437819583851354	1.134242531773764	1.0810525390033927	1.11687171177215	1.0679583522536156	1.1569697827692398
-88	1.536108251508052	-1.7361246303594435	-0.8953074790284758	-0.43787234911039047	-1.636074777287155	-1.7000937418929787	-0.4259643841956157	0.40143412250255905	0.39496737618862476	-1.2095591991403705	-0.982498822115834	-0.15921546478604603	1.0367885801841794	0.535985468464882	-0.9123381949278602	-0.5582233057233426	0.10251125667439624	0.7586341481128617	0.5479828701489164	-0.5603817687191442	-0.1052378487910207	0.610543428310058	1.0346379253968236	1.1930413216033386	0.445507078238072	0.6702123863465116	1.0313253376671498	1.082170722136556	1.1859561174967765	1.4429918491171108	1.243512746532368	1.5304172000392662	1.409195300359055	1.3233631815877231
-84	1.1657160491122087	-1.2719287840201339	-0.44509956128277156	-0.35717284589235365	-0.933858869102194	-0.8799469448761259	0.4008272876156329	0.1412185128938085	0.6213730557966013	-0.5749177918223979	-0.22480527999863675	0.3490467062720621	0.6109031423403692	1.471759315589585	-0.299567668873715	0.03941948701919637	0.25648045475100867	0.9478727555185334	1.165274736323406	0.2417670333241901	0.30378436965538147	0.45707708481782355	0.6714245063996037	1.6127903420737257	1.3197033371984648	0.9445013976092597	0.8632003643176683	0.6394077523300475	1.7281402305840698	1.7351189807953322	1.3516043390481594	1.8118085815462286	1.6943662123816825	1.4165707790849407
-80	0.7556933741563582	-0.6708904487837646	0.2185919875348087	-0.1818245495735528	-0.09949807052525407	-0.04833519446567289	0.9188649631189317	-0.17932864978336843	0.6764344555942606	0.10025243435820742	0.4595306802114854	0.6624321324789784	0.15862369497304882	1.9446638773457499	0.2883197359911941	0.5144997226122985	0.2529222064785135	1.0106406186336805	1.5423465928237836	0.8862500764405647	0.5607864246515026	0.1973860556864168	0.2452805781132166	1.8509843302723925	1.8976070832979919	1.06381976335873	0.625934003203299	0.15854985971951974	1.994899863928511	1.8373334361418185	1.3090914454787363	1.8397121382995092	1.7643921330728038	1.3500423397311192
-76	0.3601453295197976	-0.12775784698655498	0.7849410156459306	0.009322070493109944	0.5370798693448399	0.48640650387982126	0.9374797916585123	-0.5016489612311693	0.4568206358343249	0.5429631457925409	0.80248021876861	0.6514757259133179	-0.16476249653225689	1.7322375730648751	0.5871196374374957	0.6382921918012479	0.05983101561460817	0.9254655814646936	1.4681389294750682	1.0671122047185204	0.468013553629857	-0.1493738140864828	-0.1189155575610952	1.7586177543108326	1.9048978042192208	0.8644517042269236	0.31461986819942034	-0.2219016993403792	1.8660092306708596	1.679255719713534	1.0844023200313124	1.6322091776646515	1.5687400063008479	1.1026763888175721
-72	-0.04668622079625406	0.2636518769760209	0.9800719594052864	0.1820797915629978	0.8209507444635535	0.6205714925356857	0.5155552612639609	-0.7073450070642232	0.043002162020116884	0.6552925689365182	0.7413520198224495	0.3612139513909552	-0.2782973044044835	0.9190703011196646	0.521092115517102	0.3796820332954691	-0.23482289851029384	0.7278130036098365	0.983008263013443	0.7256358247556226	0.02028601797763805	-0.4909380661967188	-0.32473862089184474	1.3613667453726939	1.3436632122447836	0.35778462796478366	-0.028964484037346295	-0.4135910262156097	1.4107942545557628	1.3098914590188917	0.7176612001419675	1.3118563857335963	1.1773412197905606	0.7215237599275952
-68	-0.512376187938247	0.5096299039371546	0.709311960336845	0.3396666637427964	0.7984004000533246	0.46657532335738044	-0.08697086550689062	-0.6752729994890998	-0.36143308786691863	0.5190017806301067	0.4141778041396196	-0.034079577687766774	-0.21617847626465714	-0.176232978256646	0.20641924388744898	-0.10819789739947977	-0.4844329642939684	0.46559801580178817	0.3212682000632044	0.047585550575515764	-0.6143006666886334	-0.7199404817524239	-0.36683282163510017	0.8119551518921184	0.4563359308642352	-0.2968116395132264	-0.3444800666218028	-0.43014800439951534	0.814470050662777	0.8435376265209376	0.2854976944867834	1.0055804227236047	0.7221941929703362	0.28509029674077224
-64	-1.019966480540982	0.6519629342784818	0.10574185821538831	0.48339965817475106	0.6251772030304965	0.2407634401203183	-0.5656434879326968	-0.36791261937712494	-0.5648683891339945	0.29912358446893716	0.04510688397820858	-0.34827107103155824	-0.11039638491414702	-1.1707411974912452	-0.14716374836959714	-0.5965343698699331	-0.5829007014816558	0.15531085392363553	-0.24107421873739254	-0.6572008712388291	-1.1998339861140819	-0.7872365693243694	-0.34353533300449807	0.28135257888331144	-0.42090403927392833	-0.8916131831546243	-0.5947113618140805	-0.3864030232210509	0.25747996503672366	0.3830103566513237	-0.14440032803317507	0.7553726415636316	0.31574830333145903	-0.14044377172297398
-60	-1.4389580451874757	0.7028112989801192	-0.5411919341728674	0.579853354420563	0.43521082291395463	0.11194366188396489	-0.7405760269540778	0.11345680774415441	-0.5042949902200027	0.12254855005795	-0.1976364995019695	-0.49563202136789686	-0.11984710365077667	-1.7806423857554698	-0.36495336798078776	-0.9107218361749221	-0.5358996377766222	-0.22528131249293354	-0.5366178141397077	-1.1151349516370694	-1.5561141928485331	-0.7415463309639266	-0.4047092785154082	-0.1399660702986277	-1.025648114475917	-1.2779488531272492	-0.7905160764762762	-0.4382917273899713	-0.1756315077877361	-0.028742890732437205	-0.5381489382508321	0.49994808309215305	-0.0018356682220693847	-0.523122130503737
-56	-1.5549477299532237	0.6319164021750112	-0.9364312267502709	0.5654949531582916	0.26059234076510224	0.10783810141278212	-0.6390258653719358	0.5533056841232096	-0.27043938568500403	0.010110974286300856	-0.28430816459400426	-0.5289611207004817	-0.342946051685414	-1.8980016660454089	-0.39090666076194164	-1.0075784896207207	-0.4579674888015527	-0.7041597348554683	-0.5690336213050274	-1.2051216333480463	-1.6340793329944023	-0.7080523353819869	-0.6612022502417881	-0.47429534673152024	-1.2723900047602414	-1.4244378769196924	-0.9812947486897663	-0.6929200274139057	-0.5114501701793546	-0.4052135636112572	-0.8888047315091882	0.13547338511118676	-0.26003578239591724	-0.8563414194421023
-52	-1.1794904440664455	0.4138155271095894	-0.9251785851008246	0.3894768943490018	0.04861041518693809	0.13089089062545725	-0.4486175466178226	0.7216020804306323	-0.030708882880164438	-0.10144358102697208	-0.3039426199868606	-0.5824252352314829	-0.7610958199358702	-1.5727167089809322	-0.28587391900365583	-0.9628721451291011	-0.494787900390719	-1.2678527800021044	-0.46640092016720797	-0.980169591813182	-1.5089367590000544	-0.8144993761479324	-1.1092550726541122	-0.8114119747656517	-1.2491209475451253	-1.4015724623579762	-1.2146199910968924	-1.138764497742877	-0.8294807055511788	-0.771858630615789	-1.1881676882309389	-0.3875096430531569	-0.5092135058898051	-1.131520983700191
-48	-0.2858991913729768	0.09572348719509283	-0.5541905746773109	0.06643298251545461	-0.24847657915800392	0.06453757716812442	-0.37361526394929023	0.5011893498164667	0.09446660405388749	-0.2733557217372113	-0.3645522287224621	-0.7563142757394158	-1.2397922246148816	-0.9396060085415717	-0.1556556965951129	-0.8876168705464584	-0.7157739978838539	-1.8293950511520956	-0.373166083347397	-0.6002823695285916	-1.3059738841462754	-1.104742643428139	-1.6151345927468232	-1.2225462167391121	-1.1270964117203952	-1.3125116791966025	-1.4885580502120892	-1.6356207091044024	-1.1771017283284577	-1.1169016333037516	-1.4014733994386095	-0.9985449288906596	-0.763213572959393	-1.3157780137220472
-44	0.9174382067405454	-0.17584486261317095	-0.02573609159349563	-0.3018094889650246	-0.5880143627579602	-0.11137644173397257	-0.48731711383807824	-0.03019316114312804	0.11503401369615456	-0.4853303122187963	-0.4893067168756575	-1.0227401230739572	-1.5868172605505564	-0.1495039906303436	-0.06842159462581698	-0.8372327664218044	-1.0474991771954067	-2.2411527577083326	-0.3562597325390225	-0.2318724835025223	-1.114826437996491	-1.4938062391713118	-1.9737473676440251	-1.692574615973547	-1.0497840616424576	-1.2217380969672877	-1.7306655601675378	-1.9749216983524251	-1.5177923402612654	-1.3754051889026189	-1.4682545624856405	-1.5205252132173173	-0.9741918420037504	-1.3550595010877757
-40	2.033911938300535	-0.20446874149674366	0.4165543605301037	-0.5585863576137529	-0.8261209705476069	-0.28072225976640314	-0.6761254651165252	-0.6215307696862789	0.15636108776192634	-0.6236218794336543	-0.5829409346167777	-1.2196320264541114	-1.6393201309776917	0.6574893577188137	-0.017796158745657396	-0.7746244053356738	-1.2959662643137542	-2.3520986974459213	-0.3800033917369643	0.02571046159630692	-0.9460158920245338	-1.7970786049293654	-2.0131251761154676	-2.1115231460666215	-1.0648212405977175	-1.1260709734142682	-1.8239600612366182	-1.9834105918399039	-1.7439938739614018	-1.4590660296795548	-1.3343062367129876	-1.7570472911342556	-1.0569167110461415	-1.2054647176825073
-36	2.638635151876905	0.15055647454396898	0.6098050459724447	-0.5653213248284992	-0.7935372570983787	-0.25424733693781437	-0.7089256030303863	-0.9666705107124678	0.35959115533639757	-0.5452953563274242	-0.489059625821365	-1.140042898160792	-1.3379416431979498	1.3518536056719808	0.05354555310201026	-0.6049533471092668	-1.2492374150207224	-2.0816922135247498	-0.352045803373331	0.1587660010620908	-0.74752616693592	-1.821585292985473	-1.6873035388307884	-2.3261372984330984	-1.1232103081001408	-0.9766324733872064	-1.6685498910738765	-1.6150101382488464	-1.7391807989079409	-1.3087584939338617	-0.9930596922597635	-1.5974923331935873	-0.9420466995296722	-0.870443461127842
-32	2.4802043375338623	0.8743988849497952	0.538614867757865	-0.27433973481532387	-0.4078293134406211	0.10556323799660863	-0.3870997717143937	-0.8589507319698466	0.7679222802801158	-0.17478750601984747	-0.09822689717049991	-0.6638637168335793	-0.7517549376581231	1.8180661155575293	0.19678136656669715	-0.25249513919977606	-0.8024988750223775	-1.4676966630119515	-0.19748337516992812	0.2122671449785652	-0.4603030073942126	-1.4699919186671673	-1.1048812838315367	-2.218081945541239	-1.1281398506291986	-0.728020129749908	-1.2445791928339969	-0.981046435740259	-1.4457803928112423	-0.9335879063877291	-0.5076535927353267	-1.0757226916810338	-0.62205338321035	-0.4169018854105892
-28	1.620398159704359	1.7680045321649407	0.3177046767796599	0.2401867204800889	0.25210085447558234	0.7757210711921273	0.31352698723790046	-0.3019257180220431	1.275395747779386	0.43034306059905036	0.5610711560388758	0.14513693713261078	-0.04880543413357019	1.9767463157336826	0.41042941705077096	0.27106261184920205	-0.03536642333876699	-0.6641684753815464	0.09086200571961588	0.24727298256909325	-0.07342366855680292	-0.8026495555639893	-0.4805717456128449	-1.7624076560346624	-0.9944741104767125	-0.37934967779704065	-0.6407812221561392	-0.3045845918117931	-0.8971935487983417	-0.41216805473215706	0.0031162577136904187	-0.34900787384608895	-0.16144844848878992	0.04305417452313269
-24	0.42331513655597264	2.519021027880806	0.11275184871101453	0.8117803314694336	0.9635332798472805	1.551804061786417	1.1946998804446713	0.4845885324164394	1.6739255147633074	1.0901248427524601	1.3074543443094688	1.038503525019327	0.5686306939073631	1.8239313317979091	0.638291059313	0.8507878758884662	0.8053250292472673	0.10640238198596033	0.45425006632558673	0.31289893309748784	0.356278478199757	-0.022652931454208977	-0.036573298183132034	-1.0380256149787246	-0.683280347052654	0.018735997331522296	-0.027995316241035656	0.1785815055629953	-0.19874229977021185	0.14326019548962876	0.41117614403863173	0.386282562234264	0.3333290210891197	0.39763167400103566
-20	-0.604465483093012	2.8429074215638037	0.04622616979729733	1.2572408882823758	1.466450925939291	2.1359884684993595	1.9176289986832324	1.1671385735608266	1.772834415728186	1.587713714405715	1.8834754181038735	1.6885366397187884	0.9376381611992806	1.456412907738011	0.8122885206695055	1.31790530348871	1.4149481022396722	0.6339972599235112	0.8142871240084232	0.4438289690733025	0.7321569305054548	0.6135163291700143	0.10052696590076916	-0.1876695598394047	-0.200357898563931	0.3940674056594334	0.415190516854119	0.3271108559455936	0.526017843348904	0.6380330904110635	0.6359134896435572	0.9889941786591882	0.7648563961745446	0.5857653007023287
-16	-1.0519896719121578	2.618278019970294	0.13813653553418861	1.455219384334042	1.5936155278978943	2.2829627933083385	2.168863529451514	1.454316016340107	1.5144956073670621	1.7758855774865347	2.078261608598719	1.8430374814231327	0.9865626071817153	1.0421516868982388	0.9023793316946421	1.5306539496877163	1.574213620026042	0.7965466956054901	1.11910271362046	0.6649386865993895	0.9685378050192767	0.9126965380513451	-0.046692360074650434	0.6423562152857076	0.41980841649875567	0.6935443264617069	0.5862559065322362	0.15534111818194382	1.1843290299078058	1.0284240219853882	0.6792261583345572	1.4206346237554666	1.0833176347084283	0.6231683476927035
-12	-0.8051795939143825	1.9414677570916734	0.3078422538614449	1.3871108258512144	1.349589463641259	1.9222396563635473	1.8196752025438232	1.2270461289897139	1.01452588778891	1.6429370600228201	1.8270310117369826	1.4469996654216892	0.7500575165884951	0.7443845253270306	0.9352237558594596	1.4387652837667588	1.2515416113726319	0.6025813802764188	1.3565182651603256	0.9847168301516158	1.030159590027576	0.830281553556359	-0.3243567637360553	1.3482673134141896	1.1219732733055954	0.9052698589357268	0.5083818422833538	-0.1768136467045818	1.7312068895500212	1.3207343783411865	0.6208307131351594	1.7260507301620993	1.293422695709031	0.5906831011163955
-8	-0.10034769748147918	1.0687284442621692	0.42092990768969557	1.1220226259513448	0.8899700619162496	1.185321685659389	0.9890222524468065	0.5780728444763279	0.4973071801027575	1.298730608522168	1.2304837672638105	0.6638498885560263	0.34409031185060057	0.635253129785758	0.9631044244292044	1.0938104363481964	0.609539149652773	0.18618543399056692	1.530271049450646	1.3713451589293488	0.9347520447018981	0.4786493170097578	-0.5242127762910834	1.882446761146937	1.8207435561940801	1.0462172004988142	0.3143657139947398	-0.44079112895302736	2.1503097956726744	1.540425058290366	0.5740103111079837	1.968298549450995	1.4291222059407636	0.5893766269108623
-4	0.5896061047926682	0.2769007675809221	0.3531040838386462	0.7592174987698056	0.41262540117036395	0.3220522097562781	-0.024619094965289506	-0.25212487514736615	0.16335390466932	0.8900448061406092	0.48496886965379093	-0.21530723517417494	-0.08618485905822201	0.6493046863375004	1.000875351286204	0.6020622834263805	-0.0867731270983475	-0.24870644446999987	1.621831174570431	1.726467605046606	0.7193124872166559	0.054229188573535585	-0.4833005356507399	2.235035652239768	2.386523717576902	1.1241933078992945	0.16879293279947052	-0.4484921980501764	2.418365472409839	1.6923100905607018	0.6219204052481918	2.163194650910529	1.5141771993554758	0.6830440742413608
0	0.7838988284346641	-0.27488571336008794	0.047006029516988984	0.36922547127963307	0.035847227929924064	-0.437870113936217	-0.8985013939107013	-0.9972952579114538	0.07650265078303041	0.5053745495434488	-0.22785745503594418	-0.9197772122049159	-0.42386785042557934	0.620311139447964	0.9821200345992427	0.056928023552216295	-0.6066113695087978	-0.5114452229938506	1.5790400465198988	1.8907629203742928	0.4008868624579355	-0.2730795734186641	-0.15931542177508198	2.4087679325323372	2.6582491330743325	1.1071212263765404	0.171672090454593	-0.1413753327138166	2.4888155397521112	1.7420887903099005	0.7694601993207275	2.26184725190352	1.5381251534728695	0.8596357681505207
4	0.22579733970377364	-0.6050448998434107	-0.4660164702093773	-0.031976710924239024	-0.2604993873218097	-0.9961910818697776	-1.4418371879414371	-1.480175491410621	0.1363651152982588	0.1301818337729994	-0.8259543159612356	-1.323750134940628	-0.6226856096758863	0.3822233369236965	0.7734543661616868	-0.5048760162958063	-0.8607586600506092	-0.501823960467788	1.3442882265483203	1.6971651272839787	-0.03679427122720799	-0.4471788991128336	0.3522069147277522	2.4072520672102367	2.4967002805616723	0.9260579920276205	0.29656943603979313	0.38128447436388735	2.311046594506965	1.6305385786851048	0.9356575584630397	2.187677854736654	1.46078931916495	1.0313805315680726
8	-0.9955492590564565	-0.8603361823295079	-1.0804129811665675	-0.46431895973278237	-0.5966358765797293	-1.4071471655604542	-1.6681648450695996	-1.6659328895469756	0.15188705882825299	-0.32018074312434536	-1.3381179537367502	-1.4812116585527806	-0.7175910454752441	-0.1205682155426099	0.2504981451862633	-1.0957665415754965	-0.9238914228001498	-0.25284022028983194	0.9066999531742121	1.058081862639269	-0.616887865893222	-0.5421954379697722	0.8618467428382368	2.2448735180443973	1.8627544594464722	0.5176113830849416	0.4012942304016244	0.9069470144261823	1.875040526424425	1.312513348126652	0.9928257440296109	1.900279517144394	1.2421132294765753	1.0757497521896937
12	-2.488944285784501	-1.1953848570207006	-1.6518738228100103	-0.940864501008182	-1.0853059264438258	-1.8051696970186175	-1.7533752873974937	-1.6444799858535804	-0.03218501798133219	-0.9132673717329178	-1.843875165098691	-1.5617135723738858	-0.8022813776741413	-0.783741531777499	-0.6053092464423221	-1.7291115478728774	-0.9681434010857938	0.07860795388640719	0.3386227479968359	0.04124766950326054	-1.3217095103272498	-0.7029172760382623	1.1656812399997478	1.9630103061705844	0.8749077894056027	-0.1192889508573479	0.30743557137116917	1.203003641905945	1.246952888201539	0.7945541719403242	0.8317616560916846	1.4383120500490312	0.8745644070479186	0.8957141615187515
16	-3.7411398793179576	-1.6531389909968186	-2.043945307339534	-1.428673859803895	-1.722281094017442	-2.2854647578711136	-1.9072837781435557	-1.5613354405083855	-0.4344474662302435	-1.612373944026376	-2.381622785277264	-1.7268338159831813	-0.9769469474922473	-1.3838027680745322	-1.6466460186392493	-2.362553352113129	-1.1458396882691422	0.2797515087217196	-0.21237064844395634	-1.1129522295509056	-2.0545260854347687	-1.039938447234027	1.1317992181813	1.6363877016714357	-0.19564479540066718	-0.8853975512084947	-0.08772755392098434	1.1223508091246497	0.5703625664615842	0.15275695881423115	0.42558345091181793	0.9156527496108064	0.4020300795418411	0.4750970590040475
20	-4.3384599576133365	-2.1168277210196593	-2.178043836816642	-1.8396357251451	-2.3475582540369744	-2.811877243572079	-2.233345741355363	-1.5389468631036685	-0.921316978989511	-2.249420160336385	-2.884824983942713	-2.020160669948413	-1.2885183063400047	-1.6866763787600452	-2.583062403833009	-2.874879352940602	-1.4891037903382747	0.1774334307005527	-0.5782403335277239	-2.058056349326612	-2.64391159343768	-1.5414005479042971	0.7545550446533118	1.3583261932410882	-1.0094083522107051	-1.592012043748195	-0.7300261836694037	0.6714963896010213	0.023954588859398482	-0.48008915660763934	-0.13970982993138523	0.47286522269071257	-0.08484561719930622	-0.09754093711783422
24	-4.125170220450425	-2.367062324269714	-2.0647363610590146	-2.060924286407384	-2.7079811027821457	-3.2114291110020283	-2.6551587514598207	-1.6264184672300528	-1.2832131353405205	-2.583752148780608	-3.1906392493754407	-2.3332548082570472	-1.6923100905607018	-1.5619715412758224	-3.0893433016026237	-3.0998105924544923	-1.8819825601745983	-0.2757122509671015	-0.6446242316183298	-2.472859137967446	-2.900031559297997	-2.0538518376947716	0.15790374537178578	1.2071953981438361	-1.2931419578328478	-2.0240054079452974	-1.4068400824313465	0.012293038858728799	-0.24556617376793682	-0.9523183679378819	-0.6846950036881814	0.21555601005967812	-0.473018734452944	-0.649126289636138
28	-3.2287921823998413	-2.2101492825973996	-1.8030064060466013	-2.00666689366107	-2.587413781309205	-3.2589967168542215	-2.948043100543357	-1.7900340511904373	-1.354150053420089	-2.419003480525904	-3.1182954232641458	-2.463105433921027	-2.0548763223265842	-1.0376595232514385	-2.9507439062006005	-2.9023294375575763	-2.117541784662266	-0.9612046455910749	-0.4004558314703305	-2.1982262079052126	-2.6975307396493506	-2.3454620778948057	-0.4500703204235877	1.2143532007075515	-0.9591770147902249	-2.0264983126020892	-1.832125301503784	-0.6010683163726156	-0.17878806545894288	-1.1388167114115684	-0.999668953278996	0.17851887598265567	-0.6579431278783431	-0.9795839165750977
32	-1.9634455392856354	-1.604857440711308	-1.5444852074729252	-1.6652991729653235	-1.9350364159366462	-2.807444565360614	-2.8593647407818965	-1.9388732861204405	-1.105332371782058	-1.719924683996841	-2.578345292257394	-2.230969900220614	-2.2086126748589696	-0.27930736471229717	-2.176282638777265	-2.261826986324348	-2.012010092423825	-1.6310872990435215	0.05953591674436056	-1.3154771294759808	-2.046887631016798	-2.225906366450439	-0.8575048425005357	1.3489373888290628	-0.15014046392680946	-1.577390309165971	-1.7838180020117953	-0.927035806222692	0.17705763831735385	-0.9818351243979356	-0.9307774281843757	0.32805651343489	-0.574649392107652	-0.9396183467030091
36	-0.6863015276747564	-0.7119914871359575	-1.4237742388064387	-1.1159752579169915	-0.9143580175202644	-1.8860679817264785	-2.249127620740566	-1.965752596660487	-0.6529816372597661	-0.6589809043459072	-1.6466904837041394	-1.5926936824641256	-2.0324907251540987	0.5000710474740142	-1.0135359738509797	-1.310673233537792	-1.5105893573769245	-2.0098023363869184	0.5816785678482668	-0.11874055087389591	-1.1102813454252636	-1.6562265115883885	-0.9284432506962198	1.5335707625770807	0.824145136182936	-0.8045989254664467	-1.2199392287925082	-0.8342183807291892	0.6970635038896504	-0.5103757964599906	-0.44808366781591735	0.5971009120170928	-0.21672919337866894	-0.49326807135975087
40	0.3239224842953183	0.16491834777678985	-1.4912352524300612	-0.5063501583666693	0.1564487959964919	-0.7125610691199931	-1.1801819771533837	-1.7924212172076648	-0.1862301672763579	0.4374062109871014	-0.5602660761039273	-0.682705102627379	-1.523901339498161	1.130199667938146	0.14627157114769043	-0.3036677829704952	-0.7309760432861463	-1.9206432055619138	1.0185718510660486	1.0073522303897244	-0.1505563255323574	-0.7909505943355918	-0.6537935121242019	1.6830996232453939	1.6284640986335794	0.06026989951414249	-0.3140732638058877	-0.35319200068946793	1.2363984553592289	0.1645506169217765	0.33314961110879876	0.9228618121688993	0.35723879843163114	0.25945857101736963
44	0.9157614684826023	0.7144768816075268	-1.6791342454477884	-0.0037376142478245883	0.94010603190533	0.3848728825865627	0.08241793492489506	-1.4087182247834773	0.1335680928434294	1.2187432019934648	0.36495697406178756	0.2278085643261906	-0.8263062813877456	1.5213495454524797	0.9286256409087721	0.46963304162663794	0.0746281145118995	-1.3793762887461083	1.275728341696393	1.7461599067470708	0.5630060420126894	0.07101781648348564	-0.1547824140455523	1.7445827678502959	2.051465029305412	0.7690063695565534	0.6101927741857297	0.33683758889032	1.6857284264919308	0.8779755212551572	1.1898883551119706	1.2638537851849305	1.0321232054400988	1.1122152777247634
48	1.0401813957655182	0.755110381127282	-1.8304655505695588	0.25889804893931706	1.2202507226653179	1.0930855246602682	1.1600348920144308	-0.896217820765832	0.24373227296327896	1.4543265067575608	0.8536313154602971	0.8355013111000956	-0.19073259782319502	1.6477336841943646	1.1267869444055028	0.7894430140590941	0.6188628657928681	-0.6068301185545711	1.3245235648092808	1.9688421438099741	0.8482157566589676	0.6054877623529737	0.3643316617350277	1.721193547671616	2.087840551827098	1.1453385324171361	1.2173017232678562	0.9812579726240327	2.001555437756617	1.4592660628669158	1.8772143078138952	1.5950404365322972	1.6641565519278643	1.8282453967665704
52	0.7058511954606339	0.30881148498769045	-1.7931698515441534	0.22266678455878447	0.9784914826484125	1.2279651134005407	1.6980893569035325	-0.42198169124874657	0.1843960131519604	1.1230170698422668	0.7732664327171845	0.922725675160576	0.11767231643292839	1.5111113748545493	0.7734270672344487	0.5807871803879013	0.6929894668248937	0.052723407612247516	1.1909929483861592	1.7621830657337156	0.6626170856912494	0.5971621855917671	0.6968126875450689	1.6713464217903877	1.9154858540810995	1.1385849685532667	1.3048948016599862	1.3516880239692128	2.2048244420651892	1.7909234716975302	2.2291500512109264	1.8970273685243702	2.1271157211004965	2.2349390927154755
56	-0.043650764861763926	-0.42715877186693185	-1.52976989359864	-0.08674351849113009	0.37156385089523497	0.7824749330792198	1.4899706802896993	-0.1938695157639979	0.04140404228843397	0.4029324938614622	0.16865509705877543	0.4315119076801447	-0.07263757270116739	1.1191927166338438	0.09871444081178989	-0.07721873353297341	0.23954039751609876	0.2720649235532144	0.9356795525769063	1.3539487089305462	0.09311050898170399	0.022778999002880936	0.7135205846891648	1.6803258615031293	1.7809479191638171	0.8222579339248223	0.8843708612048308	1.3327934708324076	2.354740136877118	1.8571460200151366	2.228778595065624	2.1554841940818514	2.362783187622803	2.2955520095088535
60	-1.1153405876610254	-1.1910256117314137	-1.1784614294816411	-0.5793724045430847	-0.3718070080429823	-0.10446091714949625	0.539755164214184	-0.3815056672000903	-0.12719586459470908	-0.4306203116035231	-0.7827912549282441	-0.5335960374711589	-0.7679136376066451	0.49854114525810456	-0.5995417818191272	-1.0069934104290825	-0.6435854418718071	-0.11762388765917066	0.6379734857664385	0.9795129274433494	-0.7030552011859242	-0.9515687203224344	0.41359379783158473	1.8182676984656507	1.8577526760881289	0.3484036019588817	0.16268648166113264	0.9621581410911394	2.517884486517098	1.7628287032442926	2.0183029123847436	2.377080911356846	2.416726344682654	2.12818622051796
64	-2.3440833032553425	-1.7871808960615325	-1.0224041912968513	-1.14311802098628	-1.0728616687390387	-1.2298222749177634	-0.9517224407009222	-1.0301729414679721	-0.330019383789355	-1.1449000806512752	-1.865644807873623	-1.7648303464200863	-1.8074760391377336	-0.2680995755579311	-1.1066645355894245	-2.020598406458538	-1.7601211026575618	-1.0487441990123316	0.3824076940895213	0.7597777824292796	-1.5703138073375238	-2.051437372750306	-0.07608915101152572	2.1007525867829018	2.152072424223522	-0.1160768118550284	-0.5608022794869729	0.40952786699849697	2.743748896347236	1.70526587532566	1.8401465369495356	2.603558056933728	2.4343209205201903	1.9588305900709078
68	-3.502775660254242	-2.166215414300119	-1.365288492570434	-1.6906298356287257	-1.6788434939913082	-2.4099914966771974	-2.662639134360246	-2.0128831812582906	-0.6253193601079269	-1.65568124829936	-2.9185655043348215	-3.0356488151201475	-2.9295763895456695	-1.0264834139656904	-1.3873151505729886	-2.9932868405109145	-2.8971002028753445	-2.235790485459298	0.23604489803323245	0.651521323466456	-2.40161513675877	-3.0067574901961427	-0.5509046898284292	2.468230479684455	2.5038385328019506	-0.4404403258170875	-1.0253888342717987	-0.09169458574747825	3.051672689362528	1.9003559302988031	1.9334845494091923	2.9029390738628	2.608207457633049	2.0264139124253004
72	-4.370552051953698	-2.41564010963901	-2.3638834893625784	-2.1892585699121065	-2.2556283417019363	-3.522804489778259	-4.250287998912609	-3.0542890948429826	-1.0658777925283387	-2.044217104519024	-3.8741047284542995	-4.165174473736875	-3.870662441017922	-1.5914132554882934	-1.5797727068116283	-3.8827531239707946	-3.885556449616793	-3.283757201487142	0.2162634873890534	0.4935739027913213	-3.1380610386774994	-3.6362333205923427	-0.8051280358967821	2.796081297490744	2.6806018284829856	-0.5487412796471237	-1.099701759422922	-0.33043986475486137	3.429042092248873	2.490301364333321	2.4338333545271587	3.3319637691297146	3.093831531342879	2.482566350391058
76	-4.835746752927632	-2.674670451087072	-3.9099652668464264	-2.6594419412225663	-2.9042863772499015	-4.496334064575582	-5.436139569862713	-3.831036081178394	-1.641658182767748	-2.47625755638538	-4.730741012073361	-5.037823187506549	-4.45253228017079	-1.8353298856173972	-1.892545456876445	-4.68932102926778	-4.616450298098002	-3.8421418569834844	0.2649628513322233	0.12120827256833384	-3.732467403525034	-3.8696725270799917	-0.7076483947053639	2.9329590723374217	2.5116944249635127	-0.41029205814723285	-0.7955006936969676	-0.19031101417176308	3.8352382086244496	3.4707982452501382	3.3180322563322466	3.8841519257708517	3.9275357624075338	3.3281352435961677
80	-4.966200339176638	-3.0300569457800175	-5.630994305698877	-3.1423950115974653	-3.6569964793381384	-5.269527898835613	-6.054156764957644	-4.108799447176327	-2.2604696693569495	-3.0709612292003037	-5.4834046225387905	-5.582813725681362	-4.618020999693157	-1.7713506177048937	-2.4601330695028722	-5.387005315531199	-5.0172681681797835	-3.7350025082702203	0.2537154846938263	-0.5146332370162583	-4.1093535319527605	-3.712139358685	-0.24366001723283243	2.757658951472639	1.9904603907875589	-0.02125152940152998	-0.21181149727273013	0.31916093745713553	4.209809292654945	4.6731533886225645	4.417222488694997	4.458104599187483	4.988397108834952	4.413568962398069
84	-4.987678515239353	-3.45640443882896	-7.020691377080366	-3.6546289828536374	-4.419028747845711	-5.7649464461687865	-6.064986213630253	-3.8520245454808717	-2.7846245695381024	-3.797289123484666	-6.064582809395431	-5.746045098102494	-4.411260116883879	-1.5749422272019369	-3.239636413024318	-5.876043781703722	-5.0233473650943665	-3.0192234439915735	0.029788765981089805	-1.2927305665756466	-4.1587262048627744	-3.1911184707182247	0.488222746808509	2.229515785310345	1.285702463718635	0.5987926110408368	0.5411794171974961	1.0755481692815723	4.4799761659047235	5.8098654600324275	5.482831464276078	4.870885836701219	6.02258299260694	5.494688020184864
88	-5.159300314275044	-3.827321042888213	-7.651133517975225	-4.149312485709296	-4.98971460989974	-5.89680336417084	-5.540243611653099	-3.2405726827820858	-3.093853942689258	-4.455731380657098	-6.337597830983967	-5.480988011827119	-3.922856320967322	-1.507516976365089	-4.002187718777283	-5.992851719030881	-4.573948848620346	-1.947827334254572	-0.5026362525647362	-1.961017842110063	-3.7756104373974315	-2.3291237295473843	1.3195806708398268	1.4120717012993635	0.6583495719500403	1.3907585108929692	1.3878428900964974	1.8929951143154955	4.570397842312173	6.567677481281978	6.271811946292883	4.922166335076387	6.7247452566117385	6.31559847190865
92	-5.601646886034203	-3.989941110074072	-7.359870892062643	-4.511908519797491	-5.1581110824054885	-5.617465005043338	-4.634779918413051	-2.5776255065689035	-3.137309781736647	-4.764775740991338	-6.157645209978343	-4.774372088775947	-3.2393414892427135	-1.7704766944054033	-4.430745590467495	-5.5846400119926685	-3.6479444411682436	-0.8612194635582043	-1.3084917035445205	-2.2554907741821424	-2.930673353425346	-1.1645337313814292	2.0754640049986044	0.45716458443613295	0.3248946360491504	2.2315800133629944	2.275757307028923	2.5871794158465398	4.4129547961398545	6.707428438418154	6.611541731354337	4.480622280252458	6.841061097992873	6.680523855508787
96	-6.182166560777028	-3.8546123407319066	-6.313926680836211	-4.5974030378616675	-4.817904460187035	-4.967675673340393	-3.5521261602364556	-2.131767982822759	-2.94587516040906	-4.506271827764603	-5.464516149075737	-3.688494672999458	-2.422200196826427	-2.37338733073873	-4.27540110462313	-4.607913959313401	-2.316827768198424	-0.052326515184851444	-2.2058877889252977	-2.0374119230329093	-1.7274221138256292	0.19951474616222828	2.6305496626242477	-0.45060482507426153	0.3394609979165182	2.929695837253498	3.126587859842941	3.031871072743821	3.955955972220423	6.131575568930881	6.423414214129118	3.5467657953360487	6.250701411678213	6.489891035860694
100	-6.5390600993046695	-3.4347510251110465	-4.916514861091632	-4.28857277741092	-4.030050267535062	-4.085109700379449	-2.4986858304834167	-1.9901045510591482	-2.592687838684195	-3.6450142768384834	-4.344151962756436	-2.381724113173126	-1.5147232971095292	-3.087334386660186	-3.480671397004386	-3.186981669962678	-0.7707063536259003	0.3464188865021617	-2.924460880525382	-1.370818849917311	-0.3991181840356584	1.5672523935802996	2.941329471791386	-1.162608501360045	0.5620871172065073	3.2662665761498317	3.800118436755721	3.192518226192596	3.178433648667731	4.903253542918327	5.71487806784671	2.2646481933637337	5.000343310129253	5.7437929962099865
104	-6.252256377647187	-2.818161957301329	-3.60841106457433	-3.5509238153450817	-2.9983456059095195	-3.1581358829871666	-1.63449763839038	-2.0054025599392866	-2.1324844306511506	-2.3587667882493983	-3.0182304306121224	-1.082734820493286	-0.5618706927418743	-3.530881634380669	-2.221768850439157	-1.5935383994877497	0.7125295382629865	0.4049173285274714	-3.221599093886508	-0.5009803163277672	0.7635993342194054	2.6786045960508944	3.0439002437034404	-1.6217191178385362	0.7273495178932332	3.074602119312571	4.109964837188033	3.1258211056944862	2.103343958312614	3.215964309202248	4.55737446588021	0.8719378091732329	3.2823309815505572	4.524821746846187
108	-5.08262156156947	-2.097059721420521	-2.6701981953915763	-2.4568571982342875	-1.966555352014295	-2.3412039220828027	-1.030016419671187	-1.8735390854263236	-1.5652496775209028	-0.9577024554868494	-1.7557599500196468	-0.017804330169906443	0.3763094832933028	-3.3563527976173324	-0.8303415158288516	-0.1457644697323829	1.8550494862451001	0.3473938098719689	-3.0009617729713955	0.2566168301779104	1.5268732270791587	3.2952775872002436	3.0197307987266204	-1.881783957498708	0.5763027653449021	2.32368826279475	3.894771327675803	2.9432609006958117	0.8024607280498176	1.3320289816604487	3.06652354419869	-0.3902715136688187	1.370141264317215	2.9740552827134
112	-3.1414701859314653	-1.3029885259155924	-2.1198499149207204	-1.1618690461388284	-1.0878711911391925	-1.6728794532501403	-0.6432141049357939	-1.3005442586488145	-0.845371303808178	0.26859551600353265	-0.7453025560635433	0.6802880746831945	1.2320017783531176	-2.4415903029786437	0.35548758417022913	0.9298017597565107	2.489134782228722	0.44155171402076343	-2.366465324149151	0.6638531072068361	1.8165762378604853	3.3071706211515397	2.9473552629443853	-2.0802328534057537	-0.014152345211835463	1.1622725695829388	3.109635106818726	2.754276983936622	-0.6091388448594721	-0.48215612647394174	1.3922114337103457	-1.3603211606966839	-0.457773892915811	1.269851681364245
116	-0.8877718426224832	-0.39757013220546045	-1.7517598823188696	0.15086670181808043	-0.3476470104023355	-1.0534006330597183	-0.33890440974501085	-0.1731196935574369	0.06515220536233526	1.1863114803880301	-0.004496521770777377	1.0279748413834948	1.9486471365367428	-0.9865751241570865	1.1336840362536287	1.5946148593696754	2.626476042792003	0.8651949741453961	-1.583878036314813	0.6617933495025333	1.7473355487576523	2.7919068265997944	2.8544466423446067	-2.38326167458587	-0.9773407553792841	-0.11747068137074292	1.8732923221975766	2.606384747600419	-1.9996114918768202	-2.01412748781948	-0.2983029477217415	-2.0029725977872186	-1.987949366318801	-0.4018150557863568
120	1.0646598312200735	0.6730588061505739	-1.2859948841051647	1.3306821551105044	0.4177870441855913	-0.29838371201520825	0.05378839360008298	1.3597618307115238	1.1361194820330023	1.864342446388569	0.6231685265066372	1.1804525822399807	2.4965181287676983	0.5469582663078143	1.5055888853207628	2.0027644583681883	2.448241466063047	1.6112873513548642	-0.9662615036410517	0.3779689362043048	1.5612026413601612	1.9879654595728498	2.6924962929457528	-2.9261693880589097	-2.102065557894699	-1.1893248528016866	0.4344477940557889	2.4486129222083495	-3.260804883353563	-3.145354501412381	-1.8524721814115193	-2.403599256169044	-3.1170780580023267	-1.8876390409495016
124	2.2345950547067006	1.9031746339431148	-0.5360162244615084	2.3007960261429528	1.4192486965586482	0.7600982169987831	0.6693376285819965	2.9454297945044225	2.2476141396042504	2.513443940492543	1.3823392356304123	1.3584995235476576	2.8771052287894743	1.637356992402326	1.6439405638197249	2.412928575145734	2.2193839493984253	2.4814069208438143	-0.7366415839670326	0.04417666409187002	1.5091123542831193	1.1912207573379157	2.350880855346945	-3.7675897979981263	-3.1435360829141645	-1.823735113307804	-0.9294456220048768	2.1424739306717058	-4.341571320062756	-3.863754262705896	-3.171020261387864	-2.7134909561312717	-3.8596947095697827	-3.105975381638757
128	2.4973385270963155	3.180212489681917	0.49188738937165966	3.0584692877798165	2.776462786340325	2.170084470992011	1.5438760480048588	4.191818703558521	3.2195827879681365	3.3461258326925916	2.4663958487229003	1.740706081763892	3.1083736341198844	1.9482903431340182	1.7784604981343306	3.045129768312763	2.162014717365534	3.168361178981858	-0.942231235509431	-0.13459050621384153	1.7281559662102508	0.6191078408822765	1.702642674915718	-4.878038870893365	-3.9441032310088935	-1.9823580930251172	-2.034707541096988	1.5180258712589059	-5.2631964550649775	-4.254324902283765	-4.240638722203573	-3.082697383726947	-4.3269133458566	-4.072322835177357
132	2.1321499293855157	4.309750546064727	1.6173374612028704	3.644584646560027	4.425744999202045	3.8166854285199237	2.5990846091453395	4.849973189506704	3.8865563771350202	4.444002140269231	3.907014121681758	2.3842711388472373	3.2092587866819464	1.4956850967791782	2.071516747012965	3.967051019189481	2.3616802632786635	3.3995900068282374	-1.4551275931813195	-0.08048111180013114	2.187457794388699	0.3244000665103753	0.6728625280558241	-6.15373657580242	-4.491709220989847	-1.8168317033673476	-2.8569381164899275	0.4609724569603172	-6.096402629719147	-4.458275783726846	-5.127523409295459	-3.6002952961622032	-4.673249709728278	-4.881840693546119
136	1.663197751614428	5.111888395754611	2.5999793940704485	4.1105365649392756	6.1334504926322015	5.471857057107741	3.6891572382291082	4.921664225550066	4.181918133667746	5.713670239328032	5.560240731506175	3.222475758999651	3.204352370755003	0.6481042487947548	2.5561673576667814	5.07771776824689	2.7627456118449283	3.082291356887762	-2.0459337182842208	0.14662374519045668	2.7373211314708863	0.2142210001305307	-0.6945079547513577	-7.440283279707522	-4.881140696599644	-1.561877365937315	-3.4927647025616215	-1.003064272255409	-6.898950082526894	-4.602543342414119	-5.917537197431481	-4.255127896056151	-5.019621836386731	-5.6396202898689936
140	1.5820159872167312	5.529742226944505	3.269769660323727	4.497139442533753	7.6048397825879555	6.907109243120307	4.6859369159645565	4.635896671034744	4.182025898865228	6.947977048498084	7.190035325017072	4.133596409851759	3.143886081387402	-0.04997951897281096	3.1575355450065046	6.1881847225355155	3.2476444162389626	2.376474374493143	-2.488990062151573	0.4232645620150084	3.2260761179535735	0.15809407790323424	-2.2099163476462054	-8.561810471852745	-5.2108983861967735	-1.3825858796498702	-4.042943467423164	-2.6736359528749625	-7.648073653938761	-4.729117381553778	-6.631472570842591	-4.932427393857853	-5.384427533860461	-6.371147139676118
144	2.1060652679676086	5.678506836859437	3.608144512603568	4.832059371192557	8.629940964844794	8.007398585129941	5.555523381511982	4.317073334284764	4.084238042056454	7.952600935884748	8.600254037124337	5.037572371161968	3.1219298760747938	-0.14285112881356804	3.773988952645056	7.148868065904701	3.7484595680964743	1.6513476330072616	-2.6454036169019304	0.6715992672176438	3.6151840595523472	0.11862671345324292	-3.5719053655087833	-9.350815749401713	-5.481030450334091	-1.2597125736856813	-4.487971771353287	-4.214473713724711	-8.207431772491118	-4.756970870405574	-7.163064938580039	-5.446237550336486	-5.653858647376991	-6.961310845919253
148	3.097654334830542	5.790047154113226	3.7400431538568593	5.1343574394295715	9.181259132092986	8.81705186525129	6.376788600080577	4.217448223910072	4.121057023134149	8.655865647396528	9.733671163779334	5.9549684374187635	3.2677533544053556	0.5132566677486461	4.356194485156451	7.941824416136565	4.314833630158338	1.3341686691931933	-2.493170493506985	0.9290903783229124	4.018393506395059	0.21728834454989515	-4.460428703490697	-9.683004354825226	-5.560504422453996	-0.9844256614626232	-4.6416873814693425	-5.262763010089266	-8.359699228161366	-4.5062289124204735	-7.287853699403893	-5.602605805556928	-5.616341099864291	-7.168629151365063
152	4.17521809477475	6.076615795052307	3.853894939229201	5.41358517233665	9.407650923818766	9.491112685082655	7.285113316262619	4.404976356828943	4.451437938895477	9.134136176889696	10.678662273148833	6.985898953919918	3.700555315211439	1.6839590030115958	4.931560503906429	8.679173447630651	5.089087473418379	1.7173920826467288	-2.1050245708724575	1.3325283493731161	4.635902869917785	0.6851099116194154	-4.656679618522555	-9.513125395598367	-5.247844682795388	-0.27305215528213667	-4.224317063156646	-5.566443429244421	-7.8999662199837015	-3.7840630912609785	-6.755020601383933	-5.274719224963864	-5.056091295828347	-6.723875505637372
156	4.9357342595416425	6.592168791339772	4.099944104333694	5.65897701742022	9.532058691754179	10.18071076683768	8.366583803034121	4.761466014284606	5.085010038888878	9.54176900361931	11.581381768550349	8.216319063423269	4.458460319706605	2.8819694446280235	5.562806592247988	9.5082225559501	6.19613407477985	2.8093640733361145	-1.5982963998495772	2.025421137464428	5.617905125739249	1.7172853903328502	-4.138974656145552	-8.897135712094997	-4.391059387564764	1.0562996837649845	-3.024234048837321	-5.0892462601916595	-6.747210485589442	-2.496592753782769	-5.4250287872674745	-4.462505806146586	-3.8682098291008966	-5.473002419958853
160	5.162609564144619	7.180093747130795	4.51807736209759	5.829649910513482	9.716813062930784	10.923155757028617	9.564520811728372	5.079645144035481	5.876313194697427	9.996724103483842	12.523282973142493	9.611670469812454	5.440809712978364	3.6246786026039373	6.276051505455762	10.486673328626233	7.6167897985795125	4.306361664389933	-1.085011956336536	3.048871986320893	6.94050739443369	3.316926470965165	-3.1084177415569068	-7.983098963609261	-2.993774644922525	2.9458696767817543	-1.0566779348397741	-4.0342941182323555	-5.011677729351125	-0.7271726709126312	-3.378281107956256	-3.3063735878436153	-2.136649126380382	-3.4884321601531267
164	4.908518301968755	7.55016944886368	5.031534659080044	5.865020260308214	9.979070638257417	11.607455224295068	10.661409351134287	5.197780596007725	6.591553671407243	10.500501606179212	13.445957149890113	10.973460169743406	6.4093122320480225	3.687908640133506	7.015245896747436	11.512336701891176	9.132175422500113	5.706740364925362	-0.6376669390791326	4.289364327091539	8.375003793552414	5.228975282818614	-1.9218672465439308	-6.962141496246745	-1.2397385804347192	5.083562838117386	1.380718942970929	-2.768387310667965	-2.9718618317912036	1.2689596382527888	-0.9257244444362995	-2.0383489080464128	-0.12626787988254398	-1.079631087438378
168	4.422329891483616	7.450441341663077	5.498673425143063	5.7222914551265776	10.2087735872014	12.041730850334856	11.363110513608268	5.097014414316334	7.018936139505453	10.948244067206973	14.176559412449816	12.003144233916165	7.066798669139249	3.214180938235071	7.662760715211494	12.361072509074495	10.391454670419373	6.52045868181013	-0.2755352251725655	5.5243229726552086	9.581374144205352	7.020633679784369	-0.9511052346058312	-5.991410717142429	0.5855507239816791	7.030666333567633	3.803540458612926	-1.6737900930107195	-0.9614312028452942	3.1627294937391186	1.4993613920503528	-0.8837169982532956	1.8185329391342315	1.3167278733387897
172	3.9910683531132185	6.837922555825505	5.783114895524771	5.424364553107774	10.274805996702652	12.086124389651484	11.452622384720161	4.910601126670527	7.070983868866232	11.222842188156747	14.542855226039167	12.452222792657839	7.188570004433613	2.622862570816263	8.118215540416562	12.81813904387022	11.081043215431258	6.484173281511116	0.03273129082402915	6.542673571280409	10.282299015787737	8.279342630463857	-0.4295715976836702	-5.127242552209986	2.232872003639884	8.428602197347756	5.7476849410854145	-0.9943538879085041	0.7777569870385802	4.695631492203508	3.5197329432314484	0.041050199315618235	3.4212462815690925	3.3174576675580623
176	3.790504684414881	5.94132374217123	5.807254776597857	5.083542810956792	10.146296475542732	11.767568558546582	10.930338831961652	4.842230784588508	6.825056535655351	11.305950136250141	14.503062211613269	12.275825469494801	6.741137964395057	2.3692452847744563	8.381093004047294	12.822433439306154	11.103662462810673	5.681972012479351	0.3533405354638732	7.265856247677205	10.41920945397967	8.823152519837938	-0.35874387531305457	-4.306461323355746	3.604492655236689	9.171118713112241	6.979408246538845	-0.7477833609774766	2.194908374966812	5.791987404505056	4.969049441189708	0.7786913494477201	4.5887589338795856	4.750494944976368
180	3.8194646738894935	5.162371145566119	5.566084847702358	4.870396124940981	9.94308946006457	11.296881647198331	10.053590749153257	5.0425796381476164	6.480135424465646	11.322254152322259	14.199791872413131	11.692110032125768	5.917310222944749	2.682060473346246	8.573574044515915	12.527523962816844	10.657418224130204	4.508334148468625	0.7551951985365832	7.7902641099701455	10.19562718678293	8.802316643425701	-0.5222953544781449	-3.393204203621704	4.777132975914973	9.444698309894664	7.59156892767151	-0.744997678306287	3.422966233194389	6.574026091190266	5.9383683054721494	1.4949867687627527	5.43001125872096	5.703781590366182
184	3.94151996571085	4.861486899499607	5.1102881302557215	4.9310426587539276	9.875587438445445	10.968378992998423	9.240786529098456	5.515444264791883	6.253480418629204	11.477743119825195	13.89648433991475	11.100465746510151	5.0611533990870505	3.4337236794562913	8.878403641219439	12.234406440363534	10.158569310289579	3.492362490419693	1.271936055786778	8.321686723679703	9.977485631547552	8.629267670779111	-0.6033986791635154	-2.2709824981573115	5.921181186985269	9.614495253130517	7.931942442894913	-0.7042412740093152	4.667334067958546	7.269192677264728	6.688083154958695	2.368688100556503	6.1658468090787295	6.438664420084267
188	3.986242761084386	5.146848665594323	4.517014015237482	5.291632162085469	10.106096242184755	10.99184987154024	8.875494934561745	6.098487361769547	6.268061622053084	11.922278374134981	13.824249232675252	10.886553736857355	4.508180606904071	4.216464508855183	9.421259856279523	12.22481724513628	10.0348520025575	3.0641047877198115	1.8757709217396585	9.037917114327449	10.098440144791976	8.764289833829327	-0.3497402659169175	-0.9284112430020562	7.166580182101437	10.016868566018431	8.399576165926899	-0.402376591143368	6.053990348789851	8.060090998326984	7.473743896688472	3.465578308892468	6.979470712206411	7.215461235902585
192	3.8406450651476636	5.790812954587366	3.8662938974040735	5.808428749678389	10.6183948248757	11.353684396688706	9.107418037308713	6.527152998657241	6.486141665295209	12.622506109793834	14.028487170086846	11.212771387400922	4.417604912094911	4.586708057267332	10.169578526570376	12.588600126908247	10.494427654473355	3.368220320780729	2.4781992372886807	9.962744687676077	10.675166103113714	9.467290854393287	0.2960440508997469	0.5112854825462559	8.498985269069468	10.77297112606014	9.219771361915186	0.21246804243327344	7.5261049080614	8.962795234939477	8.385410287666765	4.668884265555951	7.892839411835191	8.130431154704569
196	3.484924784444819	6.336279376244864	3.2301480688557684	6.209234221994089	11.185857744585572	11.797022789734424	9.76179501929915	6.5536570383547295	6.727067930403481	13.335861172384874	14.316425287340829	11.916214912846579	4.6908383251013515	4.3389425168162195	10.920050593462237	13.153646435906445	11.40238663655598	4.213085163923529	2.9684300347722803	10.9338845930611	11.539238900614757	10.65305993251523	1.1707781523709127	1.8395404769229895	9.751861547644541	11.727388352349198	10.323190663023363	1.0047482226753517	8.85403726249678	9.807802175555063	9.294888472931587	5.715538010471997	8.74405095753765	9.059084869400959
200	2.973378889206197	6.341216548168434	2.6723537377597912	6.220717891246101	11.470904321319512	11.943616836910696	10.415374729563082	6.062195285750336	6.762541277024125	13.716563190161487	14.347739183440968	12.579483954140734	5.026588904087648	3.6433932689232646	11.393698663555453	13.566658939441327	12.338967292150326	5.175540434168124	3.2736611283619976	11.687948197419479	12.32417103516864	11.928873985690593	1.982776517630384	2.861745588706794	10.69678589981206	12.540866820143995	11.391440362779905	1.7359424785654698	9.752545332127678	10.334304783478702	9.937798474970506	6.323552592524555	9.278190589367789	9.734816526630446
204	2.397891753818342	5.6301135874699	2.2493636551332807	5.72104357228671	11.211302728957365	11.50069138484294	10.60841080848245	5.125946508817262	6.446722968037554	13.50586124824961	13.827857936279422	12.74617764115884	5.090055929684245	2.963825933602874	11.393803567729993	13.487297024053317	12.815322843620983	5.806188091877649	3.4081058416150865	12.014924019042674	12.661680189589948	12.796126333354508	2.473023646786611	3.488841286433832	11.175304384626866	12.881621328255841	12.040120094418514	2.2022314016054274	10.036135648184143	10.342849705332128	10.079974149050024	6.341501219951162	9.297922110924418	9.914621328117402
208	1.86208581454307	4.410641659091251	2.003870005316691	4.8334503051795235	10.38750455141079	10.439793560373012	10.085414861011385	3.9881365198534087	5.813748345001872	12.698176351912355	12.695589033498477	12.170258491306743	4.706542956867121	2.7957463193879524	10.935598345803355	12.787782636781335	12.534399000946458	5.838505253356115	3.474993220138839	11.888736694837341	12.379590003229403	12.908491102052748	2.560005896780625	3.7665402794155707	11.189569445015655	12.606856314301119	12.035076110971776	2.3500254094872886	9.72181603838202	9.817932104118354	9.669083570863789	5.836493954227892	8.786191918124615	9.533529257546363
212	1.467189665904772	3.1828386703240903	1.9596006820794614	3.898662080458338	9.270006156405055	9.044761634879016	8.937999702775517	2.9758319779603792	5.088045107393179	11.581908196771677	11.19463917766887	10.963672610258842	3.973947038154004	3.3807001028537127	10.267228100603619	11.643875092672355	11.556449860959487	5.305864320710426	3.613773336823365	11.494604081696687	11.594365090661125	12.249801604814412	2.390481704398574	3.827615728251238	10.898029299877699	11.837388962423036	11.422811479338884	2.308123344315981	9.020679451101927	8.950604416183635	8.883339859468695	5.068635450917525	7.930029372221032	8.758960701762703
216	1.30208158164298	2.4851262506684084	2.1137833541907978	3.325298777767758	8.305862405787526	7.792521933908537	7.569850902518823	2.3806376397109035	4.5924262884540665	10.61781499089279	9.777985548127901	9.556679701518675	3.2270615019385125	4.565148818887925	9.758240675130876	10.459941837604857	10.276591275018456	4.511522281700321	3.9163441559141834	11.132400484588704	10.649164172942546	11.138618441115973	2.263719553000478	3.798051347680129	10.520858738085822	10.89017769925055	10.505845043360544	2.317853444923129	8.226013162825064	8.04786870831878	8.048179606145144	4.362809647035502	7.031384450326074	7.912995318461549
220	1.4167579376690627	2.6119019919254787	2.4307441650055392	3.388258687047886	7.897014597981877	7.121703129907612	6.497523768232781	2.3533072412203357	4.5925216558854665	10.212412808383617	8.888654686420608	8.486803987056767	2.863991968553417	5.882040962627301	9.709739660543857	9.66564462128751	9.225212073876547	3.872689714190904	4.359215248546041	11.050419779534455	9.934868787477903	10.062275861130841	2.4690287050852713	3.7179524804659776	10.215393040614861	10.113563512063363	9.682928060880105	2.5987915927123635	7.5663051414193765	7.381265621622885	7.470002155517499	3.948061456249144	6.356742366000329	7.307900410321298
224	1.7837310984399324	3.4593501003663225	2.8402469086463267	4.0838537113079125	8.19305036383602	7.213384610083853	6.093418105953488	2.855188362542319	5.155995355939883	10.511559459850023	8.737342812412987	8.130752542948386	3.127233497353518	6.810008031817613	10.192883465781556	9.49861524091088	8.802297569939421	3.7205734158994237	4.799772727292139	11.309856386240279	9.69709680016318	9.436861014382224	3.1258122842070817	3.529753914504366	10.001567815324641	9.722916578540374	9.250220275412529	3.2254264273271622	7.110679608512103	7.063502770710071	7.286660175999924	3.8562612436208097	6.014282211377897	7.093072396489907
228	2.2811932506187147	4.584959495412615	3.2395079054105063	5.12594841616589	9.015461898930042	7.904828528473623	6.41126726439172	3.685388555758765	6.102555259555908	11.330853433611583	9.20248029292808	8.525796868733222	3.9643535513923367	7.064972382827943	11.009482355931757	9.895439122965637	9.09093091576831	4.1538395776778465	5.048668848642497	11.760638207306755	9.934642766665485	9.423274970105002	4.11521243010081	3.1402156273714	9.781347250084746	9.724455808883167	9.273772216271034	4.084331502139226	6.77728365140707	7.019341451088901	7.418066959725771	3.9342353244633728	5.925839886009151	7.198801022474188
232	2.714933626949773	5.440434918972962	3.5036921412699944	6.085093959703753	9.950245832116813	8.776759125484856	7.180969696988202	4.5638074759652865	7.070528966218455	12.25516506915634	9.902372335228405	9.371432280721733	5.047142969740099	6.740356905131893	11.792386978894077	10.542767498101309	9.84276959795213	5.01452921554998	4.9729447239252345	12.134028404117942	10.431073162445811	9.885535215214762	5.140341745749912	2.5062508519792095	9.426830267947588	9.95142075887166	9.591342901809577	4.9334354276077494	6.4221186475735506	7.053856355023977	7.635422687326415	3.94991015390683	5.8972673267246005	7.399384956751699
236	2.8882396148239846	5.653521523506992	3.5161096960939897	6.601912958643052	10.562323543584162	9.371265387716782	7.9707264698966025	5.242508875008566	7.6750240132152	12.854735341995596	10.403113338908003	10.207304928757841	5.942114815014692	6.213988765286528	12.193448989600244	11.058469744418915	10.636995288695926	5.989176735061887	4.571430671594233	12.196601836882321	10.893527003441312	10.502151462742429	5.881000980787886	1.6863402085643606	8.877771355149259	10.18034360222679	9.931673024851694	5.529710278854986	5.946073993929256	6.972898942508648	7.703345279318013	3.7281742001819915	5.74068115692341	7.453832130686498
240	2.694955580582976	5.20812605496598	3.21583365582123	6.562481386782157	10.61576363744338	9.423256850293036	8.42369268197929	5.601020322009906	7.688104133268847	12.901095357747689	10.446999523489584	10.664478275076734	6.341672881327682	5.891793712999407	12.058641403270677	11.198369951585232	11.11702057892685	6.775274736464632	3.979385604348159	11.876172989424726	11.114132853104064	10.957128497116184	6.1596116864138075	0.8235394337842576	8.186870554281311	10.253765080312904	10.074914906814262	5.756042942773297	5.353877530885835	6.684539301207877	7.509393673057205	3.24013184683044	5.376537309423595	7.240348797637846
244	2.182787889691627	4.42820404842069	2.6427295141254787	6.1372899854203595	10.175858471928056	8.977858520729082	8.433103540109828	5.679907307589544	7.14519737347012	12.461522070893638	10.071576093040953	10.646573993505728	6.223537429355438	5.941540703077665	11.491128892496478	10.968688937150473	11.167254419742404	7.2232270058414745	3.3916962061126936	11.284749002575643	11.05996892044052	11.096803637144397	6.0243129578125325	0.0670564470982311	7.483005027951711	10.138806317480588	9.958139394413779	5.674265847185087	4.731871592972606	6.225244983214652	7.105735760868336	2.59864281951938	4.858251559389367	6.80680177877395
248	1.5422376355334093	3.783353795989942	1.9557175586914382	5.6676754808382	9.542921995864933	8.33847520630333	8.165679911024265	5.645930752804722	6.322947963009479	11.829204529460302	9.560812925995545	10.34798810253595	5.848529324070553	6.183898910168406	10.774827929949495	10.589927646602847	10.940354319607264	7.377805691211698	2.950628273190028	10.634424182745386	10.852565737980765	10.975054713196412	5.701500401407097	-0.513639329567138	6.884842378399915	9.903925870685908	9.67635819853097	5.473716722020037	4.172605503991551	5.709918961413918	6.650109751123905	1.9752221057613346	4.317718494958184	6.318159087441736
252	1.0230149004856781	3.627930155177515	1.3996905053085895	5.463393197571004	9.059697128310546	7.878008345741044	7.926391104713128	5.699683175001773	5.595985398469152	11.33551308630978	9.260277724727956	10.106445286983678	5.596322045501993	6.204639895986402	10.205857251149192	10.340189907670386	10.729419681162772	7.404294948957319	2.6642360619990364	10.102430318121746	10.65991971185582	10.775411578629662	5.447062001780938	-0.9646559929334353	6.423784239762949	9.641472792124906	9.391099906099322	5.3452815874566095	3.7032577897987324	5.2451338635578475	6.289613707875135	1.4944570026813266	3.8725979230381817	5.939409717823035
256	0.8189935067480055	4.0176281827580755	1.2178544967421074	5.624362931356489	8.905983902380274	7.821711520474245	7.951857546756986	5.967347130014463	5.244354234806154	11.15584084555247	9.365689254002833	10.184051487959616	5.734832272355657	5.622479424586342	9.929911588393738	10.376350376634266	10.771727534754685	7.454727154030186	2.406494849804922	9.730593656768061	10.575869533540196	10.672357532258989	5.388876901372421	-1.4083284104076303	6.029584869420316	9.394778227928414	9.214962936024007	5.35962914067356	3.2707762635621522	4.8652229186246965	6.066240295353161	1.1731307476942574	3.5582353978919294	5.732100472283209
260	0.9808320974381878	4.697928416788773	1.543626662171748	5.98860596098496	9.000849701090957	8.127468088610975	8.262782076001274	6.432747824640221	5.314359651499524	11.221528024952057	9.81044194605621	10.611585590273751	6.26238296835038	4.34770439957608	9.87774464974371	10.642490360093186	11.10752770480531	7.5576743888776905	2.000710005477257	9.420309042988467	10.564446422607121	10.723993274316122	5.45510386043373	-1.9527203987411195	5.589899048997213	9.138429618651315	9.148310638218653	5.424580560339895	2.7932605672885154	4.52981566239144	5.904326423996817	0.9356313324194047	3.324794999311388	5.629004941079876
264	1.4017606938257017	5.25506495102667	2.3182468355776535	6.22640846587773	9.05911157228175	8.5190849089113	8.65503595074335	6.93565128482681	5.601513371630244	11.275565118931837	10.305457089154562	11.177173586282303	6.909905416208951	2.671150916031261	9.822404836651007	10.907602282641616	11.56596943796182	7.600718479040011	1.331726547693622	9.013721443306995	10.490704509951506	10.84943291785928	5.428346143368718	-2.614369147375793	5.035926329296006	8.81064984958142	9.095662094040055	5.345091329430967	2.232516998376498	4.170467366179566	5.676490769359645	0.6801598650926064	3.0873951833977036	5.491331086599589
268	1.8773901415155387	5.341211305484465	3.2824695027446658	6.025412067459416	8.765310265345304	8.647250153643867	8.828620888354406	7.239490490755247	5.767509445887657	11.032573672096602	10.502773258395155	11.55706307354339	7.301643829984311	1.1328300209054432	9.519164061354605	10.90431401360695	11.87641236167754	7.41291378057008	0.423577665213223	8.406531312698888	10.213279698335041	10.894150706442668	5.095084654341958	-3.3027322208941907	4.397747982365992	8.369928338853313	8.943474747012182	4.954575049288996	1.6366562802001154	3.7507674599363505	5.30192755314224	0.3500922611457498	2.792328827483739	5.208930479249838
272	2.1954536382558407	4.848547923244433	4.064889420736897	5.266768919045216	7.967016676815148	8.287453630504414	8.576853730481757	7.143654328430071	5.529467091904916	10.350387547109971	10.189446423553905	11.50584790185873	7.179020863527547	0.24432210562532586	8.84798143060289	10.485750171890283	11.830500572853026	6.894566995379757	-0.5612065777914637	7.623411636178761	9.679736112951153	10.732974979005359	4.399429787018728	-3.874364127867707	3.7945558929007466	7.836008052115395	8.641881920930368	4.238046635418125	1.1216978998474283	3.299210063234016	4.810339915528399	-0.03409952661726467	2.4546420512214477	4.777075278618976
276	2.2136270944019736	3.9451675315433157	4.335375298044708	4.095822800785751	6.773742658679193	7.4612116625282185	7.917704562224073	6.585922224583082	4.817399966474929	9.313505149215151	9.399306273571279	10.989987345605	6.553833944939976	0.23167169035594215	7.877864817756787	9.706388449004468	11.392614335860436	6.1153998220539965	-1.3962728941950868	6.810485345811769	8.964183784740658	10.340471241593015	3.5058691413102743	-4.217276562533552	3.3670179758893557	7.287471752841137	8.23405740566364	3.3696455870429998	0.8049483278932379	2.895656339963951	4.329401482141821	-0.39432051678283303	2.146492952649474	4.30167769299673
280	1.8872839164768265	2.964870445395281	3.9518482585314536	2.850967876865719	5.505024896074293	6.414716227548295	7.086849671591067	5.682428345638599	3.8146605395327264	8.18476674874463	8.381651857195298	10.188225720431987	5.695538029595979	0.9381706094897149	6.822600347459648	8.782310463666642	10.694745990454416	5.308214651057275	-1.8956953239262928	6.152146323883827	8.225171068405803	9.785663580029903	2.7240800788767534	-4.30962132319518	3.19421624330867	6.817334634734906	7.813629130663108	2.6323454313575065	0.7330235224336563	2.6203141146306805	4.000967969329679	-0.6481894834365685	1.945040936327647	3.9283420940400195
284	1.2503284184359367	2.2269778195422165	3.033684484451889	1.8992618274420685	4.527093875899288	5.479896054737591	6.403039916084855	4.689756858429278	2.865833036816591	7.265488606229159	7.457900505310016	9.37227818983825	4.963857161387143	1.930887575042885	5.926101192771187	7.96576593295234	9.933699582768941	4.755362498675016	-1.9875020930655356	5.769979462360913	7.616841773829626	9.166542983753676	2.3352701605011044	-4.214242924540724	3.250168076892381	6.4799475506257895	7.444821815767841	2.261289352429831	0.8535006024746348	2.5016395982524484	3.8814079663508996	-0.7567079644171633	1.8773986053750755	3.7424201870845004
288	0.3932793130482029	1.8938444805014003	1.9244645785381056	1.4726260863317202	4.076052655419406	4.907710062987642	6.092092498657031	3.909567107820332	2.307329172030999	6.751804334759973	6.859864217604824	8.754164673637606	4.596260536033497	2.7392413547021226	5.350493417582611	7.417980652200354	9.251344657428733	4.6328334691381805	-1.7210491852223344	5.668822274200783	7.214426499271896	8.5426091932147	2.4249629913140804	-4.016102303855678	3.4282493504753617	6.268295272260013	7.109439831903906	2.3050711096740293	1.049426314565419	2.4991962846599844	3.894943942726637	-0.7371579390034181	1.9007933091810607	3.708074083503003
292	-0.5441980348198797	1.9293668221399254	1.0519505712652837	1.584156270795922	4.159747590053067	4.763627040280126	6.173990710883119	3.5746998696673775	2.3047807158454168	6.662551863061486	6.6378407310743155	8.39356134202851	4.578528392676167	3.081825486985374	5.1242494453755025	7.151123982494464	8.676008202582489	4.904392706886398	-1.2207572429353404	5.755827412378333	6.995793324927652	7.914788703009023	2.8229134011522476	-3.7531077767029024	3.612477770267798	6.13343809486612	6.721371156888812	2.5887811118569	1.2103770940739134	2.529952042867856	3.8721039197435307	-0.6417369826326995	1.9280892561870353	3.6856865789818896
296	-1.376582023006093	2.1696824972686604	0.7569172363244413	2.0602371640641484	4.588595378734735	4.939329611705417	6.478748782013093	3.7669968509933978	2.784590475681377	6.870836717424534	6.6844305823360815	8.217919328922159	4.681592452627137	2.9606461450214248	5.169635282815846	7.067687493599896	8.16153810347857	5.336480127212718	-0.6239405854684636	5.914756759969018	6.88635442902476	7.26924799037494	3.19412731317889	-3.3922395620530943	3.7480533028387106	6.031316265137381	6.205227359363825	2.810220234451507	1.2935078111415554	2.5199003155983126	3.6544639971973156	-0.5216814266385085	1.8814144087020337	3.520394554786785
300	-1.8910018157899493	2.4503204760675636	1.167452690038	2.65694498344994	5.107445227125693	5.260905252525596	6.775858861981956	4.398608196597219	3.490860214956567	7.2083973702587985	6.846116048694222	8.129378298261914	4.63992546817423	2.5923879081124426	5.379797445065999	7.061612111382569	7.6881522938217035	5.629304394814472	-0.04132514436540205	6.083609088796858	6.832283956443989	6.649717790980852	3.231482974476788	-2.8710811065665247	3.865972032323099	5.963530048572684	5.586340413294528	2.717229597860724	1.33521639963641	2.447591537018057	3.202079049609009	-0.40436732666919517	1.7390717224082772	3.147408954303312
304	-1.899205322238964	2.7060890129431727	2.165640348688778	3.1864774146691515	5.542014108017037	5.614453778396888	6.929697972921675	5.254430757607861	4.127435673783328	7.570483665426161	7.039619904864607	8.111430147672463	4.350659359438004	2.2462119999440944	5.6895670747160345	7.105624180973598	7.33985422188613	5.587603554923419	0.4501863706666724	6.2854432901000195	6.847858888503055	6.194053157426705	2.8356780934265386	-2.1717007105356596	4.050057400968436	5.982168182528313	5.023176657392161	2.2610039653913674	1.4121456110586985	2.354372972266229	2.6355111532428244	-0.29258990213908914	1.5484838446622315	2.6472203664700977
308	-1.3147870269005135	2.9893097802029627	3.4510519417416434	3.5866024403618137	5.875248894163004	6.008679374783156	6.98218343879258	6.076359256661841	4.503728855206326	7.957825163776831	7.297136288339197	8.255825021880655	3.961768140327087	2.0964605755327517	6.096376403675512	7.26576803280316	7.291574459739958	5.231230245734063	0.7980208376763531	6.5967154336317595	7.004103166062677	6.093506320827534	2.1766130869270657	-1.370017048237817	4.3727764972911	6.1541938626359824	4.7472395777055345	1.6336909491300267	1.582800503549284	2.316933864465856	2.1828429643832603	-0.17877984001798464	1.3993406260446413	2.2140073720346805
312	-0.2191365802715853	3.403252831449727	4.660693633710174	3.907358159690533	6.217744811572211	6.539520247161174	7.113303166549914	6.651853067769895	4.608548629569367	8.438946702631696	7.716868857927667	8.688117959021643	3.7878012561532737	2.1702513639969605	6.626660330254154	7.637043456823055	7.702541331871312	4.783357608162441	0.9728915070766135	7.078802567729548	7.367572288985338	6.485866053418463	1.598926659361841	-0.6176448448799582	4.844029891181865	6.509256823317903	4.935531126912761	1.1641422480755328	1.851343031023745	2.4018962322628212	2.059403414295135	-0.056950736647108674	1.375944491727185	2.052699083867726
316	1.134640929218437	3.9985937971249803	5.485853658177139	4.235337723529212	6.698332292811237	7.283027153700747	7.503072719704023	6.873089296154197	4.581277358886267	9.064132667544952	8.354784944421333	9.438064551366491	4.095051755102883	2.39715790143372	7.276328068482065	8.242899873903033	8.576184251113329	4.53633068846752	0.983990130324349	7.7159495158889735	7.926671008124287	7.339182358331918	1.4206666910542747	-0.06303872897206428	5.399372564035131	7.000046712368085	5.5830712177461415	1.1248147459241538	2.1707920973329977	2.6247763567458793	2.342633241460908	0.07455599289190337	1.511952515599496	2.2580668869228306
320	2.4026594101325984	4.702954757260702	5.742853627010698	4.613006103312996	7.351144772089557	8.193386057194548	8.186110475853054	6.753505689736147	4.610458362383149	9.794965719288644	9.13678739148261	10.349938366508077	4.894715296785098	2.704326384392325	7.973341444865586	8.971563316582378	9.68543813167455	4.672847736004928	0.8979253150204016	8.401606538541401	8.558551766721813	8.406826951736228	1.7430051521163639	0.23680551290329085	5.9319853632885575	7.503631572852027	6.459377749347157	1.5627653559329369	2.4766807493622167	2.935505621174376	2.9158129618460435	0.21638189201560076	1.7711092188941628	2.747698776937239
324	3.282992593105894	5.329323755160473	5.39522217342061	5.003916250946649	8.071873644476435	9.079007125820386	8.995707489189877	6.402998908089353	4.8238248703283375	10.49849030705099	9.8571490992586	11.10875412997311	5.882202133586367	3.078531734323402	8.59252450680938	9.600769972403452	10.631829234936996	5.1511149276379955	0.8379353859726428	8.984139419761076	9.067510581965134	9.302054381726972	2.38626336448918	0.35676753430890434	6.347140296169836	7.870461444057217	7.192407589873143	2.259000057239078	2.7266971996129437	3.240539781018253	3.5194580466104384	0.37176623846605883	2.0655562825504745	3.294594517972842
328	3.6337666419791854	5.657228932402661	4.543573368045181	5.318027482911162	8.665760018404262	9.676046347030292	9.634164785856736	5.976610645463487	5.226547704852331	11.007773371561072	10.268635723891082	11.382390947214374	6.575075132935664	3.547403565033535	9.012407280102304	9.900813077725019	11.023056002442896	5.722925648545386	0.9420735812243981	9.341073966284219	9.275639510577843	9.667696928411235	2.991118185120882	0.461390017298237	6.602317793389344	7.9931502140416475	7.4454812815559706	2.844392530889278	2.9154310152832874	3.4452342900076744	3.882214536401964	0.5400595055296388	2.296986574095686	3.6424446013994145
332	3.505111208649224	5.54276035816774	3.3974938306860687	5.4723796706318115	8.953938461585373	9.779036497221927	9.828746770839096	5.6147475100856	5.711004719620406	11.21020695717058	10.212491009677365	11.003798457020325	6.578223688683329	4.105482091075084	9.178270316792915	9.757591222923043	10.67799851582629	6.073862537307794	1.2930226293343086	9.437842345251328	9.115818000666412	9.356597876767486	3.22706507821719	0.7045254093502421	6.714004499650331	7.858581046290582	7.095842820372073	3.008877985033318	3.0601372641549998	3.4967329413821693	3.862188091063732	0.7064034920977282	2.4011304317886806	3.6425075439041383
336	3.0691289824245342	4.996561514637092	2.2340195122582025	5.444771276078713	8.871439911378623	9.351443267100324	9.481290793322785	5.396301255906899	6.124978526863797	11.107952089875038	9.708915685936564	10.082871411615951	5.820346340743271	4.654183852842821	9.130207992390336	9.240733123336872	9.739516233649832	6.003736957650859	1.8620569658950716	9.336890197068708	8.67146203712766	8.520007111972937	2.98521994790738	1.1357361049587749	6.734062654659503	7.553742866518232	6.312242968834847	2.6821336678498455	3.174864522547592	3.406632414799959	3.5205323607251575	0.8395150878691366	2.374553197587593	3.3355009471603347
340	2.4943892892802753	4.1848149193965165	1.34388625282497	5.283446298611264	8.4953698897451	8.546804406521979	8.718626000326452	5.317664132997528	6.348776801292657	10.8100022996727	8.947834945975783	8.970077492001169	4.614644515784446	5.012702929238673	8.973888374559907	8.569715478241479	8.618343331512259	5.541185365038172	2.5058693822536102	9.151704765102174	8.134556749786926	7.543451290158718	2.4412126479503002	1.6725732045860575	6.714192850327345	7.219120961082553	5.477826581476214	2.0777006096835096	3.254903785117119	3.242040149132751	3.0835394781462075	0.9053574181586808	2.2711660804627565	2.928483478781827
344	1.8546730233096493	3.3555135642210137	0.957303342786441	5.070626246047997	7.990816572995294	7.627891998105926	7.814606646834957	5.302743898355023	6.339336856095543	10.46213910322431	8.184832552272296	8.083341578102267	3.501679173211722	5.003985392334413	8.812170006437933	7.996234873610276	7.7904724878077545	4.9282193059473345	3.029204122524724	8.976631141886966	7.7050776287093905	6.857295019002913	1.9547400425195898	2.1588225310180027	6.682538492497109	6.976466161280159	4.994380938318135	1.5753433664602625	3.2863271153447893	3.0936007421588916	2.816700689833705	0.8949015713985802	2.1744613592561066	2.6802592209856817
348	1.127322551742102	2.73081182744069	1.1577013701773657	4.8683848258127576	7.513136844739649	6.831871969140342	7.033328038578003	5.244992242922218	6.127729400422525	10.1604852419864	7.604684333674774	7.6914686962486325	2.9598712846413013	4.572100627799817	8.680482842463771	7.670804958050072	7.554254989624849	4.483841884736516	3.284167281442161	8.834323860752116	7.487926941086257	6.719324094973814	1.8651946735974156	2.468324416604384	6.640714151782393	6.869831544697579	5.071925150463663	1.509279724125226	3.270838729229719	3.036976091346655	2.8823759483043654	0.8466969111046359	2.1604623740009234	2.7603254248545785
352	0.27655589510712236	2.4190776287038176	1.8268957091936842	4.683583724594765	7.128208142403395	6.258882506780848	6.487399561715373	5.0641593805247735	5.7838978621365635	9.901473974024618	7.231936913351222	7.774569491784673	3.1478583733237837	3.8466205499805994	8.524909951621202	7.569385509453592	7.87862394251073	4.425641525538976	3.248050204659569	8.668965317773612	7.444286327640531	7.085471612207339	2.302136415391278	2.5825917655590502	6.57356928119386	6.850096685280852	5.618543133855313	1.9839785048938898	3.2405607618531604	3.1039907853913262	3.2584474004493584	0.8425595739072874	2.2671799602488214	3.1592233101237035
356	-0.6364877207898736	2.388286107709171	2.6600997380806466	4.478702533858379	6.80265758704247	5.851388916501077	6.101601108404752	4.755393016253064	5.379738317258531	9.602848982407968	6.945443612682946	8.048389414494224	3.8344921968923242	3.1054830472741553	8.242082575015937	7.5262164879561375	8.432946183848017	4.757707106975982	3.0318946761830925	8.3902292039754	7.427819710097876	7.644729118119568	3.1222760598507753	2.590867751255929	6.462523444071881	6.813010675395237	6.2963285287199975	2.8259227204500696	3.247723809625603	3.276891700100667	3.7630507851006505	0.9723936890847064	2.4847383436411894	3.7019252683634982
360	-1.412955161341994	2.5068759854920355	3.2618114865919883	4.219276894407164	6.463352187050745	5.471604810251688	5.702525601294646	4.4058308490142855	4.967168795442503	9.180295921035848	6.585239870611416	8.14201829761965	4.556497085511332	2.647280686370458	7.756961326088163	7.351839523827305	8.783079125163724	5.286987768176298	2.810534470137969	7.941207865692565	7.283950787273855	8.00065038568409	4.005422105213209	2.6140768461985524	6.295403464635419	6.669196588844271	6.715454561444766	3.696998110020225	3.33346771352289	3.506953707423869	4.169569481812937	1.28286838207601	2.7686707903578007	4.156375874515925
364	-1.7912280514315635	2.6205344133972144	3.293487540512868	3.921060075396906	6.078744872958309	5.021159159380897	5.173067079834769	4.159037102689138	4.576686847575836	8.62689397541157	6.079167827516567	7.823450545585821	4.904291617409114	2.6402320795156955	7.089436990004945	6.960868341037558	8.639105775002319	5.7475342605438025	2.7165615490037682	7.349013786834928	6.950513345336162	7.895426730249069	4.643398273188656	2.707361929733782	6.071730121541693	6.403222067878828	6.655083639508564	4.29529284346451	3.4963531405866193	3.742804040995885	4.340305317410923	1.7382653907757915	3.0650589388709673	4.369870174819189
368	-1.6061160523872076	2.6243100100063343	2.6136069231803294	3.6622171309515443	5.705864415067954	4.526898372664919	4.570384967708934	4.140257824935038	4.228054989630363	8.043600062089324	5.509235368170596	7.141283494085471	4.761778342622441	3.0314226073976633	6.368398650303175	6.431894762966349	8.014024714263602	5.955252155527178	2.763475172695137	6.72925470560548	6.4995965793542565	7.350391369381499	4.906123625766305	2.8115744519773846	5.807611450791292	6.086922630200846	6.1847443424477655	4.519792545351316	3.68510173820883	3.95127676919879	4.298640717143802	2.2208812180714026	3.332019559077083	4.3512434849553285
372	-0.9323955154720079	2.4965000089557323	1.3449047769923204	3.5446784406812846	5.467356668019982	4.136300076531944	4.123717297633048	4.377830017480977	3.9398720164962606	7.597238998305388	5.072472082682741	6.398346884785669	4.353836048577933	3.5673692136342496	5.780807003684894	5.962074264732366	7.204397183348732	5.897966846833919	2.845347874133326	6.239907725792378	6.094879135002534	6.644045812998346	4.885365950647814	2.7907380987279895	5.540167317707978	5.837846741242299	5.615835652477872	4.499831665122171	3.823203792456103	4.11930750760512	4.197853077780346	2.574806922133881	3.545406332601444	4.250013817547335
376	-0.10640843930797034	2.284408086731203	-0.1671964223931925	3.625074139025668	5.471123681560275	4.02284907279006	4.10406207002154	4.764231192958045	3.7324221039951193	7.428007107100577	4.956431376341194	5.970854267304192	4.076850880820222	3.9247522255035507	5.4811973433390415	5.742690071865847	6.606980307110482	5.713131413340622	2.8164448666989745	6.007758125395834	5.8891715854730675	6.14175985693007	4.797608363436519	2.5339560444751785	5.324757562545049	5.74522255400667	5.310486780110376	4.477179039141766	3.8495323560798154	4.237120617659232	4.2066364182122715	2.67174219410594	3.686872234572768	4.245315541039421
380	0.41771453513540513	2.0599920697654506	-1.4836558066102694	3.861109246996021	5.727904782138772	4.262787808146187	4.6401548268467465	5.085879789863245	3.6252102760339913	7.564719657872354	5.20906828518821	6.080705627347889	4.221752632926305	3.876932372795305	5.514057622339329	5.835242733527926	6.482655985677544	5.5736298420375565	2.5991051131430907	6.068140014586646	5.9270300715530215	6.079147800355973	4.816693770645414	2.0529160447741606	5.219861017399731	5.809679493541198	5.461076722662302	4.620909679190258	3.7492096329444338	4.279136646911062	4.385465610876006	2.4664335188583033	3.7278599644955293	4.415965545949147
384	0.31142994682838476	1.8774961185736818	-2.230609172911344	4.114202012165129	6.1252808416213345	4.763758647335458	5.59490345495992	5.1192631592247615	3.636320343373495	7.903304556919854	5.687932476941842	6.65736625897912	4.768030631425015	3.410790434808992	5.7961649748375255	6.1280407750860455	6.809421522114504	5.563890919943004	2.249947065394869	6.351579650101498	6.115899070557374	6.4289989309118925	4.950385558027601	1.506413098346636	5.262723909442392	5.937777981071784	5.974021896538138	4.900309073473856	3.557207336981439	4.2035617722239405	4.636562812543072	2.0162856527920585	3.629149904625119	4.678242671599217
388	-0.42440083515781524	1.7584998563237644	-2.2240924779052142	4.218911160307746	6.4823202923190175	5.296256528834048	6.5897302461188785	4.752190577906657	3.782664289460921	8.26678846179438	6.127765640046457	7.37317178771998	5.382720933675561	2.732072584883796	6.170377715744536	6.404382212681807	7.310188751837737	5.627956853008793	1.938913578860207	6.7246794530840726	6.287456019739714	6.930242044117811	5.042167650843969	1.1268142433327408	5.446586118298253	5.999912246814568	6.528811915126442	5.10131024026374	3.334293357060234	3.9785952467604324	4.7636809228788675	1.4573242627543257	3.3640439425411515	4.835541236112965
392	-1.4235006534876102	1.7042534308320614	-1.5082634649343714	4.086531151944463	6.657245619178399	5.6143073893896895	7.177115899085335	4.067543496352754	4.076990594107223	8.514924027879324	6.292771323528783	7.833713988553073	5.6309423304487645	2.1633901541448983	6.501848204409606	6.485197527724351	7.636259059699792	5.6242341853241	1.8531480980815658	7.065788728040725	6.316030486372892	7.26066396787464	4.899338233022206	1.0907970639345397	5.718198284970896	5.922749504394639	6.7797159977449235	4.981323229610868	3.1373979966106917	3.625649681474166	4.609609115406533	0.9545482372979441	2.9576704427431713	4.71444224120997
396	-2.12400698125544	1.7186399654865958	-0.31316915075389484	3.7786323928799144	6.6405000518989	5.595691189943283	7.074169141074987	3.3343779956556014	4.518201339758409	8.635850884568642	6.124176963602881	7.8117899697485615	5.267232881598976	1.9936660477847754	6.759780389885099	6.358528121153291	7.593162040613044	5.448266492439518	2.0830352253774382	7.334129314979197	6.22050665238555	7.24724767762531	4.458780754276108	1.412778135547458	6.00329826746642	5.759599194290197	6.578393442711222	4.461280811490255	3.0058596058295133	3.2498392976726302	4.184608925744692	0.6507065875790782	2.515416854229627	4.302074421511353
400	-2.058632130193689	1.820682997875141	1.025574085507293	3.4983956725486256	6.567955000507351	5.314100252086116	6.324891074424252	2.896249286968679	5.0747675767565354	8.757477738204436	5.787947640110958	7.382902126745706	4.420895088478205	2.347560876641338	7.031415444741279	6.207832797589668	7.266489964258857	5.135678755191616	2.560603850575502	7.58963344565125	6.177515967984815	6.9815225424929785	3.8740560910642854	1.9271553706150524	6.246374114478445	5.6859049653502804	6.078596099765325	3.7241287137420103	2.966081134936902	3.0243773384029997	3.6968924905899496	0.6286602004391527	2.2089004460832187	3.790837278331888
404	-1.1044231625329497	2.037726873975107	2.153670067118048	3.494987717387552	6.642680628217858	4.999154555096854	5.2950081691570245	3.0061666889586207	5.675231919265167	9.068968749991239	5.589600072099775	6.882246953754368	3.55352376994362	3.136940471358551	7.46062181496501	6.315541728286967	6.97115705637413	4.871335017303112	3.0912270467913494	7.953388194030953	6.4298782186293995	6.76819751938045	3.4578487785775103	2.3757402836899426	6.4433002309246135	5.9130043834170465	5.655809388186274	3.146378747625615	3.0444753093147816	3.122896186573453	3.454940548756972	0.8964101053493919	2.2129414025702085	3.491723528629314
408	0.4478154767174276	2.3798022210118406	2.7730064322078163	3.9239814182392614	7.005702001050095	4.90269850446758	4.493475902656529	3.6887755300849303	6.220135673077405	9.694319700560817	5.798262581491166	6.705953104254399	3.201397649311657	4.119321335882672	8.145322779117654	6.891016942745898	7.051945668535881	4.8918504591458465	3.4643514068875088	8.528478600904185	7.13573787794957	6.933675748485363	3.5040390403017114	2.5512661869485647	6.64359234086204	6.5607418848334245	5.6836290215999234	3.0906622331788838	3.268455497119037	3.625379553224726	3.689238300545798	1.3901057208250371	2.6159984999412593	3.6569416430650836
412	2.042726273147666	2.816391460937391	2.701758616301884	4.74390791648958	7.635037402903559	5.150878416408124	4.31490181787179	4.7083849788046095	6.61877296684023	10.594483348800818	6.481217367974878	7.074208241721861	3.6546153929946628	5.017978178706556	9.055199600245729	7.923450926803071	7.657036761978875	5.334692941548285	3.577038994341037	9.32343862086976	8.246441820305224	7.6104659842033895	4.0971441165477955	2.409951442356009	6.914899331754204	7.560963134749515	6.299717410394791	3.681687822583294	3.6445896533501756	4.448610294554472	4.398484695773556	1.988614196524947	3.351692668081979	4.315903175901488
416	3.1503891865345572	3.2745416081723966	1.9277021836248411	5.713540062784171	8.339734056397809	5.671699986443273	4.843477236916903	5.670152173031654	6.8332428759667145	11.562908143413885	7.450778465533075	7.898653487290483	4.768961417555477	5.638996110030481	10.023154233421996	9.154923415911918	8.627489068183504	6.131192668693811	3.494672289608197	10.225400898865962	9.494854903090785	8.634579636708082	5.032602774311722	2.088467592688552	7.2902579123494835	8.658177353933661	7.30755851807973	4.706788051165819	4.127984513351034	5.352454171972192	5.32203386870427	2.5408554012998006	4.200809944990898	5.231891618870821
420	3.519606819803422	3.6629550364520007	0.6447767002992804	6.49818323402091	8.85542581229796	6.237023814666847	5.818234905812078	6.204467280935567	6.900185090763522	12.320650069601356	8.354446390039863	8.828556992175368	6.027316078227314	5.933536037723119	10.817122432101012	10.195009205827459	9.571276640568737	7.013523560936354	3.4098763379790245	11.038212748315274	10.509746524979112	9.621352171448168	5.90588806568599	1.8151311828561991	7.728654841937217	9.517337775043298	8.276884058082368	5.709548935780087	4.607847678948579	6.03240965273838	6.065010055488103	2.904132597266769	4.875540244190688	6.014694675518702
424	3.251309625046237	3.909212579394103	-0.7624324540915837	6.831249696650458	8.985815979205086	6.590901358176469	6.7737455197021355	6.139416202303419	6.909895402628654	12.658020941247136	8.858016945409094	9.446364378921219	6.819263917872125	5.978382572338896	11.252778978547472	10.71712395823239	10.080563519776074	7.639847736143367	3.521492233922197	11.56666848123398	10.998878451234408	10.178365681699558	6.326839907884907	1.7664716199144774	8.115726450457027	9.886367772890884	8.786482788790385	6.230588897233142	4.930336939761569	6.259244903020168	6.311352713862729	2.9865376873907477	5.1501402724890895	6.331286414373925
428	2.6748621396241856	3.986709823079667	-1.812917823982698	6.644104463968657	8.705228783563403	6.586738569795865	7.276839714751525	5.57534073375687	6.94980333480939	12.540306059647364	8.818175293593182	9.497950529914023	6.778116209083191	5.899739250546485	11.28212735188646	10.62790391146058	9.965026830309476	7.767292479931708	3.90535639730545	11.703747719779491	10.90117547143958	10.130602811031574	6.134526237258392	1.957201118296152	8.310230234145639	9.727000211952916	8.666852929168105	6.057471736873102	4.958381640313321	5.994971737030899	6.003791793923914	2.7795567442335147	4.971657263601337	6.094708427300329
432	2.114202255633222	3.9200966259211887	-2.091601843321508	6.092777236814482	8.16513250196803	6.256767733989557	7.1330623446616475	4.825325476861414	7.045505029056292	12.117539375228908	8.348957040688488	9.02617070780193	5.9801173059160595	5.795471653611249	11.008436175209301	10.11406133005527	9.363956427774298	7.376862507315154	4.454333294112776	11.476407022111283	10.421710941705287	9.624218916436046	5.485777841069176	2.2271172944106388	8.215476015329694	9.240317321335969	8.09882638793866	5.338504777781337	4.643477428156718	5.420766339921058	5.383543477771385	2.3674354493450656	4.490305412399641	5.518856988324527
436	1.6951696829912262	3.7619817161946583	-1.4319034778682507	5.4628348212601585	7.597868423352627	5.771852001876449	6.4525508717703985	4.2479686629809645	7.134208661187073	11.629477471553919	7.741783599380877	8.32809255404683	4.88436554629243	5.694587693142079	10.616692516225212	9.534030890235526	8.663289048256692	6.675912363363447	4.924517142260393	11.02338597375554	9.921095823035136	9.038108802864562	4.758337485697535	2.3295068682030333	7.833244780790585	8.762972809601695	7.501233558789477	4.48797129451613	4.063896168938867	4.849735247765361	4.854922282359198	1.8967857312950607	3.9820613760546597	4.996115671895298
440	1.3113840785295887	3.5565781503527787	-0.030128126887906836	5.008669840564774	7.177642804143819	5.323297487170318	5.5546932080216465	4.06372260021372	7.093875390262294	11.263682336979416	7.2904515082352255	7.768524627145394	4.053760995166849	5.56837271238164	10.263369534329183	9.216851211165723	8.266234377017948	5.973046287714918	5.065201746549974	10.521317455430856	9.719534849422935	8.752960182979026	4.322699059063041	2.071604723468431	7.270373326065458	8.58831498838739	7.272290688273753	3.936807860925384	3.4019532117783253	4.566077220832603	4.7482209085746385	1.5142289361870103	3.7014903928763148	4.864456164476241
444	0.7614202480165635	3.317686072556265	1.5916162689078859	4.822389113648613	6.928616983086758	5.0087733142278426	4.782855021798963	4.254951466308062	6.820099813408345	11.056261988382008	7.130386334536568	7.5677718925143065	3.827477683894287	5.376516328588687	9.995655988252164	9.286292052665207	8.355074861412788	5.503638253621739	4.761034953494679	10.104534123658425	9.926788305015394	8.916723228830211	4.319410313191217	1.4284218513664209	6.696227533600243	8.812327362699742	7.540757637058829	3.877141942725806	2.8687789367725323	4.678255069365299	5.118899809311128	1.3031984534739613	3.746857633667535	5.200499521476934
448	-0.044424470401898064	3.037976495702039	2.777441494605066	4.809307563083496	6.7386431523896375	4.795048701577747	4.339450825225581	4.599882591078063	6.308011992740793	10.897005053664465	7.186430912947315	7.69019315685366	4.138976563494181	5.1141209473236815	9.749989484966163	9.610590910489009	8.786444641817825	5.310945020618252	4.106923569800692	9.822676633830497	10.394253704530957	9.3497247459865	4.575882900129135	0.5693474397589775	6.274891360652783	9.291527724649058	8.078869799243927	4.152967919354852	2.615433924747372	5.06868551881901	5.704148278139914	1.2538424698644424	4.014237393734653	5.763425335637959
452	-0.9556376313877535	2.721354954524503	3.0123608036280407	4.77845381483986	6.465422137149279	4.576434123882626	4.228146542364507	4.812800872095672	5.6870140885774605	10.631864520886614	7.25414894179856	7.8953404227236526	4.583166587702299	4.8247914192455745	9.427280402223795	9.90293881777092	9.18298432892701	5.246572004423356	3.371002427173241	9.653286909526718	10.814304324503146	9.649276709036355	4.713889586945008	-0.21494999473661558	6.105869277797052	9.735398267961987	8.432861306834072	4.3616595158128195	2.676834099686956	5.468970284959267	6.0676698531498445	1.2843836513516644	4.268056858731028	6.128067954803995
456	-1.6252509314511403	2.4117748676443744	2.156733984270346	4.583657253136851	6.058120712243778	4.279450882597525	4.311492432199245	4.702769267606629	5.1775879729202785	10.190283749601596	7.152590256752236	7.907696703972974	4.681770312886697	4.569089401153367	8.988644577220406	9.904189084796572	9.161875701660968	5.079881178428195	2.8609800266512315	9.547574019168618	10.902481051575444	9.43069455626791	4.380619991686579	-0.6486735327555673	6.19461010322608	9.874542211397303	8.192472437201738	4.10121296800847	2.9709613248202107	5.614095673691982	5.8486661763346115	1.2981706824905614	4.282862652455854	5.929392799665953
460	-1.707847114065786	2.1950445119751354	0.5229788409380587	4.2274579895098	5.613980279099988	3.94036792713954	4.430428016920934	4.267585743619913	4.987040030286131	9.654490446510986	6.850292188515222	7.597559432874891	4.185711850088832	4.378180015954214	8.507049539068639	9.53886888003044	8.567349412268447	4.652860152894991	2.768055432006693	9.474008536261092	10.558477375075805	8.5666103146751	3.4695639522692456	-0.5975987896136447	6.461482508558151	9.60984704452409	7.244306069203782	3.219573251224997	3.350122204905402	5.389889703493887	4.975075232342707	1.2445317475368756	3.975390901065398	5.079608904411549
464	-1.09199833594231	2.162094349170753	-1.251634236990379	3.858690252098564	5.326036439800121	3.6961488630436095	4.499262798393872	3.6736769583457067	5.197908865202957	9.219616866676319	6.48192737850165	7.057558518710919	3.225897780856856	4.231551636502639	8.133760431734737	8.950154281907427	7.565933208436918	3.982048978288578	3.0714480799376	9.42597196106499	9.911402677307656	7.278006058437545	2.195695394694439	-0.12736090985567544	6.773811800066959	9.054666496304204	5.8541350216882355	1.9143714856451923	3.668353309906389	4.886766898215078	3.713605394524194	1.143706914875174	3.4468138130902344	3.8276033304851564
468	-0.015516884585781671	2.349667304782382	-2.483116143633078	3.6659436133334933	5.3509211405124395	3.6901061441715366	4.521253097563204	3.14309977691551	5.71127413261411	9.065102554322289	6.246802791082587	6.531973345477347	2.2271954957043865	4.071083535406316	7.995550612289982	8.397221544045635	6.549689753208496	3.2480013288509766	3.5519075303999714	9.390843367708857	9.227939582414583	6.020383342801702	0.9806346272505455	0.5285079465873986	6.9822821440840785	8.449790933256173	4.526472557083718	0.6257060750422533	3.827067842357846	4.330516327414886	2.525306456865791	1.0587066385242272	2.91088270406125	2.6237456732310256
472	1.027839419630907	2.6987862518837296	-2.7330453326840742	3.741730442136901	5.6879243707101725	3.9611604113704915	4.538471687302446	2.826298706548364	6.283696158756774	9.22557542379018	6.265729888355358	6.2572617372842085	1.6511900383268734	3.8546786210967294	8.095072725838762	8.091560343340305	5.915342315997814	2.694695704332412	3.9115157028624092	9.317408538182347	8.75277326281348	5.239348875169132	0.2239757472582308	1.0758833858029426	6.959022504402814	8.015643099574458	3.730912675974638	-0.20513066597646437	3.7885792159749183	3.942371596873251	1.8170940830129865	1.0391983959663642	2.560778611393542	1.8756796074240931
476	1.5462874135078037	3.0618355196896525	-1.9826282212745574	4.006861199753033	6.151050552097043	4.392639625903059	4.565304744638264	2.735932581669705	6.6402215789992125	9.546832060552328	6.491886122525579	6.316160186079595	1.7244750217767955	3.6100284962108717	8.283167818137304	8.076374033564194	5.849685654176276	2.499918931371417	3.932189454641268	9.116410232415406	8.580345132145304	5.137171732330181	0.09293700731178148	1.286495086282857	6.632909758033786	7.83349512029801	3.654477110219133	-0.37054443265821524	3.5639588742873913	3.814436187650358	1.73276435891407	1.0750828954256302	2.4578161177570133	1.7372785762793816
480	1.3212085928938222	3.2663836396718753	-0.6117630585483728	4.2525448691766865	6.464347346197402	4.7667031167799285	4.567283142002654	2.776917688988102	6.605572683823021	9.766200994629822	6.741481763985254	6.601518137477056	2.320794814926079	3.4486615570736063	8.334661462721652	8.226557710858357	6.249776824430791	2.693272822255926	3.590349188322935	8.711916901527474	8.63581941331628	5.587627396781269	0.4536576259603375	1.0899412604470153	6.022652610831861	7.829141120217449	4.125796784474722	0.01385833412635226	3.200469962622715	3.87870811436797	2.1047530121115465	1.0984972687643417	2.5144419606621424	2.0543074555982845
484	0.5397188053809628	3.2077202715948885	0.7919359783205306	4.276728619268217	6.428175433141755	4.898521410972266	4.5036678200502305	2.8420126366386946	6.185849174140533	9.674359297168829	6.826713067938767	6.908364755354686	3.060470573327742	3.522530069994406	8.089357355674968	8.362841585025992	6.8163952655356175	3.162634126307719	3.0684888285412626	8.117229441175887	8.76700017622971	6.241479857899005	0.9760593151244933	0.5935463294302421	5.255401598059511	7.861036757649128	4.747335898811248	0.6074243172568368	2.780233137740718	3.9822227854323042	2.5862748557597124	1.0349365446663943	2.5779004031899135	2.490509026915194
488	-0.2931317083587295	2.9164576456823066	1.6915894704071868	4.024736871094619	6.052194103219435	4.7633771776098595	4.394228924147337	2.8989708350422525	5.5596432545484555	9.25692746686288	6.699196798576876	7.084473115200583	3.5537173658293617	3.930431117624833	7.569621543846306	8.395892122051922	7.25119970398252	3.7305121327627586	2.654087536786622	7.478740673256667	8.875113464836145	6.7488064595539194	1.3397415842563327	0.02292498195343819	4.549111354786571	7.845184783201845	5.146486269355004	1.0594058010056775	2.4204201637193488	4.012027253511962	2.87529443968577	0.8693525173172724	2.554463618504823	2.748674147341881
492	-0.6171115621244992	2.557999366023972	1.8101459695890614	3.6412048247912168	5.568923936135131	4.532868373870549	4.3507003674335065	3.0121121330506653	4.987969385905123	8.7247266549131	6.506666643881084	7.137966137984227	3.633515825634604	4.6294727208556505	6.997081262088707	8.401668527371811	7.434140186613901	4.2431921851793035	2.5803058082283963	7.043864709236215	8.993235565367993	6.961090547152719	1.412999507197595	-0.38486468694792675	4.148488987939158	7.830018023749171	5.19260262131987	1.2071106403391794	2.2580263557644855	3.9859046835400735	2.8942036555651525	0.6822248084009915	2.4911386903810118	2.751349680629804
496	-0.10958853336322338	2.3530194699960867	1.2012337415884533	3.3904864702453867	5.3078560695152115	4.483864296082896	4.531208503727035	3.28264998560859	4.688700664126524	8.401824929959306	6.511782629738528	7.224752407906714	3.430700055043759	5.408718095475159	6.6821923087211275	8.568167664829858	7.468586425998368	4.61714504983575	2.893203728046925	7.046703320831831	9.252603507523212	6.987561208249217	1.2988525596250704	-0.4885070609633698	4.223152149982097	7.962731818122353	5.046403395309594	1.1378318042637865	2.4018084942259335	4.041290272999848	2.813319675972002	0.6184663160921786	2.5512528355081687	2.6672482423198005
500	1.150261876063153	2.464063638188017	0.18248751713455444	3.4934613616479977	5.504903302599258	4.832915770726528	5.0381674639339025	3.755314579065495	4.7461762308454265	8.536663987541234	6.921981794047113	7.529323558871145	3.260769358985366	5.951851352923459	6.847071153519692	9.051020599401788	7.579812507565694	4.8308462974651505	3.417791834785212	7.570059757193588	9.765158628604622	7.085395318262219	1.2363901107089814	-0.30143323464582983	4.774663913116031	8.372843721231208	5.025084959694472	1.0940721007380998	2.8691487239877853	4.332406033068074	2.9149138853865217	0.8044356087401745	2.8993084357494077	2.777355187079649
504	2.7267699172793862	2.9050795958605695	-0.820153770760274	3.979944934333319	6.157549842546943	5.592283711619366	5.824110493260623	4.358935345134883	5.093470083728359	9.14720532968873	7.735611419220679	8.120257357122833	3.4029250059042897	5.965905174451698	7.483627777278752	9.834583257640768	7.941725234007909	4.88906286912603	3.840257396539023	8.464806535330078	10.505119297207592	7.462679844134619	1.4285727703266111	0.020872911385646873	5.604994282876338	9.052248931918218	5.3754730088891725	1.2924224105629358	3.545559158910262	4.903858649270559	3.3896944437276106	1.2611651388751903	3.5691003709327354	3.2710685647393927
508	4.051931847832599	3.5271215349791514	-1.4391491376781431	4.652535903628232	7.014035207205814	6.539385302245742	6.676925642322071	4.930150973270338	5.565241799608783	9.995696996247666	8.708490349717277	8.880366302957649	3.915650119432171	5.328315721410577	8.33569143098077	10.698487254788233	8.548581101768958	4.798742759033021	3.867690791855503	9.388539290566236	11.27869030965881	8.124992350091835	1.9074934672833461	0.2610122554864847	6.380789740664957	9.818460439688309	6.100941642616623	1.7745095446607242	4.204392422551433	5.627235875227409	4.1947092904042504	1.8696286631110623	4.403400886862218	4.102024544849683
512	4.70075415378115	4.095126618536532	-1.4761315546914	5.192093836073352	7.7062163158403045	7.3260702901887536	7.3096246534810065	5.309512124961469	5.986455425406893	10.712552997245396	9.47234818928042	9.562687849696866	4.607213485529769	4.170391072234446	9.024048782453283	11.322660417580023	9.214613891225083	4.580138194918196	3.382511607213153	9.960046743041776	11.813515633320712	8.86320111897999	2.5185334618877744	0.2500144236928099	6.779036504796199	10.39588067291064	6.949444753267327	2.3824281632354354	4.595614421685763	6.2494993052054175	5.061761843299381	2.417089694596288	5.112555490937253	4.995059954429702
516	4.568537700562719	4.414438713372436	-0.934118030097023	5.3453998430715455	7.950882891608079	7.668943385789146	7.514204959971328	5.448409066749461	6.248400195558535	11.000386210324839	9.741935705384446	9.940690969164864	5.172127710635481	2.848515264948693	9.2492236857544	11.474118203757687	9.69839665825316	4.30066059934085	2.5149478848857187	9.955972646372375	11.919204681820963	9.38753602518791	3.0249073429030044	-0.04291963566434341	6.649205667874234	10.571693393719196	7.56607101437529	2.865493528760808	4.568945396331953	6.5295138194215445	5.64877699379485	2.7040650776302892	5.424056516304353	5.598479733637414
520	3.876561631905738	4.438740719078901	0.014880517460089034	5.084729658640563	7.7063803478223125	7.511874656785072	7.291315537163707	5.458186135816573	6.3441810447734985	10.801430674938482	9.487814879304848	9.955969785349433	5.3991350991309455	1.81903850572994	8.959353424340256	11.15994069142835	9.86595532787406	4.089975823566626	1.6001070697439925	9.442575430871702	11.61760231899601	9.517381644061741	3.257322303177419	-0.4816945779082888	6.107394679862293	10.331027004861488	7.7106218143338205	3.0420944613898846	4.166658390969457	6.381909831146748	5.739109024816783	2.6538579396955266	5.237229810843428	5.686964020675976
524	3.0179340763190474	4.292556751857648	1.1000388832929202	4.634171474200721	7.188436490029654	7.057543259921895	6.866782647915726	5.556076035776944	6.351689322647608	10.323223087950039	8.95962617519406	9.759604429399895	5.309010492272306	1.4633259736308966	8.378698327844843	10.637961360776007	9.77722451602533	4.101801385060207	1.0348603699305636	8.754193283867025	11.14703938530858	9.296351409329262	3.2085182585771266	-0.8158745745087183	5.496371255349071	9.876899694301507	7.397991638578946	2.907922975827756	3.622533312234598	5.933654293338055	5.361482606702816	2.3577933251933842	4.685363280864687	5.286173330312143
528	2.3360328615337247	4.191371430305256	2.0331878610776317	4.33969401217565	6.736667139211033	6.644298536691555	6.570548040967113	5.9282574503951375	6.378518088449012	9.905811284804685	8.536377885247035	9.611608480982044	5.129595743579777	1.935435767055633	7.874660472061753	10.26546094209978	9.633968328948052	4.427534092215105	1.1003186674947896	8.315758684143887	10.823980304092975	8.955018020908819	3.0164461059706316	-0.7955144027652313	5.215183244889569	9.511856055086435	6.8736352746989615	2.6234812670274694	3.2518565572653153	5.45221804195957	4.758128154185612	2.0245511480714833	4.062259186978889	4.64368532915717
532	1.972439284113087	4.3128714452572865	2.582396023906102	4.465055454425061	6.62089441535172	6.548569185889548	6.649399263759976	6.59468935255167	6.507997019549111	9.81865403557405	8.497899987700139	9.70577142172331	5.134369837195654	3.1065900247341287	7.746350268833459	10.279005024707187	9.62952420664482	5.019540297232885	1.8381915046058388	8.407818773022786	10.846864672931682	8.751916863279511	2.8598470615662013	-0.29329082295755565	5.506376729414385	9.454659438104377	6.44989536564307	2.4000217853986574	3.288429013532842	5.190897451646441	4.231068123625441	1.8654235554327754	3.659698715506853	4.073955048765766
536	1.851489420030944	4.68836449393084	2.6276848249849962	5.030524717981519	6.896041852706356	6.8258247203152775	7.12051485171237	7.359424572483692	6.767108423313863	10.104322407960717	8.852095581593478	10.03028199524482	5.449703679630713	4.62460087562259	8.054104784658016	10.637953731381495	9.80001161008401	5.679419503177934	3.0354385299339106	9.002262092749989	11.161430330706816	8.796759583198032	2.8401238846598207	0.6241061671712317	6.312372668541551	9.701842283549636	6.309703334136669	2.362390512224014	3.754590263424013	5.242156492349544	3.9643816847845996	1.9792249152757646	3.60910390896345	3.775262107854244
