time	FP1	FPZ	FP2	F7	F3	FZ	F4	F8	FT7	FC3	FCZ	FC4	FT8	T7	C3	CZ	C4	T8	TP7	CP3	CPZ	CP4	TP8	P7	P3	PZ	P4	P8	PO3	POZ	PO4	O1	OZ	O2
-200	-1.1640728682691894	0.08058888444819355	-1.0235978339101097	0.31734171429621655	0.09942696218421657	-0.8958725906641646	-0.9422265267425056	-0.22595255019837687	0.24980181392543288	0.44500318057241306	-0.40138468044984266	-1.1022891970460889	-1.1881436079545105	2.3382079542253766	0.7323358040439741	0.042077485365728445	-0.5083184229414729	0.20265428670739466	2.629340642012676	0.8637347199567307	-0.032845508224291615	0.02080778586081359	0.30771070641075776	2.0853054470819115	1.2252151935161262	-0.23034141899604238	-0.015010105408084153	0.18705017817478503	0.863980648720453	0.04396407295094444	0.06408798678429935	0.5381260500672962	0.12920971182148955	0.034327309491989026
-196	-2.378972047521505	-0.5539438114485637	-0.6834701282411396	-0.8103333095118749	-1.2138984172690634	-2.2512295189286187	-2.1769232694976934	-1.2103217809637015	-0.34721517475202807	-0.959560928306254	-1.7744734242460816	-2.2755446376569015	-1.9994817921701165	1.3910952771351	-0.5271787630122633	-1.2174106805582305	-1.609988327729909	-0.5366793261329605	2.2775993289664114	-0.06350469573200004	-1.0839389535239983	-1.00391423448776	-0.2164802992838765	1.9560794780936006	0.5632424936379165	-1.035276171931467	-0.7514788489442205	-0.2747196846224853	0.39357554813198864	-0.4838309871855792	-0.47790810345152485	0.27054974368452706	-0.38733377954919107	-0.47924032686353607
-192	-3.518252602277544	-1.2412046162739134	-0.3710024645498353	-1.825581903616862	-2.4844300684191896	-3.494108668088624	-3.1716606536897145	-2.0934722370698373	-0.8718238450927102	-2.313127750278688	-3.0613260191873986	-3.1967997470252922	-2.493323319815804	0.24537220535316626	-1.810453529555326	-2.4850432810030907	-2.554139130819485	-1.4442278110280526	1.4011917078881122	-1.1843688458104153	-2.2575821819527406	-2.0598406739681034	-0.8890038110222352	1.5413635930246297	-0.4049530913142464	-2.084606880646908	-1.6810235934731086	-0.8538668730158547	-0.3966426243304523	-1.3117735352775677	-1.3143914904787828	-0.2630347006832523	-1.216399308948235	-1.289328333460457
-188	-4.1951589478433	-1.7092270807981418	-0.29143595621915097	-2.411560052505146	-3.2535874761452224	-4.181218136721271	-3.5461926370733354	-2.6094336443822725	-1.1673642367453767	-3.168012611020092	-3.8317160509642747	-3.538898697501297	-2.502969735501898	-0.695007680091893	-2.7274591853898285	-3.351749888540819	-2.993027441097507	-2.254455560714297	0.28776785658661214	-2.1675498430839815	-3.19353937296431	-2.7975130010546345	-1.5224862060254767	0.9594365334129217	-1.3940867150395346	-3.0738468092558846	-2.507786267624747	-1.3851176465349575	-1.2702021566746395	-2.1962046567781144	-2.1827499811376456	-0.891928968561847	-2.0946247524783046	-2.140841478664719
-184	-4.128652085370833	-1.7675138667303887	-0.4973309623559628	-2.3918335377386666	-3.245098582657744	-4.064140786400408	-3.1483325878764195	-2.6517305307195747	-1.143794772121351	-3.242408744255111	-3.8267614744844742	-3.1714179435768015	-2.006151432694354	-1.1195278139459248	-2.9837760849959865	-3.527403345738938	-2.7555069853831013	-2.6532144479521564	-0.6573373658750201	-2.6878492764322166	-3.5817861466575427	-2.9722874089538256	-1.8951814126803368	0.40123292702462765	-2.0876691288691567	-3.67945741678143	-2.9509558603168866	-1.6798554616477497	-1.9386780213046493	-2.8421332764394154	-2.774165623336481	-1.3866596186914038	-2.715634100733405	-2.7284293105857436
-180	-3.2914087689269302	-1.3969600165383227	-0.8639503099563389	-1.8087491943469214	-2.5041069921213412	-3.211146346567928	-2.140281195005245	-2.278983110396023	-0.8178071955060361	-2.5494117672449947	-3.077257148602743	-2.224354499922985	-1.1451009483036612	-0.9535862183336982	-2.5080008443453967	-2.9656875058637993	-1.9237620781965565	-2.4162735878020833	-1.102032539446334	-2.56495975800469	-3.289945117273521	-2.5397272045863404	-1.8289539767818712	0.03553751474587249	-2.2701582851314384	-3.6890680696807494	-2.8508331703688663	-1.5923749168246715	-2.1849777643351462	-3.023103706356655	-2.857478372988808	-1.5619687994621696	-2.8563735412960405	-2.819303028618028
-176	-1.9530968616765705	-0.7559750061022108	-1.1626862258166357	-0.9122753716324256	-1.3870439494399451	-1.983807677982395	-0.9379589533966518	-1.6597111183224496	-0.3139783136070002	-1.3996442521043606	-1.899350876781138	-1.0417017910406101	-0.18582832766345797	-0.38065504931664834	-1.4947166405133125	-1.8944233608099974	-0.8041018823349196	-1.53815209477224	-0.9447266435612972	-1.8529025269457111	-2.4298744140311723	-1.6743540721581605	-1.2750823465579482	-0.07743284086704665	-1.9251477669747963	-3.1004667203825234	-2.2365825119770735	-1.0899958583014917	-1.9645279596320238	-2.684683077709742	-2.3841586052781856	-1.368854757667631	-2.478332513274062	-2.3592884480991554
-172	-0.5823230728705959	-0.10465536985200442	-1.1961282461484626	-0.05822756499252162	-0.40142574804998926	-0.8760703779990113	-0.024120191051263055	-0.9950307582528645	0.1728660161899133	-0.27119669249728573	-0.7634274940289517	-0.040569588439556194	0.5771561846466415	0.26116034322605525	-0.3358354560002415	-0.729723749702577	0.19901013324083386	-0.27026760509919506	-0.3594464352592483	-0.8307954051976703	-1.324023005003721	-0.6994849425775371	-0.3611372104110006	-0.015453816352510518	-1.246901270579294	-2.1347887462123496	-1.3215085234655748	-0.28865244911749033	-1.4281343185607502	-1.975448007364463	-1.5196192226190188	-0.9231212711869515	-1.7495754913026562	-1.5066834650146546
-168	0.35621708541579333	0.31185948769987415	-0.9167324281435419	0.44048079737078777	0.027018435231181522	-0.2950413815678668	0.2712712281053892	-0.4523101437593023	0.444914369651922	0.394804297880931	-0.09541541313876843	0.4592566180555001	0.93337720396898	0.6493944509323055	0.5348199592438867	0.09225599444461964	0.7491576652685928	0.9661784743710892	0.29406768009327433	0.10775271030877637	-0.37860789799468375	0.044294956959708726	0.6379099472152684	0.05184489848041136	-0.554201363117988	-1.1486902207936835	-0.42017114056362054	0.5754362926259899	-0.8498497583867147	-1.183672901979775	-0.5783564433754532	-0.4511273491913657	-0.9711787080086723	-0.5700702056796991
-164	0.6053290351843376	0.3608416011759834	-0.45735898498457705	0.43842649349146817	-0.2600774758448323	-0.39600080151713135	-0.09231842285928366	-0.13190817799643165	0.37317898775295827	0.3740631928536464	-0.10688430043891384	0.3531681290292957	0.8322581627814101	0.6230115874773399	0.8130924681162063	0.28825825380026354	0.7053808552098988	1.7581052735763476	0.6476040466170627	0.6159679874127258	0.0796553565040783	0.3321176758964078	1.4010127747449483	-0.039929062027255824	-0.14741368554567053	-0.4845490443393754	0.17691807404196463	1.2325404851312374	-0.49558153623389956	-0.6087189897427343	0.1093831953624906	-0.17839160516522035	-0.44210904725032857	0.12285067110039248
-160	0.21825319473476076	0.06291990711300453	-0.05379626513846376	0.0043300492579690245	-1.0986863346970919	-1.0399000618428884	-0.8722539522083235	-0.05866817742675006	-0.05142905550131485	-0.26200109654081183	-0.7225173097488478	-0.22754074575672975	0.3892342140384115	0.23257890284945548	0.4403118778079208	-0.16439466136911543	0.16162362653934254	1.8826317739638527	0.4995709645056113	0.5356855974977741	-0.06499843282978358	0.13532736863301692	1.6925021367256832	-0.3546099951850944	-0.17498622790502688	-0.32505810178703426	0.3179255417903175	1.4886866770351896	-0.4963750826701132	-0.42723047625441557	0.33774971876701493	-0.21702369992776058	-0.3256945899846613	0.3646049788329552
-156	-0.48714655514748406	-0.43661263474856543	0.0916784403393655	-0.6278907640816899	-2.0970570988161574	-1.883975739490855	-1.6807774262908077	-0.1890724594587799	-0.7084047180410094	-1.1987018554940765	-1.632750626256424	-0.9945926045102268	-0.17989204778552417	-0.32059076347472004	-0.38623994491335717	-1.0313334438988189	-0.6130309089441891	1.4009824955854788	-0.09853612606681392	-0.045544609312463	-0.6773431284015673	-0.3830053200588529	1.4614502154645508	-0.8157977441217967	-0.5749987945344431	-0.6217889770067939	0.04321433592853009	1.305741783660106	-0.7925755957620005	-0.620403467042488	0.1069029343409397	-0.5139082657236855	-0.5831728562890132	0.1502385582707009
-152	-1.0988143654737463	-0.9402928924662292	-0.0741932092223939	-1.1736828059127733	-2.822764151122107	-2.548247092489024	-2.174259657138696	-0.42812815200478893	-1.3836624587410853	-2.0264577814437446	-2.4364993510719413	-1.6333216387519307	-0.6601628048441744	-0.8054075220754282	-1.305696484130191	-1.9268138360013516	-1.295878407067577	0.6178275331157336	-0.87822931783197	-0.8427347519578401	-1.435877319525393	-0.9478488540560389	0.860069213126233	-1.2419881789321523	-1.1146026821605692	-1.1274425954963765	-0.4418961096574061	0.8131508210632941	-1.1728509634923883	-0.9937846039476916	-0.38810008666281115	-0.8826190806993048	-1.0022489999262296	-0.3319953671656375
-148	-1.3205341067352467	-1.2775546280077	-0.4323054839186807	-1.4223116600366328	-2.988396160210152	-2.7745032240436367	-2.195581907451073	-0.6573935730549014	-1.8448955966146694	-2.413740390405525	-2.806806080407392	-1.924278135209719	-0.9258012152185764	-1.0696227523501214	-1.9466344068970491	-2.474477284859723	-1.6385511118527412	-0.07741977999929321	-1.489467497879776	-1.5047347507632878	-1.9752564380366386	-1.292675372674724	0.16600489574481836	-1.4403771125667055	-1.5092579088252933	-1.5199090204011851	-0.8660106041024433	0.2410635495060047	-1.3908997739007303	-1.2837916580212498	-0.8590357877977264	-1.1064780922610378	-1.3101476397814895	-0.7997235635593528
-144	-1.1091091604840704	-1.3562194074721765	-0.7677680830644711	-1.3119238581913117	-2.5488610203286606	-2.5067703660617604	-1.8064547731567304	-0.7749503831371273	-1.9264411877631566	-2.2257084790302843	-2.6060993605619553	-1.8058164074127978	-0.9714704727441112	-1.0803238126182086	-2.0700972027965783	-2.4511344370945616	-1.5469970664067079	-0.398746251053199	-1.6612275796909963	-1.763525481539958	-2.0390603490846555	-1.264884826327652	-0.34785777242572913	-1.3059499230791363	-1.557986732364069	-1.553914185415428	-1.0126229499046155	-0.18821783316298688	-1.2949660983769482	-1.2918902602957247	-1.0622116300467501	-1.0540372106643123	-1.3098865714380326	-1.0117545102324306
-140	-0.6678053123779796	-1.1724266976319482	-0.8965503550781942	-0.9271430349783722	-1.6800962644120343	-1.8724957657268093	-1.2146161763996366	-0.7387807946626204	-1.592131253037445	-1.5462125500741548	-1.9118118237864203	-1.364476319682775	-0.8786083437671398	-0.8934730864854998	-1.6448016125159763	-1.8572123003799594	-1.090487000573201	-0.2832664244175725	-1.3125383820773946	-1.5343804320696652	-1.5755704601562832	-0.8735350348352465	-0.5300147520035162	-0.8717104174539889	-1.2270966737283557	-1.1653898924968213	-0.8066796044010129	-0.3546346417056468	-0.8993755556287701	-0.9753409003428293	-0.9021362043492172	-0.74177938512441	-0.9683579182017987	-0.8703750946004573
-136	-0.31355532924641955	-0.7941448072410403	-0.7665058951098942	-0.4357412446464717	-0.674026845183927	-1.0983335944102017	-0.6532629711823956	-0.5915840849245456	-0.9488385295753908	-0.6137878283262808	-0.9613709425495783	-0.776841400092497	-0.7470491509649869	-0.5884540662213581	-0.8352041819466405	-0.8980182982660164	-0.45321509127631987	0.10988872470529613	-0.5711252078895599	-0.9307237243995686	-0.7437182050047688	-0.269914209161214	-0.4001693119436186	-0.28657355832226294	-0.6487929804633956	-0.48580995079409295	-0.33399096047000154	-0.27739933063088706	-0.36655843165356944	-0.45567902807582417	-0.4588025796750699	-0.31627246657629043	-0.41968503488438214	-0.449213533459427
-132	-0.29299831316405894	-0.330669312834345	-0.46565481902811573	-0.0017252261706842292	0.19108790110980406	-0.40657046334614316	-0.28015586663085496	-0.4417187262350024	-0.20244374820141833	0.28984084652202163	-0.04571577150008399	-0.23311591089520356	-0.6336852296088998	-0.21610240583695461	0.08418270179236863	0.11287561030499756	0.14676777981419276	0.5125306235724701	0.2997433833660692	-0.19306044231785946	0.17131307677885607	0.32911169445868466	-0.11090748729122499	0.2641115479953681	-0.04037741188941464	0.2385558181938623	0.21491968577482382	-0.07948146740396574	0.08878564812178505	0.05806165918949849	0.07164759170801178	0.03230501330683299	0.11603233933955764	0.0634149460383561
-128	-0.6436964257200987	0.10047115360165851	-0.14512808584288397	0.2825599603671558	0.7436877470313655	0.06028712525643908	-0.13992588186698937	-0.4010809649831565	0.4246093024023908	0.9442948675156344	0.5990288242474853	0.12656955389015176	-0.528383134461554	0.20617075212400776	0.8427805879295566	0.8814486838974502	0.5380988703493472	0.7050585132917673	1.0222636435448258	0.4262908686365486	0.8881604053007929	0.7377948742358799	0.15278483888675445	0.649930356292128	0.40743610160003063	0.775414286086243	0.6445721967635724	0.09780088787420457	0.31812295237331517	0.3870635916951064	0.4873988616081813	0.17656777754550407	0.4530388403421641	0.47113084674141714
-124	-1.1721657484977803	0.4026100029317191	0.084078341510211	0.4165513802978725	0.9469996666840679	0.26568102769530877	-0.18855562758523736	-0.5129392134113738	0.7777483443651095	1.249863382998573	0.8632292725703115	0.24563565788240832	-0.37622886801144767	0.6584144814080368	1.267742392200259	1.23956525012815	0.6479257924887479	0.6283697470058957	1.4114638531334789	0.7674451450998934	1.2443615166718267	0.8743384458401455	0.274400889180709	0.8466290810190528	0.6144359096272873	1.0162904236883858	0.8461697676275732	0.17652523473040305	0.315004794994408	0.476584880340852	0.6817009431793832	0.11831585287978232	0.5342118726594234	0.6668827516884753
-120	-1.5563783606335106	0.5236343728196434	0.216042354157495	0.46193489315707553	0.8699371792763981	0.26306217842442436	-0.3456901899192999	-0.7149496060440469	0.8178949931475685	1.2300987212595336	0.7820029835030797	0.15299369356152012	-0.12682844666408002	1.0790777179176805	1.3244245018899141	1.1920626133385979	0.5135361539272922	0.3962113549242688	1.4239815437604442	0.8115218261256955	1.2484251229237742	0.7825931886941556	0.2547065609223269	0.9215247011760288	0.6283316596379803	1.0152929995652327	0.8388998487273184	0.17544348493626682	0.20911708421362252	0.4177735139312615	0.6845179182890008	-0.02027564676947332	0.45197677498191524	0.6739382130773697
-116	-1.513836976043957	0.4700294125133936	0.33150371825444896	0.49015611286388466	0.6336674078201571	0.15752209683225252	-0.5353325591876609	-0.867062447266139	0.6126036032468731	0.9925428603862211	0.5023637401295111	-0.058641090841058334	0.22241203430765763	1.3591250146883511	1.0981625290801282	0.891784844531144	0.2556538277370282	0.2081930185068415	1.1394839258034997	0.659799454930541	1.0513924333730162	0.5977880343603287	0.18879276466387754	0.9667098497779202	0.5743470773501145	0.9423956251193065	0.7453061323422209	0.18168196036244888	0.18486607028063354	0.3884709467616673	0.6290618165346353	-0.07231333833556908	0.38820612332559884	0.6154490693766215
-112	-0.9421286559160316	0.30732834261548897	0.5130782710472838	0.5401358590794033	0.36552730110388093	0.06527847780197311	-0.6976272446185128	-0.8322865941968961	0.2844011776419414	0.6750918609740847	0.21794949416923573	-0.2692817740794215	0.6143017395722367	1.3810216153563342	0.7376184444877901	0.5592860565370046	0.023944223239169185	0.22152619007924232	0.698031483318359	0.4642192113600026	0.8579219558036209	0.47457542895661264	0.19246466409251123	1.0244108412627935	0.5721477255681001	0.9810866092707361	0.716975925542715	0.28251311111648064	0.3727070381768183	0.5484130368691743	0.6667985303256203	0.07641436140317977	0.5087985383539264	0.6350147112072583
-108	0.03200460962321377	0.13887134159312442	0.761395214065821	0.6038712843907463	0.17065279142686254	0.07934226075644427	-0.7814711908637364	-0.5654425010710217	-0.05208417387567745	0.39855557579504397	0.09438344812405516	-0.374182759770764	0.9533961987266341	1.0824539634078136	0.38773986599302057	0.38269591234860506	-0.0658238901026133	0.4549886572794562	0.23169854224834566	0.34637564333248627	0.8211557844410632	0.5102732168665912	0.32495519436808934	1.0519872877263727	0.6665186269144617	1.22457575488859	0.8492006638067495	0.5000855910073028	0.7723980526496443	0.9450933909396743	0.8776482917561664	0.4222810555763752	0.8685228206640937	0.8123595694058984
-104	1.1205439539274902	0.06521695835813963	0.9789194439968193	0.6445814950881338	0.12280443279732471	0.24924607512011143	-0.7360690813554104	-0.1489814814144005	-0.3280143729511402	0.24167253016013734	0.21486854498973562	-0.3161711088781058	1.1477858991254346	0.505564747964447	0.14353544973850657	0.44387581832397766	0.024474257541496135	0.7778219561012213	-0.17708650186651345	0.3462935081321932	0.9738821958749241	0.7012072187839737	0.5515593872449891	0.949102756965013	0.8083729127501618	1.625276084611172	1.1296602459042908	0.7682948093090214	1.2493916718410116	1.4809091053766645	1.2237932651139545	0.8459455349544943	1.3766177857928679	1.1192455263489813
-100	2.0175020643795634	0.13717159594235603	1.032443043963156	0.6286130531652545	0.25793689424241817	0.5713397846102095	-0.5193615542650626	0.2504453950757703	-0.5211193548396956	0.23357565642035658	0.5591642246433913	-0.10031342481081987	1.147946474038054	-0.20547117241004528	0.03381106621431216	0.6962487680022726	0.24489380357424562	0.983219442269349	-0.5009857999550726	0.4180071343358688	1.222208377613378	0.9477907395275296	0.7624046187225438	0.6272528155702696	0.8886683560822863	2.0176658579429927	1.4430577718540658	0.9629144644267849	1.601108427773691	1.95566641790635	1.5668643673437914	1.1747767895602188	1.8372745467529292	1.4334909879731903
-96	2.531411641405431	0.3280099920097603	0.8524674155647066	0.5524499402403298	0.5675260410285298	0.9945107077285122	-0.11718156159140924	0.4848901617205637	-0.6300019605943039	0.3601201763597659	1.0241596672903441	0.21776753609035707	0.9653292273944736	-0.8583598115230353	0.034072171810672125	1.0026960347609164	0.4879112827380216	0.9046694613504201	-0.7452902775067507	0.4689282465062708	1.403019782338758	1.1064032288273888	0.8342631438173025	0.0801913661720289	0.8045060018254765	2.2022902909943167	1.628776426971414	0.9679582094549442	1.6590062337951155	2.1641573851305105	1.7390460924110884	1.272237178451423	2.0456392713397737	1.6024905402732532
-92	2.642781250957013	0.5402706847855449	0.501033722089351	0.4465806770970558	0.9942783688237644	1.4382353984760434	0.43869066127644574	0.5209083543977234	-0.6481493099060913	0.5747957811148507	1.4720011912374726	0.5617546424987896	0.6641726477066702	-1.290527459701021	0.09265904105157324	1.2085369794850533	0.6431221349691377	0.507880626826703	-0.921566305217977	0.4147233952541936	1.369886394856799	1.05890643329301	0.6944926363576891	-0.590246675908452	0.5164542781188383	2.042491192429265	1.5570229252604844	0.73631781153743	1.369749423383451	1.9945522496410586	1.6254652697532115	1.103001234130778	1.8863648128567103	1.5173218211965964
-88	2.465468400452537	0.6493315084275816	0.15564839502614636	0.35625374227223766	1.440398808657349	1.8196799709153932	1.0704777213726209	0.4628944087262472	-0.5591741190143991	0.8116453865540029	1.7861659481728596	0.8697767831777125	0.33665931139824695	-1.430488702023434	0.15595385392868785	1.2152035205677703	0.651278672958188	-0.08732039459355163	-1.0343258354775675	0.22173193041132633	1.0663462850350904	0.7681672553695241	0.3543883255117344	-1.2113050191814339	0.06908843648871925	1.52848589034413	1.1880280941532273	0.31293991129066745	0.8162886479749274	1.480275627213591	1.2182762592074734	0.7419420461995914	1.387616511656212	1.1623697251536775
-84	2.1448054259508536	0.568658350462469	0.012663331782138439	0.3147452167670665	1.7945249035350561	2.082410568701769	1.6765825706113964	0.48574605461505505	-0.35745903759352016	1.001963851306344	1.9141242455792882	1.118068573036218	0.07410978507166077	-1.3111149039544625	0.18602210236313352	1.023084041873443	0.5324107395081481	-0.6668411476465271	-1.0817887755737996	-0.0784873811409116	0.5558243379864795	0.29645326658741916	-0.1011232507655967	-1.6180069405712973	-0.42827445160502076	0.7848376015875063	0.5907312616692525	-0.18911920440132698	0.17660127535578327	0.7857210616301367	0.620898304802164	0.33052810943122857	0.709566531774038	0.6218745096718307
-80	1.76431965382494	0.2998237900316682	0.16156983334756855	0.3229320935202309	1.9670574615406153	2.2096366826536253	2.161359781530396	0.7127448898440163	-0.0783193183948111	1.0896677943374764	1.8744033527733848	1.3163835969114364	-0.06148628502461549	-1.0372930738962844	0.16536097186777438	0.7211335283192359	0.3683175435303842	-1.031790611523092	-1.065785882166327	-0.4077649106221039	-0.007218090333447055	-0.2241183811728182	-0.5583009705752888	-1.7311782793206012	-0.8486362674267963	0.018712308210574187	-0.08747194685309102	-0.6451939328116547	-0.3569250097800033	0.13327565755573847	0.0014641624838400138	0.005367775434114315	0.07310321908613829	0.04193269823335397
-76	1.318716522702055	-0.058575577886034985	0.5190285431155433	0.35259675890592135	1.9221695613014684	2.2191960755585676	2.4589545664693486	1.123219129587545	0.1969569618497621	1.0467082235612342	1.731085534493565	1.482533689570561	-0.051411725450890164	-0.7263844590921115	0.0967816559016993	0.43531831989053565	0.2527515881832747	-1.0872408124176396	-0.9961467956188212	-0.6759446842293778	-0.4451310027328112	-0.6488116963218078	-0.9188839770005671	-1.587582107350383	-1.0935288640069882	-0.5603491649785344	-0.678306935505152	-0.9684758757935115	-0.6522343142254591	-0.28718620466204003	-0.47439804553420895	-0.158747136192067	-0.33124658381753713	-0.4262695599760952
-72	0.7698394040698311	-0.35105332643568177	0.8711720086990922	0.3702017357539444	1.6905293421978882	2.1448960250106834	2.541850083609301	1.5539221724378076	0.37448590899332623	0.8845195747931699	1.5541712006430506	1.6156377751567466	0.0809759123069042	-0.45714551094985295	0.003784107034785228	0.2672207944799039	0.2402586781873123	-0.8739244915832256	-0.8847444035126951	-0.8116552809250106	-0.6285002215729795	-0.8746405221791046	-1.126440164583075	-1.3068643775369715	-1.1178472013860812	-0.811583218909659	-1.048563954566986	-1.1303710908960873	-0.6731641871622708	-0.38344487451063924	-0.6988689881799834	-0.1641027327209038	-0.41103249684508575	-0.674745736802748
-68	0.14539216422089463	-0.4361835707142331	1.0003181670682504	0.3656390598125526	1.3568705286100589	2.016942495975825	2.4174289642334927	1.7993106796612788	0.4034911979978537	0.6557657106055507	1.3885022366753381	1.687842603236776	0.2840760939101572	-0.2503029995797614	-0.07007773947904224	0.25426500971494564	0.32286530651592865	-0.5266011940058479	-0.735721765091181	-0.7780325989153257	-0.519818185447534	-0.8676864482907171	-1.1656540602817989	-1.0186732981712001	-0.9300015545252933	-0.7000969630685457	-1.1330531806949187	-1.1450872392353975	-0.46942216039395507	-0.17775231554929594	-0.6457433088211625	-0.06500175578872143	-0.19159232031610346	-0.6627959592297687
-64	-0.39732387561619265	-0.25072401698706936	0.822841642209634	0.36815032269988907	1.0299712393505613	1.855787630164135	2.1238942092678097	1.7489482120226236	0.3219664684749851	0.444618402789037	1.2490489451344184	1.6648653703617435	0.5029469715771658	-0.08037793616028543	-0.06507163478396355	0.3710721125770795	0.4492556441408545	-0.19080464493738536	-0.5402594791123553	-0.5705398306746987	-0.17217721001546676	-0.654248116748756	-1.0432553264981135	-0.792707739259134	-0.5743731245798155	-0.2912492148675412	-0.9365387535291743	-1.034443495046057	-0.1350763883756626	0.224425494104248	-0.359643369005089	0.07813595215620316	0.21454954093170314	-0.4136458624886646
-60	-0.6010230168427007	0.1641759272245032	0.44699281341231467	0.4348557580459241	0.8063567856457244	1.6791754918618689	1.7287614301903507	1.4674222432280983	0.2553366714229791	0.34346038016388225	1.138112184512102	1.5410675963594225	0.7029135805502955	0.09379577613037593	0.08045217374516575	0.5629708156677161	0.5704556093118438	0.05157895745725619	-0.2859033338957782	-0.20751282520354325	0.3073683969366769	-0.2903188757719134	-0.7742536644461069	-0.6133285745394459	-0.11245298357228468	0.2843186252091359	-0.5156523572300549	-0.8050403574645388	0.2346986377274121	0.688382921865058	0.07375567387794421	0.2326266610709612	0.6645843369870944	0.004489488422711638
-56	-0.23367908537994195	0.6832631809150019	0.11434398562649321	0.6136329158549007	0.7405821662324742	1.5127327403976358	1.3235856261214634	1.1591948241530874	0.35453471451893315	0.41949623717253276	1.0661263438964246	1.3610303367584309	0.8787041880356966	0.298000632964204	0.4027700712048593	0.7844460586769653	0.6776344759044939	0.2118912631883994	0.019689831833003178	0.27335911920195494	0.8041776994428825	0.16546723204797942	-0.38311177395415297	-0.413324176221624	0.38568845293896525	0.873481569469018	0.041727073385268924	-0.45410048846990053	0.5659932479873557	1.0954096289634825	0.5546512589756167	0.39476221700182584	1.0358554098679318	0.4970668839779522
-52	0.7550262789737162	1.1496144504132373	0.05182568343310041	0.9000349618122554	0.829932925989948	1.389401670762728	1.0045613025098081	1.0334789726867368	0.7024500352290476	0.6814824325521883	1.0549265119621158	1.2054827182851842	1.042406079521498	0.5252431617827141	0.881604788461723	1.0150868867041198	0.8026498535872124	0.3630816331279542	0.3289169362823728	0.8096614459576629	1.2277723519798236	0.6581675393653558	0.08397476353901408	-0.1413915302759934	0.8420469739635132	1.3359657492286343	0.6298718436550877	0.0011642919823934112	0.805302677505533	1.3621293271960249	0.9830381845450447	0.5627525434590998	1.2500183550745978	0.9556786989879
-48	2.1437759345288923	1.4352520668032778	0.3258341840623728	1.2186934917198475	1.0201019022935698	1.336235281431628	0.8421531894402349	1.1566021413211933	1.2452937333137604	1.0655857297696767	1.1207438679055621	1.1472507686259923	1.19969129259485	0.7397103290955457	1.426484461997533	1.2479388682329242	0.9824680065145629	0.575145004727708	0.5596504197295966	1.3126344647645298	1.5225497445766467	1.1276514501711423	0.5524837956784767	0.18669162643504392	1.1774574488475793	1.5714302023313482	1.1366648645313202	0.49688467257933383	0.9126669145429666	1.4409544431545422	1.267363425869734	0.7088510972246053	1.274624106050072	1.2724522320092297
-44	3.484255305076392	1.480034109193571	0.7884004096153153	1.4435615503104355	1.2255505292467859	1.3531638349701254	0.849235711337789	1.3913705313839777	1.7936633780016478	1.4484596215871317	1.2472012011510465	1.2008023231706582	1.3262851204765251	0.8908804036536058	1.8923987102413786	1.4618543349551076	1.21051430396584	0.8593014456988196	0.6281856282586493	1.6781606631824852	1.6613389211671556	1.498752947838022	0.9294127798456885	0.4850401568087623	1.329033252221601	1.5376793107310753	1.4587519132023814	0.922102925833535	0.8622511007473722	1.3140331473552977	1.3354819979328585	0.7739112953673813	1.112668988279648	1.3603221143709978
-40	4.275546539956015	1.2973828282979096	1.1489174336989938	1.4525767528099522	1.3583445514716328	1.4012451136496962	0.9687101220468873	1.4748189412074704	2.104046577863452	1.6885399775788874	1.3733035291331448	1.3014687266869467	1.3622251714645817	0.9307185387954863	2.126473659868597	1.6051503379349947	1.4134141171056056	1.1502541274593518	0.49556228393368573	1.8150155498456269	1.636769648234192	1.6891070561678487	1.1291666002375074	0.6437327249486752	1.2737486330298213	1.260535117781505	1.5251693687079113	1.1518803805832978	0.6539784057318283	0.9929471586907118	1.1527248591883434	0.6906416398731188	0.7933337072369846	1.178702351455215
-36	4.1914276970897815	0.9580909585605145	1.1392569513167679	1.1938832968133102	1.3599432672497618	1.4169253075111694	1.0983334752009126	1.1971400945956148	2.00704192608505	1.684258814374059	1.4148765766661224	1.3372764553639358	1.2379378049113117	0.8335672595913068	2.0327553697762335	1.611574168904799	1.4799823723620364	1.338025328119003	0.2042105639785509	1.6856858687756686	1.4636250697376243	1.6427386957655083	1.108239051881836	0.5983718618544296	1.0487146351085976	0.8341988304057523	1.3271402087083142	1.104743477893164	0.33208376085361624	0.5299709425897169	0.7459232192280225	0.43018111477960447	0.37463959956949155	0.7597143034827541
-32	3.239882937834486	0.5637223110271469	0.6747856719146466	0.7249692064101377	1.2227143018369544	1.3466080393171216	1.1438837022511315	0.5650922045745611	1.5095314941441216	1.420970317113994	1.3107106652546165	1.217699643875372	0.9200072861331681	0.6120874866290661	1.6228911835704403	1.4415644370876335	1.3288947310274928	1.3281215395774184	-0.12219466238165079	1.3368468250854795	1.1877347200923836	1.3704011405677796	0.8870159365193502	0.37777906560885216	0.7508264165041563	0.40241265195336606	0.9353656149136669	0.7909298519192624	-0.008958369470866789	0.02624107331862868	0.21563850288783898	0.04142693792255051	-0.05232357220552309	0.21608120148462928
-28	1.7666265919905022	0.21821579282025866	-0.08697945602629718	0.19633926401635307	0.989941594485501	1.1804745167492026	1.0711202594416773	-0.163842260423893	0.8032902458890624	0.9800247525267435	1.0650529834560192	0.9368940568157833	0.44667249805210046	0.3172933749294258	1.0206216547946991	1.1198290558198591	0.9707170104314078	1.0861585112805405	-0.3283093265350665	0.8940839148836158	0.8852218963207852	0.9645639633621345	0.5413193689030754	0.09386742836379564	0.5048923479684334	0.11417723418257446	0.4848858403838284	0.3173004082774915	-0.24873326656008107	-0.38414013288786647	-0.28388842868655567	-0.35115063101803196	-0.3762800385988581	-0.28656542228827164
-24	0.29108911679207866	0.004953589743535153	-0.817710755191033	-0.21472698395875148	0.7344959359698253	0.9632100438594797	0.9240106320893997	-0.6119676812933701	0.1726880814245468	0.5038219081556148	0.7559486608492867	0.588679729405908	-0.06867904943769368	0.024641195249929335	0.41440483823099583	0.7399837952050847	0.521270094985952	0.6499110443872695	-0.3017449669372181	0.5173903690626724	0.6429632289865677	0.5712518677593879	0.17241731242517702	-0.11716373980266641	0.4134954501679537	0.06750532967690125	0.127458348548476	-0.1533676083984133	-0.2864832572856562	-0.5753284678238635	-0.59557586757972	-0.5933834895411269	-0.4980844246686662	-0.5867652878252007
-20	-0.7422590833043512	-0.03341408810523944	-1.1859024733166141	-0.3879719068745453	0.5241869674799609	0.7713127712803141	0.7961689213678574	-0.5072543608256291	-0.1528614457562586	0.13176749613395572	0.4986985611245589	0.32006722607865723	-0.47477319716747807	-0.19169461678744096	-0.022020421866610657	0.4265480030734604	0.15199652275810663	0.10963110598064672	-0.03615261605195004	0.3345061234134946	0.524655400382068	0.3275366119221493	-0.12977904048578545	-0.16679732459394528	0.5125294910842223	0.2667504840314911	-0.029065124617150297	-0.47025787711624084	-0.0859321130132707	-0.48028856394623193	-0.6198352559652788	-0.5711365327720387	-0.3707171669183382	-0.5894491657633708
-16	-1.1557757825281136	0.08790804423548913	-1.0368500921774322	-0.3181926898075263	0.3865416636244484	0.6645585877806164	0.7663725595198683	0.13140214946472736	-0.12413402615439185	-0.06417688711175738	0.3789458265273846	0.24443969068800964	-0.6477418525554355	-0.29258066341917227	-0.20584869332793826	0.26904547146580604	-0.001057098384140313	-0.42987128983684425	0.35102438838071637	0.38098060988558957	0.536559759215843	0.29357576296118504	-0.3130753628455775	-0.05973526820359884	0.752685485370007	0.6147606357312038	0.03297225750108647	-0.5565614686265556	0.30181518120858625	-0.12716509369692147	-0.3584752371797301	-0.2716020040807351	-0.02892990030494784	-0.3065598301300178
-12	-1.0721485587707462	0.2924400262601798	-0.47939112661443706	-0.11144835473771252	0.2959813468136015	0.6443864686909211	0.8401059487113033	0.9740454529965517	0.10558063510225853	-0.10557860854434128	0.39937034148474404	0.37034308816867234	-0.5452831373752761	-0.29244330451563416	-0.1734480555446755	0.27234911849878596	0.08857095219184614	-0.8754014350723861	0.6677479131052058	0.5851849898822606	0.6210576280172463	0.42369604003744804	-0.36382418779069126	0.11872498661106823	1.0239070628064237	0.9555333232596599	0.23992079435809488	-0.4296300400377249	0.7583807091639165	0.3682718565702792	0.08755305387326437	0.20522963948886402	0.41831743611578603	0.15114766321168108
-8	-0.7835776786094251	0.46356132509495523	0.16697497623724983	0.0781447885447688	0.19147814761932447	0.647641657147821	0.936088440439033	1.5468653401420869	0.27599751879627626	-0.08239156732022912	0.47505539535745467	0.5906565770495374	-0.2223467523206322	-0.24952311750832798	-0.046598270417819734	0.35526117592762146	0.32511302746705606	-1.1508278817685111	0.741257069623562	0.808509049758485	0.6863960606411316	0.5952069148294918	-0.2912440590657811	0.2636024647256268	1.2109551399174856	1.1495891780439165	0.4711071836975011	-0.17533157721598358	1.1523220509999683	0.8539339878457024	0.5663064703948596	0.6927610022220465	0.8338492491650272	0.6271097048185251
-4	-0.544225631770341	0.49154040093297574	0.5316908346103685	0.13485625352190167	0.017300574065278494	0.583873806909802	0.9306011772502198	1.494079705280851	0.18134650542249992	-0.09119635052305869	0.48503878590193594	0.7411254625682302	0.1978980297814224	-0.22879239859036926	0.04460908088746254	0.4021813263275768	0.54794734578072	-1.1953452795366697	0.5096055852421476	0.9213808751685489	0.6599354131249304	0.6794471127521818	-0.11305282236404797	0.3199384204416228	1.2515472142092265	1.1438585490910997	0.6233428104875205	0.10287907693637652	1.3982803786260536	1.2110482423723898	0.9436606740968254	1.0369987461611267	1.1146191330424857	0.9893972252661418
0	-0.42009514464172376	0.32955831206085906	0.37752467298559306	0.041238736257147385	-0.2359690362217861	0.3954324712306329	0.7343898993070376	0.7804154733981401	-0.1941737080678411	-0.17376382605073706	0.3508040598118604	0.6936109644543976	0.5799515232702602	-0.2533358627122103	0.038501433930941874	0.3380767098474271	0.6236178263178198	-0.9731661652790451	0.0630147902566668	0.8746947624057132	0.5351325260002996	0.6132939442409188	0.1433707174019245	0.3177278331840967	1.1674523324101322	0.9981152390075586	0.6594456417600476	0.327266275056453	1.4906479082619275	1.405264493255332	1.156739470422409	1.168281194598286	1.2377219168884803	1.1819441288670742
4	-0.286872684231313	0.02924635253913232	-0.28711163925161426	-0.12202321707196784	-0.5156036602353963	0.10206259761314343	0.35412013441324464	-0.2872883074182825	-0.6525148136830639	-0.2938538484306825	0.09120810008863038	0.42556166541420754	0.8248980620538378	-0.2780424647463898	-0.027302537044495836	0.17727303460186708	0.5128424750731476	-0.5040951358465754	-0.39082479378254936	0.7252119165230504	0.3796561648797019	0.4259308565830142	0.427137135380933	0.3514619758792301	1.0508313152485174	0.8491502978820415	0.6123698338306542	0.4597659695461422	1.4937430582480093	1.48907434564383	1.2241291968910604	1.1267014713451105	1.2622222868522575	1.230577465765161
8	0.03065475068697416	-0.27022543481312294	-1.2210910289452397	-0.23518174827325808	-0.7274428587667159	-0.19865637967498503	-0.10011888270134475	-1.2334725825638817	-0.8872831441412036	-0.3651877930480975	-0.18126194133293835	0.02542083517749394	0.888002274178603	-0.20735110290151473	-0.04756338509829588	0.014939536302815984	0.2738947265385543	0.1039548811672114	-0.62248718581393	0.6000714286912641	0.29673632904474284	0.20628932066332786	0.6544226987528624	0.51699507105952	1.012918112104798	0.8308830240252689	0.5471862540735046	0.4882830667088694	1.4958041868591385	1.555326338655881	1.213409063136693	1.027774569777555	1.2852797475789552	1.2071746557275065
12	0.57624590251393	-0.4039734591775138	-2.0736012406447872	-0.22047096435196417	-0.7861761430918478	-0.38155016206730286	-0.4708485293421513	-1.678974743418772	-0.6627075655417901	-0.3150252989921589	-0.32700878299167346	-0.3696721782887744	0.7628419380001568	0.04424371931707304	0.07396292667788558	-0.03835043673965555	0.0028497376407259512	0.6512722356565684	-0.4914421724786339	0.6179836376800062	0.35773068576139816	0.03262129417766418	0.7216503005881338	0.8454801418892631	1.1212927074732684	0.9930065249167582	0.5071732389042946	0.4045222987452199	1.5540207585200172	1.6698472457687823	1.1895209520825027	0.9906383727811662	1.3777852023624912	1.1771321266972166
16	1.1679521769599566	-0.267003624957213	-2.548579686406031	-0.09273393428754444	-0.6661528332103988	-0.365231244834029	-0.6387509091462812	-1.5397369822728162	0.03605188047724367	-0.14181411230522284	-0.2672124796319787	-0.6597185118231405	0.4590644228789071	0.48046809313584216	0.35091882855508566	0.06344152225927822	-0.2422201925361121	0.895652113083697	-0.017392428547935757	0.8123737553113192	0.547693251180684	-0.08539076127904559	0.5473453984746531	1.2740230528136745	1.3587995733286993	1.2668471304379931	0.4828300761907155	0.19848582098439088	1.6627966123561024	1.826372141995299	1.1792848080424896	1.0714467736849327	1.5394766291850945	1.165296790041917
20	1.4657696448512283	0.12236212908130503	-2.5303199227344813	0.05136467875982967	-0.4213504482598466	-0.15971705277172574	-0.5832014069137884	-1.0430277559649357	0.9715677475241391	0.07259020936043233	-0.03522375962185728	-0.8310775735853246	0.00025786005361094836	0.9877692436075017	0.6912066919041628	0.2632778876333219	-0.4744520771445614	0.6514239294771389	0.6243107303115843	1.1032165261071631	0.7632045726580546	-0.20786109514208656	0.12670895425276826	1.6695365863609972	1.6267210204061688	1.5022848806599152	0.4272047270479376	-0.12091292410363687	1.7626091197334945	1.9536129186897329	1.174030539409515	1.2392448155586466	1.7024077134066067	1.1608637542025846
24	1.1755969494702576	0.6193322523692892	-2.110688681041873	0.09558432525105483	-0.16455948311266444	0.13667526806656446	-0.3844982971974175	-0.5633783922276612	1.7601515010263205	0.2018952215580965	0.2391672277372634	-0.9423590278675068	-0.5555236921589914	1.3633034194858462	0.9361807084289124	0.428330748191869	-0.7483746390521555	-0.10301715854623068	1.177314636119058	1.3312425579792677	0.8647699930292205	-0.4102219332828317	-0.4370925117424405	1.886653776173852	1.786290283461547	1.551747318164734	0.30214065237056054	-0.4986111807155388	1.7768516495666151	1.9648925016385497	1.1582801312766735	1.4014360869310745	1.776164765641958	1.147577998124983
28	0.26102009349725286	1.0186829541236295	-1.5175120792222392	-0.021001756138229324	-0.012867862326201079	0.39320811530019845	-0.16682527917227438	-0.3859730949193715	2.058772081899268	0.14544232152934647	0.40696027772199	-1.0596318218180951	-1.0933206053786688	1.40289711598012	0.9420548653659859	0.4306186128711513	-1.0894395085485629	-1.1720045775387147	1.4109095299384673	1.337427374324126	0.7565162758800495	-0.7103171330637994	-0.953319129921134	1.8266397668496648	1.7175786451844048	1.3525857891265531	0.11992499947072083	-0.8276347497071456	1.6516619879030134	1.8160415841981998	1.1354514331760464	1.4586578570731634	1.7037239031692137	1.1293100090124748
32	-0.9713682507785795	1.1610544890653844	-0.9951401923803959	-0.262236892514948	-0.026605676792444355	0.5250987993334326	-0.01599737625255446	-0.5433496819129334	1.7354184345299277	-0.11010535778618534	0.39432665606122935	-1.1864557236280224	-1.446436401529984	1.0072157357535334	0.6600121243025627	0.23382335842225652	-1.4348206483854828	-2.18839835568088	1.2106529443692375	1.047524568774017	0.448405741513148	-1.0282504532602403	-1.2177194326173875	1.4694939814659709	1.3710523809149513	0.9616079902212515	-0.051985066252827394	-0.981682357693762	1.3775460685282561	1.5341500005135456	1.127442357077798	1.3555092777361153	1.492503996895547	1.12836849404598
36	-1.9810813615372518	1.018043753914672	-0.6974012238060951	-0.5158468471854659	-0.1794728930233607	0.5420503602647552	0.06882948411014636	-0.8262246230246095	0.9276833510818969	-0.47878327844855234	0.2503183477757523	-1.2467153040880643	-1.4512802325800713	0.248666777579002	0.16646122890406662	-0.07428209464869079	-1.6411548811485355	-2.755534403519629	0.6120998247905035	0.5129887448710572	0.05775760472139599	-1.217661020065655	-1.1108111115066899	0.8662647583071239	0.7874251584199626	0.5180164562498124	-0.13486047055050887	-0.8793461300583069	0.98028272142868	1.1939053505318213	1.1413383455070696	1.0947115393656357	1.1974247663783433	1.1509635419396775
40	-2.2635848465036257	0.7056031805343497	-0.6412544234298163	-0.662740467305623	-0.3751714220111572	0.5355461226293519	0.158414825397122	-0.9504844522320629	-0.038592602960185955	-0.8191130140604784	0.11476215691202038	-1.1371947498220356	-1.0380846235769032	-0.6445348842560371	-0.37207624222275293	-0.3289616397658415	-1.5661332567728223	-2.6273531847423035	-0.22708649876004336	-0.1110898402508743	-0.25437059934289863	-1.156064626635966	-0.6697708351391304	0.11021035136769211	0.08303256311910591	0.15872639377573752	-0.10309327367741668	-0.5453146682322826	0.49622294181470816	0.8601937272288543	1.130534646040938	0.7154554706629784	0.8713740684443706	1.1480869025807903
44	-1.6231806237247388	0.4184565533563406	-0.7338206749508698	-0.647034464633027	-0.4982440161046494	0.6149325951309467	0.3276435426546064	-0.7628341893963555	-0.8166324475651239	-1.0051115725889852	0.12779721585432974	-0.8137137273271317	-0.3016173831953985	-1.3810648883283319	-0.7755556683032933	-0.3865494718328943	-1.1730445593781298	-1.8342281533661504	-1.0916221114254376	-0.6339776499954296	-0.3735210588084606	-0.8362907150135078	-0.0873249319971237	-0.686109958346932	-0.5858401641359775	-0.05808753133055599	-0.020543271623839135	-0.12348594485338528	-0.041375141486371475	0.542630551875534	0.99193441617389	0.2622677677208637	0.5247318135364771	1.01370596629745
48	-0.2932390265213766	0.31770524302378383	-0.8485065677200926	-0.5062888847919949	-0.4748006153040055	0.8267828205215217	0.5822167977892296	-0.35199242741406944	-1.199127671075277	-0.9866820548895435	0.3336281768004921	-0.3531454792643382	0.5000229465258019	-1.7314232544100097	-0.928513941804745	-0.21653769855665028	-0.5886014685075155	-0.6876738054079555	-1.778129930775241	-0.9080908275565343	-0.29738330765982385	-0.39710995454663384	0.36955001856961567	-1.3980139458645802	-1.0644504997081508	-0.17427197054732552	-0.015619650443695583	0.17708906486623233	-0.5926050528823256	0.19874861786254208	0.6179199799195468	-0.22885449172890723	0.1282201853137492	0.6381405575853222
52	1.1634728879163951	0.4346943486682799	-0.9032962895475516	-0.3470480433284998	-0.3132648162085178	1.104951140475037	0.8261194804314912	0.003988943983974142	-1.1898920505999373	-0.8089624622901467	0.6361651404531636	0.055750034608752594	1.0359183523726556	-1.623354907705622	-0.8228171447006931	0.06746881438148791	-0.06779324246218126	0.34465896996264445	-2.1438462680095496	-0.8817504026085415	-0.1384941037972934	-0.06531049294671727	0.4840876149830117	-1.8879381370562294	-1.234924790125523	-0.2848334007224389	-0.20054335841568138	0.18288698746283055	-1.084220287446628	-0.20839509315328106	-0.015326587444590945	-0.713802931890753	-0.33486950312945035	-0.0025540254945645075
56	2.1266367381762907	0.6484659297783387	-0.9042442418156661	-0.27971061993550694	-0.10074140106038783	1.2889124122502646	0.8996048546966421	0.017489859790155743	-0.9591869091612326	-0.5809624180430986	0.8408939221132445	0.20021881112569878	1.0526272031910657	-1.1593041390713295	-0.5460676537078291	0.2636133723755932	0.12880732086562682	0.8448444583543385	-2.1235904639988012	-0.6022456869178914	-0.057562075409994286	-0.03244635827098037	0.1997198010408991	-2.0127949663842455	-1.0367814276268243	-0.4499339449966859	-0.5782830700579199	-0.1443354036740174	-1.3874701226490131	-0.6307728274632378	-0.7735646943588875	-1.1057294579245491	-0.797481236828564	-0.7722467164569418
60	2.210696453235056	0.7459437828304181	-0.9398096180076104	-0.35936349539625273	0.033225160008229934	1.1976106136602838	0.6631907207911195	-0.4197491098773539	-0.726894138408299	-0.4229742575933628	0.7545079569840581	-0.04370776180318649	0.5028166162193711	-0.5590001926613836	-0.23515208006139604	0.18781815421845457	-0.12682905761168745	0.6260414703775576	-1.7307184890919647	-0.18121159030939146	-0.17129129128124565	-0.3428564062998981	-0.3491763761764436	-1.6614208179488703	-0.47819194076922866	-0.6284763797151296	-1.0047594283485413	-0.67212903329907	-1.333168741674966	-0.8968270994431877	-1.3669260705768587	-1.261820670756775	-1.0773320170859064	-1.378093835212359
64	1.4220272266724827	0.5328145013708372	-1.1367415161043077	-0.5684342369986795	-0.03347742549073397	0.7200618964135248	0.07944977263418644	-1.160082218102263	-0.6475079043252827	-0.42421257388776745	0.2841143898943287	-0.641454218198599	-0.42223837865082375	-0.061312749827080376	-0.02377301448541958	-0.23225137532724163	-0.7594975213902534	-0.1986874038925123	-1.0529602739452295	0.25243309076472153	-0.4892238962219512	-0.8634445645466966	-0.9022764540780195	-0.8137001374681572	0.36060556678326877	-0.6808748228048821	-1.2424464194400286	-1.1516163320076094	-0.772415099578007	-0.7556956987374985	-1.4523453675795184	-1.0182884905855019	-0.9241179800543691	-1.4741626940701502
68	0.10735350820140108	-0.06652151031388374	-1.6014088351826004	-0.8480222203778706	-0.3723026206630383	-0.12396388469631006	-0.7551534752853458	-1.8855576467592	-0.7586538176455879	-0.6283433421483268	-0.5180283771787374	-1.4165586197374371	-1.3824185098077635	0.1642493154431976	-0.006919171178008019	-0.9268674827062713	-1.5317436418007488	-1.2880306211376837	-0.24395348070064313	0.5895467385666218	-0.9145219302929828	-1.3567637170868911	-1.2011386125756318	0.40954083100870287	1.335142847504943	-0.44549426323947766	-1.0857167216545807	-1.338961478667482	0.33870360169726954	0.0021203735324105246	-0.7993246296728783	-0.2711015038798198	-0.13867188955104834	-0.828188774878934
72	-1.2601298061980557	-0.9728113984342377	-2.371031278345997	-1.1514770955577656	-0.9826098655687702	-1.1852455109235585	-1.648333664547159	-2.296190732880654	-1.0046527360346627	-1.042318818321767	-1.4857119284312499	-2.145256990738532	-2.0576741643452774	0.05990006387011583	-0.22760961892359383	-1.729720826550233	-2.174201483005542	-2.24053978354301	0.49465292567296587	0.7586759905733883	-1.3043533530682134	-1.615930553171144	-1.115485903784621	1.7420693591957528	2.2607834282062553	0.1540780063553752	-0.4892664837405357	-1.122202631978112	1.8746392679568102	1.406505700375001	0.5652774558100553	0.9359385347578014	1.293635484290342	0.53318828209728
76	-2.320275300843528	-1.989551896794186	-3.385478964841159	-1.4769295416736383	-1.7886300041816532	-2.2404670658765675	-2.3952605663860203	-2.2831749858432033	-1.2991937366109034	-1.6431451994418502	-2.4169459281934524	-2.6676747731567363	-2.3020076693588876	-0.32792216456590545	-0.6718843562328848	-2.4612717566337867	-2.52358888942628	-2.7704994608548925	0.9558687185949643	0.7336704116417704	-1.5463569125234364	-1.5768212040190923	-0.7005278450445391	2.8386304306840993	2.9575593396855906	1.0391926739204802	0.3821070780643556	-0.5817438945387757	3.5427997022827076	3.234379998624137	2.320701831680464	2.3738384186892514	3.135209314060065	2.2880310954500835
80	-2.958554260413669	-2.8888149188539045	-4.4889364129218965	-1.853129143804575	-2.6488881044267023	-3.0692188662286286	-2.8566083835958627	-1.9784975001927623	-1.5775215585934348	-2.366945022329092	-3.1481985966353028	-2.9452686235453567	-2.195603365123138	-0.8862238503969297	-1.2627557484216505	-2.9954783840844827	-2.5830776626220326	-2.80461358315951	0.9922543143015919	0.5400502668097219	-1.6030641753731232	-1.3364851441018957	-0.15772381385082435	3.394326201452123	3.305028191805142	1.990121121150354	1.2219961850785135	0.04987255471274128	4.965226160864888	5.0540819040487515	3.9589826960744756	3.676759710565707	4.944832789334345	3.9261212249812956
84	-3.2743987954438754	-3.4929411323097113	-5.4601244788597745	-2.2852609099864964	-3.374347201411012	-3.5148672968814285	-2.9913461132819275	-1.6527205663915516	-1.8004462673506725	-3.085311881858774	-3.584099760543303	-3.0327036304199417	-1.9622353265811714	-1.4700671397286837	-1.8539520455282665	-3.272683612190149	-2.470377438983844	-2.4590165552997587	0.5830700978816798	0.2624293857147641	-1.4990663490594596	-1.0641053888157725	0.2806475155420435	3.268891564699113	3.288177958769682	2.7442123820638393	1.742561455141776	0.5132328854954408	5.814052090270881	6.382911666013603	4.996836172839524	4.4722394830324115	6.237367614257043	4.961268889298951
88	-3.4279372605561056	-3.7125301267351607	-6.064337715096734	-2.6998760632060512	-3.758211603212844	-3.506892910686352	-2.8329427170754125	-1.529971357297472	-1.9201830577054095	-3.5962276367944215	-3.677126159920861	-2.9887490197063316	-1.8016897394468372	-1.92139064780551	-2.240753168170767	-3.2628862775438643	-2.2926294745736056	-1.9269671391473269	-0.1300883587890664	0.04082769517723347	-1.2665991751163534	-0.8620798566033648	0.4787286805940759	2.553775065650116	3.0099041385951804	3.1249833028096385	1.838713760502042	0.664540229550072	5.939237102772202	6.885270101329743	5.188242899193426	4.536798465718537	6.681772692022968	5.144740091686073
92	-3.4813616187891423	-3.534418335574132	-6.115950092133173	-2.931886903989909	-3.6208147911207726	-3.0478053016006856	-2.4341392455633737	-1.6343707997066181	-1.8503019763007267	-3.6582813170576727	-3.388586035756166	-2.792479746443929	-1.7385618642781557	-2.0822298474192666	-2.204903358614673	-2.9206216261558025	-2.036063665971494	-1.3515601124018477	-0.8706679322194993	0.040436524795721386	-0.8945386983221039	-0.6704107506038233	0.46981850147838833	1.5422711333436885	2.6552133493142973	3.127234451027832	1.657314296352793	0.5583763704507393	5.424509511603502	6.511083109629211	4.626906860113837	3.8984527489464154	6.237706168638513	4.568946826843424
96	-3.3440019999953168	-2.988736860358828	-5.538474545800631	-2.7785310675088093	-2.871714107892441	-2.1942515317830456	-1.8299334003023477	-1.7639841988849911	-1.4816534481787402	-3.080001346441273	-2.681514017964325	-2.3367686212669745	-1.5882594545319004	-1.8242533160881729	-1.5983573157963837	-2.185974115574696	-1.5575560292020094	-0.7578676323829854	-1.3249309029506473	0.38597127697771044	-0.3307664386027612	-0.2900302700826396	0.4350972462636219	0.6047460421552614	2.4092035232752558	2.9012660906974683	1.517242427809956	0.42126500500177677	4.535353649132829	5.497108445593792	3.6782398131010323	2.824699394723788	5.154386507372167	3.600573530643312
100	-2.849346392113343	-2.127370352142334	-4.399785984375007	-2.100159162941016	-1.5662831028494093	-1.0485199663392528	-1.0419580910124973	-1.6056356389515307	-0.7476854305463578	-1.8294355823104405	-1.559733744498025	-1.5100431404135817	-1.068379041835378	-1.1004927130570943	-0.4340297270783899	-1.0419886085905452	-0.6914198381133415	-0.08057364056033073	-1.2770771948042545	1.082827803738901	0.4568440604596625	0.47884556530218536	0.5954557642208008	0.020915435574296454	2.360197776557553	2.64278649616574	1.714911694965308	0.5229600654750018	3.5795996098741227	4.228841294102255	2.771845333730523	1.6939678149370097	3.8294246100063147	2.673735611840775
104	-1.900586242645634	-1.024800059592194	-2.9027776644851557	-0.9126154757346553	0.07666955123856072	0.24196892915669582	-0.11647048563161473	-0.9183787084280818	0.30193295998636505	-0.10096088026305787	-0.12602518467079252	-0.3150237492713987	0.008374475852863229	0.003662847671723225	1.0689485046101244	0.40914675490076535	0.5951023682828198	0.7383191566900005	-0.7203770857743013	1.9689168880343337	1.4011397326379993	1.6651186901013995	1.0751016112840424	-0.15233848950548085	2.434831374696758	2.453941577437816	2.3226723612317635	1.0138862107427957	2.7491621901720698	3.03756641574702	2.1664442961354786	0.8115382770076118	2.603183024509748	2.054271454392931
108	-0.5799878224988368	0.20698036201194783	-1.329154964905925	0.5831645712434103	1.7181266502870862	1.4915821514617782	0.8393816926744662	0.3216273180470694	1.474328156563629	1.7111924843500035	1.389866467781513	1.0581623289095126	1.575736876324076	1.256224986719389	2.5243902142686174	1.9111999225047012	2.101282114445749	1.653295751212182	0.11497720301924645	2.7348482539746883	2.2967176379391385	3.031199686026766	1.8094713642211968	-0.11479119927511386	2.401750558511358	2.258741373081406	3.0975906770700825	1.815501446908609	2.0219302126380367	2.0402696081148055	1.8121635868096144	0.2619341605248981	1.5966781337480112	1.6996625618937622
112	0.8583540894771513	1.4181873762564572	0.05006375896211739	2.06105684713703	3.0044569893322	2.5109565194630563	1.6646434026651604	1.8971977185987081	2.4865817960901486	3.145166150735366	2.678528540524353	2.271696561799918	3.2917458927969285	2.327556842649485	3.5078513533719202	3.1104156892447334	3.4299690636820794	2.488656037723095	0.8429916479761734	3.0257100982568126	2.847939245663038	4.129620541636699	2.547462218528603	-0.23686505794327112	1.9566159198952247	1.8316577626713462	3.565190306245342	2.625213854837426	1.1793116301325708	1.109681603491048	1.385324951488963	-0.12157873033583877	0.68057799167465	1.2907602754429257
116	2.108513111513064	2.4571759638737416	1.0598945590916016	3.1985206523249023	3.701657047462686	3.170909396748862	2.2079498712107406	3.4564711960309396	3.0865940969739447	3.8620400331264837	3.4719827087481243	2.9900607987252363	4.679380881892975	2.903477899850209	3.729783525586864	3.698189249238409	4.161804188711205	3.008584491763185	1.0847926112443163	2.5932142669055223	2.7982191968841503	4.499902713858565	2.9514367505897203	-0.8894497729733188	0.8608137347422427	0.9322349405593885	3.245744935424056	3.0399575156707925	-0.0644443406027699	-0.011548533075202861	0.47778952001104363	-0.6532293541628271	-0.41011801258492814	0.4185495664042777
120	2.9650952741148062	3.2262434877956805	1.6645774799282052	3.8091881179004248	3.79469512935059	3.463995447949809	2.41463899002789	4.677416789643295	3.1773490825541364	3.8006780051594595	3.6785232927908686	3.060815565010831	5.3589711053969005	2.814615480946147	3.170837632756734	3.569854250477951	4.07528447075948	3.0467736644115178	0.636273620906381	1.427018996450529	2.076056952003333	3.9045810600881694	2.746897452094902	-2.270326131810702	-0.928384897749132	-0.528380273438612	1.906078929857108	2.7389197280397264	-1.886599416737954	-1.5210683307391395	-1.1639530629334933	-1.611880417568882	-1.8845907402140947	-1.1772751778443162
124	3.4165716085004507	3.7296121026289226	1.9529693077370731	3.917031039838841	3.5030445964107897	3.5295674711759792	2.3872704445647623	5.404612527553396	2.878520004634291	3.218326083640865	3.4568414600833495	2.625012867975751	5.249601350881773	2.1195354408156795	2.112333530814942	2.9126593993082293	3.291652432714157	2.6260905199505693	-0.43736705073558285	-0.200526058167579	0.8783141948459159	2.478910916745502	1.856134648405141	-4.302679051026428	-3.195631972827801	-2.3804025589925026	-0.2929733984226058	1.6414679247421053	-4.220192421748603	-3.3955876741509643	-3.473485699466986	-3.069906465409021	-3.7324886227785203	-3.440849057093331
128	3.6158399490617996	4.074997891628123	2.0747055955003972	3.7339980507990016	3.1941499629438472	3.6135680584272767	2.3725700318516334	5.689846024452879	2.481959813527355	2.5849687987866914	3.1725039402018673	2.081607336510804	4.622566211473673	1.0956634255402953	1.0338624689702536	2.1578226034997754	2.2515475693123372	1.9900182435337312	-1.8293099357195712	-1.8140131189323252	-0.3706604530989776	0.7031617742905136	0.44777828341918163	-6.654077036270139	-5.514203057672214	-4.218016613801216	-2.837062828530464	-0.04123640795071672	-6.734200937435033	-5.352354036169222	-6.061413272812858	-4.827645766467372	-5.682549939113634	-5.993182644017838
132	3.7525946999219713	4.414102543176751	2.160956138876996	3.5497488885902357	3.2245519079812257	3.965722074032924	2.6617789201290196	5.725450978128855	2.313792461275545	2.372910970418888	3.240441314145332	1.9077147197241937	3.969540585986174	0.13036513295638213	0.4147334386368129	1.8018174125956237	1.5220047197061966	1.5143037996206592	-3.1327626626075022	-2.917326919819516	-1.181467291710075	-0.7983162978997588	-1.1245211334447316	-8.871044136538313	-7.39417741816011	-5.551943288137232	-5.069997774675072	-1.8881130170835587	-8.948686577138183	-6.958749276711853	-8.373748758155191	-6.492484076320456	-7.309411984108985	-8.286747911512055
136	3.9203913112842144	4.852926718857157	2.2763252200829096	3.594354858860307	3.7838082218005624	4.722979056831727	3.450794449676864	5.725380406229618	2.576769822290668	2.8463249134680173	3.932327975835376	2.429957145277912	3.7598328495466413	-0.43761584052224717	0.5347137437671651	2.1858560983783386	1.5371794661812508	1.5380662640839802	-4.023350705479223	-3.1937935271689906	-1.2038186758165461	-1.5240342578556747	-2.460080378997024	-10.559899303477977	-8.465943315112364	-6.012289985735954	-6.462427599803323	-3.437951556108825	-10.426358196637402	-7.82547662666591	-9.919821714151634	-7.655395011647327	-8.224759081102155	-9.831480001423015
140	4.066572179063947	5.384585366959428	2.4220097003822056	3.9439663787448347	4.8178033707097505	5.842364773304867	4.737294661959158	5.826779350828347	3.2549424089268357	3.956244220281829	5.252018915267759	3.6716172602460486	4.217251290164231	-0.4523016500974433	1.3697864974724077	3.3484961902000348	2.4110081134959196	2.2014090959281822	-4.390702236534171	-2.6278872423581423	-0.3688164940105393	-1.2908116546465924	-3.261686793675433	-11.528103799324512	-8.61472032279338	-5.497746930547014	-6.8014850444734085	-4.365948189202871	-10.947278948801207	-7.780369738962412	-10.454505894015066	-8.074411371825985	-8.250576952130722	-10.377902958417454
144	4.062569131130938	5.891108974841956	2.579749339266178	4.5141296272747935	6.072321876453529	7.126945954448818	6.314566596300904	6.060196861225353	4.130127896371746	5.393207059595131	6.949234944918247	5.359133706867437	5.233593450684152	0.012343071369955973	2.632165663749318	5.0296954981654975	3.9182946583048888	3.3739058886222093	-4.3529844174155325	-1.4873628578780707	1.1037517758158948	-0.26315587692577475	-3.4323842438822805	-11.82285973424927	-8.001267412965246	-4.195388306515817	-6.21475122790057	-4.5875434759663944	-10.579913112631548	-6.931885701797987	-10.03128144592589	-7.771471003938492	-7.484072189509075	-9.973134015652777
148	3.84253500921943	6.218461020982024	2.7620866228939556	5.13674925460908	7.235382538647698	8.33575818818275	7.871603945885388	6.387678607072124	4.90302895261738	6.766231519782142	8.665307023105113	7.0832123577574775	6.458334429647643	0.7137218099694185	3.932340850438615	6.82372186845291	5.6460194445159235	4.712375152134379	-4.150961865435356	-0.1726114596538815	2.836240046016062	1.185896274433573	-3.081014863818475	-11.653537720821786	-6.956102830490507	-2.463828795888195	-5.034360872909578	-4.249050129653039	-9.613405203389618	-5.591761574932452	-8.915791489025436	-6.993915540203389	-6.223838790438661	-8.877794243332794
152	3.506160488813201	6.281178458567818	3.0248866004866746	5.667755112643419	8.099093416746578	9.315392470682555	9.146469093118323	6.7644090481680905	5.347656236498466	7.806887130100296	10.12536427802478	8.517719247293654	7.49953601851056	1.3700431550721626	4.974297510939641	8.391171434197629	7.21790121163495	5.818532929035203	-3.9877800840785516	0.9858617757702156	4.485345829129692	2.688715689546484	-2.4458761153457527	-11.24805352232161	-5.804081425318027	-0.6515846235990476	-3.5968317894723394	-3.625794163132737	-8.394126870896711	-4.110115994566803	-7.429546814280528	-6.070628150871868	-4.809644686953495	-7.411658268335701
156	3.3121740734399325	6.134135230789653	3.4307665738271607	6.062015518142148	8.654860474669574	10.07857320148276	10.047384236717754	7.175521832469486	5.418485627799131	8.488542535331186	11.267483682795014	9.57042405573202	8.117934206493933	1.790148849735985	5.682622418361498	9.611028646999134	8.462491967770005	6.413821204204607	-3.9056944748497626	1.8762260628060143	5.888975128564384	4.0469550984249985	-1.7815933182558155	-10.723123523341755	-4.710617053536523	1.0480959388973912	-2.096168751192668	-2.9887990876078163	-7.156080704741471	-2.7170231273717436	-5.815907463648765	-5.243970857731926	-3.4680235298335598	-5.819123253435568
160	3.542149534819139	5.960249885769687	3.98678397125758	6.373265727164666	9.071751571639487	10.780343982181662	10.674231502285997	7.6243276403573566	5.257544504243066	8.999962783978939	12.236087768179114	10.38317773104818	8.30732343483657	1.9446105907934552	6.19854305609701	10.591427776298767	9.436739897744346	6.443149073545845	-3.7686738872745638	2.623196118407584	7.090442162731899	5.261567579336669	-1.2688220707329947	-10.040716145914278	-3.6313781646597763	2.630009644543946	-0.5638869390556009	-2.5091421540806746	-5.937606796532421	-1.4555451833215616	-4.193425644777609	-4.571324336908223	-2.246843332339961	-4.22066162951109
164	4.3160037885416145	5.973097309290717	4.604084003268383	6.685931665706315	9.573004698425702	11.602276772770056	11.228697748444697	8.088940599999752	5.102783190241711	9.596911406129015	13.248251881529407	11.190413446783543	8.228577593055405	1.9505594919548883	6.756525499451422	11.542895287934627	10.30871484061118	6.057919963800681	-3.3590071116517684	3.4708876522170757	8.237371423904785	6.432606204004592	-0.9844737624108355	-9.070468879687159	-2.3896984993682024	4.191284169105525	1.0350890133473447	-2.2382233086343075	-4.62397621894692	-0.23249672294567889	-2.599667304151193	-3.94249724346412	-1.0638803216776689	-2.654531472179788
168	5.482485757337253	6.293938620889118	5.118023859453721	7.032006245978801	10.289336178550732	12.619042364685392	11.87320706230819	8.491229989548033	5.158676611273689	10.429048511877191	14.423931085409247	12.135251014588487	8.062406519561373	1.988960499510218	7.523499469835556	12.604469267493181	11.193621607175833	5.509840951359985	-2.5277843411521377	4.60709570675199	9.431709265738004	7.616893749079739	-0.9225851870131951	-7.714480857445416	-0.829004106812758	5.79590366807549	2.6790428093981764	-2.146934742275434	-3.078074685908418	1.060873028937764	-1.068598506136887	-3.188441506918831	0.17784555211465045	-1.1532412738293736
172	6.655603868846851	6.876229268833038	5.369245515618763	7.352829437765236	11.178153963477094	13.73191448559392	12.626532522747535	8.710913636149147	5.499232755128223	11.447161645598207	15.688806494203048	13.162581410554298	7.886405924912958	2.2089018765946897	8.496711709504897	13.734987224233624	12.056372612077675	5.023683058452894	-1.3081452813499606	6.033715232874243	10.630475971085433	8.747260071604256	-1.0352932188598298	-6.016866191931676	1.0531549427145745	7.381833057839714	4.2335410011216394	-2.1808388178123925	-1.2746639219526814	2.4400384364511893	0.324694573059467	-2.2114138547377618	1.4873841963408463	0.21095269865181335
176	7.39196060221722	7.52471778877169	5.302498327219168	7.536587696120871	12.055907219012443	14.71341510872622	13.358982052453452	8.65016553602176	6.053916439030516	12.443360297257852	16.810728030677108	14.055843317783891	7.6559104726140434	2.668099158226466	9.518055891801739	14.736555062281079	12.742567983880354	4.719943988327428	0.07966709116848883	7.559642295824626	11.660738915566789	9.66736409607565	-1.26024353186	-4.185719002646187	3.0731055658953292	8.771783806588726	5.504510865619047	-2.289697164476639	0.6468141062618489	3.7980675601434672	1.4847562275593342	-1.0564916107206765	2.7608518530759056	1.345220085562386
180	7.420431118350173	8.00165746575967	5.015274035189213	7.507906894801682	12.719275442435256	15.337854346651618	13.885946238745067	8.308288553242338	6.67370794518664	13.19205948359999	17.543556169085686	14.588143311862327	7.2923927123013685	3.3304817592457607	10.387937519549347	15.389121016749232	13.108592000290217	4.621456134572179	1.3358122076640806	8.916031814952563	12.335317580550653	10.25196835790533	-1.5180433950244256	-2.5098223622851337	4.951006876843171	9.777957891572795	6.362215026051209	-2.4166841445942597	2.4418411193232252	4.967209326600848	2.3603410661232314	0.11253888876635032	3.8424577615999964	2.1995727960365783
184	6.787414533644675	8.156331995398451	4.714431750792516	7.307659130719856	13.076550450688497	15.517071684761149	14.095650637324502	7.812912444416138	7.224878769753319	13.598532642363782	17.78393359462625	14.684453927158716	6.803392869938563	4.102509488238351	11.00078484618809	15.603818854036762	13.153588261773292	4.7111153483655865	2.237139696195027	9.918072675459761	12.588578192399025	10.520393345020592	-1.6996647076609686	-1.2174549072045422	6.465325816043565	10.327467892321646	6.843140107997391	-2.4740378794195483	3.8914852044083426	5.822116360270051	2.9942278786402525	1.1082197399769775	4.622730243455681	2.8168480325152174
188	5.828837856835113	8.001253107850536	4.595525253137405	7.102261525342439	13.204088177722452	15.354328116751626	14.026693308702214	7.377247791738009	7.6508893773508415	13.758621181083134	17.638757661154894	14.485669099474565	6.337558730337093	4.879431712228959	11.412862748895252	15.492446860299394	13.055973973689666	4.983188139731892	2.7520041396277852	10.570816013350317	12.538977591327965	10.655924770154481	-1.6746081071535517	-0.3608596017786601	7.573839168499965	10.521851513046695	7.1501760302263495	-2.343607181354079	4.919365393616173	6.353242381267955	3.511597862914463	1.8213562919408242	5.105219828113977	3.3221492683457776
192	4.984416472248322	7.688143710752877	4.712827193759214	7.100512963487723	13.286272015405583	15.075946769798222	13.84057518325659	7.193734150843915	7.966911295803452	13.886817897068061	17.354955629400724	14.26633354399806	6.1242670858255535	5.574159131281825	11.793827027108215	15.302093467225303	13.079179730772191	5.438368306734528	3.040560953092975	11.048541994810192	12.429429976553276	10.90531346428802	-1.3354175057073745	0.1983396405934483	8.418613412582935	10.58386323164013	7.537805538219847	-1.9214851807718851	5.61620472443739	6.659515364045715	4.042817105576559	2.2636344375679536	5.3941421372600065	3.84650444013287
196	4.558058727200504	7.399517040644187	4.91555069636018	7.41553257023632	13.472647632915987	14.877974472629596	13.703491176339512	7.318295937181038	8.197180727289949	14.154672586943551	17.151599840729578	14.252702677028081	6.320797427431413	6.117169841580777	12.28876682993576	15.250636062264888	13.398087467698959	6.021780952508867	3.33557795636119	11.555697411925744	12.474359480834371	11.413073510918647	-0.6681879741964715	0.6859579068984939	9.202732062946975	10.71577164805514	8.144901255070867	-1.1937041252515677	6.150428279607159	6.862060052712805	4.622532832872683	2.524223559682246	5.607548699526382	4.426003444941138
200	4.563387859267127	7.225898724432141	4.905687796604807	7.959869841506044	13.74912544593865	14.7890348061061	13.660616840205082	7.618114452201657	8.308894136431727	14.548565827831391	17.06756396752866	14.463462793073111	6.87207363300979	6.446987135822532	12.885518995177152	15.374304732606952	13.964316332846519	6.567615969288725	3.781392326344626	12.162710159111445	12.71482082971457	12.104876487687637	0.20056815394784536	1.2587141958882142	10.019035314059836	10.963019343353752	8.889089561907792	-0.286757081023063	6.626664621788567	7.004384499985306	5.141649710071561	2.679097645671231	5.780597195335815	4.95255802811489
204	4.740966308068052	7.106420499025786	4.399985302306632	8.447384812961955	13.912406886261268	14.640247308007632	13.58944698717432	7.820424536987503	8.196134546567492	14.843446694091282	16.925540881339384	14.680107079635512	7.48889253632918	6.510290129437121	13.377933468421231	15.488334616657433	14.504549943543106	6.815589410740289	4.325940598056321	12.723620382609834	12.977003064770397	12.7039088882138	1.0263596747234491	1.8867981386231334	10.741565677225857	11.172649355336693	9.498202299932919	0.5560699091223341	6.9858527007156885	7.009137135929119	5.393625722618976	2.7187268665337014	5.827019199918317	5.21869324320224
208	4.734315383402227	6.873302442363376	3.3134996807363906	8.523376443324294	13.679532016548928	14.172447168807855	13.273617710933138	7.649335841893338	7.738913039695742	14.72333713628906	16.444791752304134	14.575857125675084	7.7812232774734404	6.2819104036038125	13.464543308595628	15.295289954669238	14.666736565753252	6.522762282115592	4.736153113805302	12.939812627547399	12.970660176907993	12.884025541201432	1.5484576186185965	2.3533434808442677	11.063263865195385	11.082840891513145	9.67028806152237	1.0804245444676248	7.02117536679472	6.7276987859621915	5.198638902890323	2.54971598935116	5.592114911265789	5.0410780779402256
212	4.321721066054035	6.375969393844851	1.8544628573327018	7.963801363865502	12.876886335286839	13.223561253539987	12.559261290312397	6.985568982607274	6.905612928121644	13.986103976224127	15.440659484026336	13.931632006757162	7.482686023893678	5.794418320331437	12.935505834345381	14.583141290085404	14.23531242591232	5.625820145708279	4.733692157238029	12.543962446967235	12.477608649222164	12.47593781182404	1.6293531615128045	2.381969684308981	10.674973460902287	10.499393436626345	9.272123313382131	1.1625268429969087	6.513200743443444	6.059317096670689	4.536987293232708	2.076559776785389	4.971823202931972	4.395130623211223
216	3.5667064099860206	5.605226025734639	0.45858314517588333	6.830315572659896	11.591158837617462	11.876525848920904	11.492394418311154	5.956972107152474	5.832154736099199	12.706315962182332	13.983344996433729	12.80228993044588	6.632344706002742	5.149409757964566	11.834326714200786	13.38836571174206	13.281908001744727	4.351385105590957	4.170916546781459	11.493074388097034	11.513487786788172	11.596422166156419	1.350335713791963	1.8166979505448093	9.481656050585045	9.45006654260816	8.4492273117366	0.9006772018580887	5.401409135532675	5.059558855634045	3.60254906698476	1.3056005206523449	4.018822659836358	3.47106336670943
220	2.799771540248761	4.737882602173738	-0.40515813129175604	5.486908898805578	10.184641812359981	10.469552967341334	10.34315583478692	4.9056906576277495	4.820839869725522	11.252836199006312	12.412910430086194	11.525345773208429	5.5969409801317775	4.497872818081219	10.492339107725698	12.021071403670708	12.156297653024119	3.1845147529309425	3.14776682058964	10.051348660841045	10.361586544579255	10.61594769658598	0.9997795198947752	0.7490622382325485	7.724591712522427	8.219285944214118	7.573308925581381	0.5934745654381137	3.883883466451461	3.963619699007715	2.734885208854356	0.39893156189333784	2.963899843362209	2.6081674033118607
224	2.4340078769266205	4.066699971422023	-0.4618976700565073	4.449247825833379	9.145101524152048	9.444784140582923	9.484046912090239	4.236704815658329	4.22899292831818	10.13177583043779	11.186633081802853	10.554243061121653	4.898153292687063	3.987267722553356	9.394520735863635	10.924424143866235	11.311576814702732	2.675162547033095	1.9913252541810662	8.695735909441861	9.445585227006681	9.970515225986537	0.9397125220415165	-0.4937319147042219	5.916252598130525	7.227630596986362	7.046332818360843	0.5968067630958689	2.3663787782051555	3.093427411852322	2.2547368946369266	-0.37287661339077616	2.1238918250820245	2.1305873340220294
228	2.7264060905285956	3.852288713265849	0.22905982972964004	4.13761328606232	8.843159653271313	9.115076042050122	9.186157203369682	4.222879399128294	4.298075665112758	9.734006857137862	10.642585727524585	10.210874531715136	4.933128821315799	3.701886406135203	8.941784836127777	10.445874187799067	11.062426539147694	3.1663305679487768	1.1059277029725714	7.887730101697945	9.109901405222367	9.92432114956508	1.4130159580795114	-1.5002520046503383	4.609163749501896	6.819112760493356	7.075227719563525	1.129625556001119	1.2773727146323048	2.694735520235021	2.294002527167185	-0.7625366430103879	1.7423864559051574	2.175166839829887
232	3.622726669701761	4.180367459233184	1.3019598689586558	4.664168822910385	9.33256433038041	9.484138464824383	9.45499417778859	4.870057093722354	5.01679991409161	10.128323529421117	10.81711957107807	10.504878971280464	5.746496186053015	3.630266180409654	9.241561866315736	10.653004619405019	11.418353051920942	4.589477050638026	0.7743301372051605	7.837046126606183	9.434037184738475	10.424124691394017	2.3974041878253103	-1.9826964089880081	4.12169264706443	7.076771241440731	7.553985099793988	2.138569111193039	0.8494336583625883	2.798267595855586	2.7212831905323744	-0.6880400163445309	1.8549336148159494	2.6136412554556334
236	4.770424353953151	4.906274783145074	2.2662932815553813	5.771936402053238	10.3093633391447	10.22966286937522	10.010211919306723	5.914626106588001	6.095037444938658	11.018232317762692	11.424006433254325	11.129401178871179	6.9874000372901515	3.679909935243422	10.045290921598527	11.300334901889318	12.089172332759023	6.452152235907147	1.01837300997158	8.390378930842697	10.187784169224607	11.132257433441604	3.5921738057041925	-1.925602908041152	4.373582828923585	7.771806220459863	8.125090578546176	3.3033397114322076	0.9912292932279775	3.1877071776970523	3.2077240862921443	-0.29958456679046613	2.2576928081731644	3.115888110877035
240	5.68879555219601	5.7196779106690645	2.7421207358746624	6.959961873602102	11.256449670982052	10.864678355442859	10.429634067905987	6.958509427621882	7.076861840500562	11.888569801832391	12.007773369036315	11.636223763651143	8.082087496379359	3.734477272141786	10.871677371233293	11.964015930487124	12.656332937711358	8.042441347797816	1.5970548351020404	9.110914207343832	10.952103587155726	11.618861169090488	4.555660236300798	-1.5889021118102462	4.929202544165068	8.477277734334235	8.385746934699606	4.189687718303891	1.3302063908371085	3.5008041770286287	3.399747839927204	0.07821241001409576	2.6036164694854604	3.3224699413338596
244	6.003925308327874	6.296136840182884	2.629088633575202	7.731996039896311	11.702074975032737	10.993718119521361	10.382900211822806	7.670828323070764	7.54779384614751	12.266620605016088	12.187836616262363	11.691207856224725	8.53371045819078	3.7214689160802683	11.25400921841253	12.26988121749565	12.811866727907052	8.75973508530567	2.1402151530590006	9.50934598429199	11.34022137639799	11.605725259089473	4.926852690655375	-1.3602209056844248	5.231883512639152	8.787475563751258	8.121725061892077	4.47312163177286	1.4109601938863985	3.4157259378025127	3.1067683618308464	0.10811089697006915	2.580214255494252	3.0351984424253615
248	5.626178250413186	6.4482030705728794	2.118946785345364	7.8316473763146375	11.44870564431257	10.516283008727259	9.816708539973494	7.94129608056661	7.328095894431686	11.951905220373657	11.850182503345325	11.255947084618574	8.180456140845356	3.648849001255071	10.973193140935487	12.080103843707212	12.52122399029857	8.400034883271932	2.3410708845159998	9.295318580047201	11.189919443488892	11.116884203499948	4.611222255508662	-1.5420621594596335	4.899186121969123	8.51831910843716	7.428540211042102	4.1086301699855925	0.9383360123785489	2.8178863454245833	2.396101945549545	-0.38383352659591596	2.06867789699877	2.316401714198645
252	4.778911101673423	6.195321067427166	1.5524641236209933	7.3386344724385255	10.64622399503249	9.660763716148468	8.979934669710657	7.9033069411056385	6.550937159211206	11.090155573501514	11.177830667884647	10.588090869874085	7.266405564082068	3.587480774405006	10.148594830639468	11.533752412286324	12.015229194823155	7.238655072056184	2.1038358158400587	8.510583856076318	10.620088550457362	10.447614643422114	3.8258592985834317	-2.19202136439976	3.9164442917171534	7.779692153362316	6.647847635651101	3.3492376719791683	-0.06884025019908173	1.8553845835571814	1.5440258940814457	-1.315426703946628	1.1981507509498748	1.4432767593184177
256	3.865940561070737	5.7226919983384565	1.2159403531846233	6.584539396827784	9.680183386204417	8.835971809966706	8.273591974350445	7.818822840977143	5.584864125456458	10.063117001875787	10.51364800659768	10.066551183080495	6.291236384720403	3.612238636433563	9.145751930034196	10.93054101091622	11.624730080818836	5.870236858805786	1.5686335524055477	7.479889850805035	9.931036924084257	9.976587270343765	2.979645244704902	-3.1024048250071465	2.627803557437089	6.889875871429198	6.161459907234336	2.604102128129864	-1.2946304050184207	0.8563359954194414	0.8766671993056405	-2.388840669322761	0.2702393226953205	0.7491721491972367
260	3.2620766080512795	5.2618422375391	1.192949411241327	5.949813827751601	8.949458099658209	8.393348672656488	8.016542414452559	7.8990521231537345	4.842705714396878	9.269511199436089	10.148593876965155	9.95477673878262	5.7327504013281985	3.740502586457628	8.365516641476757	10.540820095152124	11.567606896758955	4.899600016621398	1.0110104058489333	6.620892031165934	9.420636153278169	9.94017979973256	2.4586112437163092	-3.9213683506189057	1.5416015347659724	6.193639262774429	6.1711220585466116	2.219687456248855	-2.2955732287623403	0.16004823107842286	0.5981050714650885	-3.239610186980683	-0.39738663930698265	0.4485838401912872
264	3.1378950993468635	4.967014777040792	1.351064440177147	5.662815556534064	8.663372971596324	8.43919561162765	8.264639833564942	8.16757963025775	4.582787025325327	8.926851250044875	10.163615201084944	10.246062252878739	5.800836548464647	3.909446468019611	8.040858248436578	10.459297153768594	11.81895062323619	4.6483163716259455	0.6834537965685125	6.229446395404972	9.229187942091606	10.303441975329083	2.436665767239734	-4.337764729038431	1.0672388049837036	5.89262579383837	6.595245344676731	2.308510297668886	-2.722546570579844	-0.04249988485573369	0.7031594497093733	-3.6099669842176185	-0.6190046652424308	0.5450593219347095
268	3.4051868829585157	4.8594179030753875	1.4597852193215988	5.712464318157981	8.769699074538325	8.802618958183238	8.789237000209212	8.445448854104537	4.808759200352947	9.001463867349171	10.413999531202295	10.681651088448904	6.35735081021266	4.0107731717890545	8.154365518962987	10.584456417063437	12.140707939013186	5.03212641399188	0.6911058408454576	6.3604664641964925	9.298804259664866	10.800024958999648	2.811933987193762	-4.22341870195286	1.3307412829179723	5.978929504557974	7.138777237988283	2.7166705062941423	-2.4726617273844487	0.22477637174599366	1.0161918376061763	-3.4523169907191624	-0.4037628163634094	0.8660421945640945
272	3.802029838499552	4.860066401608907	1.3564351762857185	5.911015018798046	9.040526367250548	9.169437385296662	9.225975013327746	8.470797517370617	5.3145441874792825	9.290023780255883	10.654907199661444	10.926354380677767	7.033306104068781	3.962494601735775	8.50964448687703	10.723867389306674	12.247590987754563	5.66314028263798	0.9641457771754461	6.857196790548571	9.457203841174126	11.109921427333445	3.2953419602164384	-3.662731876662525	2.1589345877498975	6.293551905954791	7.485958557302164	3.1401848713747738	-1.699246879102148	0.7746359090320863	1.3223230805390187	-2.9156551287470767	0.08893651492791126	1.1930930584348731
276	4.0597319500467925	4.878009306989631	1.055694458203463	6.049196704850537	9.24601075699054	9.290792441752965	9.299007392293747	8.079352358446812	5.834363922647577	9.582306837684442	10.716612788800088	10.787052127306326	7.461458187338387	3.7735981845948947	8.892255760630267	10.743974658543017	12.000835388401976	6.101418002936465	1.3295704092789606	7.487762909104249	9.556762671183993	11.061336489406795	3.593806496129758	-2.8702227996839262	3.2173497595619094	6.654682142622371	7.494213562164135	3.316585532397911	-0.6951071006391273	1.38152122148758	1.5042234621216954	-2.2377622071034895	0.6604136807934007	1.4009032214081276
280	4.052481641074619	4.888143527087335	0.7370261531341524	6.034776672385724	9.295911765470509	9.130038238362443	8.979588485934675	7.329157333943166	6.200525744995812	9.789570783694355	10.608490917124827	10.332908604283007	7.480283718296716	3.5570609479742403	9.20431230128527	10.656753513133346	11.503184289499732	6.102863296359329	1.6281976658721062	8.08572767123589	9.567960714978964	10.729394885630608	3.5760869889570883	-2.0618460126318636	4.199682701951752	6.963002187315129	7.268373471029004	3.174342385860678	0.26483920149694895	1.896841759661008	1.5986958701778533	-1.6174778897456066	1.1744821041971933	1.5177370271510535
284	3.847173919501297	4.944175707732	0.6215329154534853	5.928081974321362	9.263399100757674	8.861175514737058	8.487134912043723	6.492202265560669	6.411538584734052	9.959809278137591	10.488480541451262	9.845730756697096	7.195099812461561	3.4775810153898736	9.487163519748387	10.58863827893032	11.03654191091715	5.72766684039743	1.8004673673948697	8.606185891357407	9.569070791880458	10.375006649525842	3.3298230087133662	-1.3621170486392322	4.953605639348817	7.220927220233267	7.074438554068691	2.857652656969691	1.0284981701633016	2.2901732863779025	1.7432411865090784	-1.140739676456457	1.5931827981779174	1.675566430629831
288	3.6364886668899157	5.118782507370506	0.8190329650227473	5.861862644654566	9.286725020803761	8.725711800479461	8.134531954254761	5.912359699580783	6.5779981447080695	10.181909535450377	10.521698925156455	9.631257032873355	6.874299985695819	3.658036699596132	9.826805089935796	10.65579316309915	10.879418345640019	5.26225374800559	1.892750139226087	9.0743617782369	9.646141981566243	10.26555154115961	3.0872232836026052	-0.7938405851348749	5.48236082600212	7.466546039803569	7.152350884499423	2.6229600840148692	1.5715244968791449	2.6049251490628444	2.0548767991637416	-0.7937160710322534	1.9381378840150585	1.9904094884210493
292	3.596479883650474	5.41244743888005	1.240081545559891	5.909532532076935	9.422794318250746	8.841201759904674	8.112868288537973	5.807516560197049	6.7904720134953545	10.455447170562982	10.72369954262741	9.80742928889829	6.7556977101468725	4.0947699443430965	10.217526410055276	10.833343478507812	11.114628763747342	5.015569674226552	1.9890457341520313	9.479154562859428	9.778475736725296	10.48906705115437	3.0695865076766746	-0.3393823495879356	5.8460998387556415	7.68083999601912	7.5461263466094834	2.674080126686707	1.9237658928938126	2.8718197273227166	2.5232288773727456	-0.5379509912260328	2.217319959764354	2.4543693003676443
296	3.755279769953034	5.700392708691388	1.6226015049975633	6.000895008195144	9.560652708710794	9.090565658506048	8.35616777217663	6.137368663551264	7.005894166424366	10.628167125571242	10.901772471560143	10.206239674549105	6.889331800233062	4.632462966667193	10.491839382385164	10.918003054710082	11.550248116895556	5.120679365581049	2.1219685024092683	9.704204534825411	9.799557661110546	10.879533740232013	3.3484952365257206	-0.012624120307878404	6.051792129496084	7.745232562537453	8.058471659341816	3.038134328801006	2.0880627579422595	3.0476319712941162	2.988722078406961	-0.38235938452505286	2.377200359064674	2.911633722583524
300	3.956379642034417	5.766793713315002	1.6649545389101024	5.952630028000839	9.464023566193529	9.170253730509444	8.57361314516279	6.622138960331488	7.0446710408687006	10.459628078755552	10.744856807283465	10.455049488374046	7.11284921757645	5.02391098661394	10.38387677432034	10.624630901214937	11.809099167572587	5.462590203798618	2.2318463269151785	9.562992071803032	9.475392317690703	11.103469820599246	3.8078689479055865	0.12229931323645096	6.020895942745477	7.492509823002177	8.361121156563538	3.5562508016444987	2.0192458578627095	3.0278522891846316	3.2260513224214096	-0.3933816840253461	2.321209663252668	3.139858953177965
304	3.942815532266417	5.4184603554298105	1.1964813440632205	5.597949013881674	8.924861885425875	8.77609918285957	8.43114373939456	6.9040660683843385	6.70743559097551	9.781203245263331	10.018019650915427	10.194866154680359	7.166993599916555	5.048836218484603	9.700053190536575	9.769308065544829	11.541481942601282	5.762410149330708	2.2033514920872186	8.926690079085809	8.662302949016018	10.859325381518385	4.221168030571823	0.000816211975447182	5.659032807367589	6.827061635900534	8.195326784423536	3.985822905967648	1.6780748324942254	2.7272081306266682	3.0845606249179216	-0.6348099096483272	1.9851165959783579	2.989594451985691
308	3.5130894095415566	4.61161183146593	0.28411164808067596	4.925562369308535	7.92605064298303	7.810233573268117	7.769911746435104	6.754401666754148	5.935217365538699	8.645082451928149	8.739121415008594	9.303478217477773	6.869167787375036	4.627357471227202	8.485721566710378	8.42302701730812	10.635479900210983	5.757975563770614	1.9549937198871135	7.856669882965329	7.441434364604518	10.067363713596022	4.389633167628179	-0.3627093723199494	4.969677435725476	5.830726608813987	7.537054042860416	4.145203579927434	1.1091611357341833	2.1663212721489726	2.5939211779907736	-1.0883923741517927	1.4108128512048856	2.490599149137867
312	2.6638638905979986	3.5183575064520842	-0.7804497460687995	4.132687558230518	6.707828981630033	6.4839711025565485	6.7298483678659435	6.205957397051191	4.909036147121256	7.361651878844036	7.227450829378173	7.994636038622858	6.238195403561594	3.874296416991413	7.076408845201412	6.937850457794891	9.306513762819229	5.370819555074017	1.5256090125666646	6.648493749998835	6.141966327419051	8.94211480744042	4.260675896377837	-0.8271931388951196	4.126792897295693	4.7815823434269324	6.6324214767850185	4.016112317435975	0.479122995120592	1.504958148971342	1.9716393897822209	-1.6147921044588085	0.7663149218285159	1.8605604124778294
316	1.6334680277591294	2.481063121253618	-1.6082310635970776	3.545577755559385	5.683147416071354	5.245726572143997	5.6995596741781105	5.529607758866231	4.00476883830812	6.382711871244821	5.981033310094655	6.731762392214139	5.495472417308127	3.059192649746984	5.979365333719472	5.812502369510633	8.011659601964887	4.761019694705655	1.0942109795600756	5.73651789170565	5.220254408054255	7.902454356268924	3.9582009215555756	-1.1561074227708066	3.439605942625034	4.055755128157419	5.879992470200833	3.74668048866371	0.03214810780514822	0.9901402567660358	1.5229322871858493	-1.9929028699149982	0.28818270491320147	1.4057693445953048
320	0.8077661374678803	1.863348956171961	-1.8982166003939263	3.443341961750123	5.235641943110621	4.560741889882939	5.113509642088409	5.065023409453256	3.6132981685964154	6.080379947569659	5.435139642344486	5.995987877012465	4.942541109957807	2.4900190767363775	5.633208260618825	5.454476342735119	7.227596741548215	4.2398958099129676	0.9095637775345048	5.493862615066098	5.0445008150531665	7.362899761683902	3.7096788789548842	-1.122460839298627	3.213706723682435	3.9520151515364033	5.623140320885943	3.5585148244659313	-0.023588405862500245	0.8391115644250261	1.4837123118133737	-2.0267345854133825	0.16951212244151462	1.363943692578407
324	0.5244128094784446	1.8701511574258443	-1.5835001428678912	3.887150516232641	5.510375008975824	4.661765086801952	5.208906160554831	5.0080499522606745	3.9221441646733437	6.543540938068991	5.732048973870253	6.034280761742445	4.788543689081965	2.376065009793859	6.175900920534058	5.9653549043725205	7.209851723587645	4.093119610942722	1.1595886916447686	6.035774215718166	5.699521050368394	7.520683746423476	3.714423170248448	-0.6318810566207487	3.586149921899821	4.534541595454459	5.9704017488422005	3.6159582046767356	0.36878114845627674	1.1241445512999915	1.8961279344369804	-1.6581090646842214	0.4579690385223129	1.7789630844978077
328	0.8780406691317322	2.430276387754523	-0.8700014330833037	4.659209239640436	6.315381987839373	5.407463060077937	5.8799090236983576	5.284117685328319	4.787219512296978	7.507714252590254	6.627392275290148	6.722624761774562	5.028650271117355	2.7362320354043	7.351489048516911	7.065358620925112	7.85879896087133	4.418492782881243	1.8531793309153493	7.13719509230136	6.916952115715086	8.250748613507241	4.030941476181494	0.21076638943387707	4.432265747324009	5.579700455883314	6.739355070265037	3.9349789520097134	1.0690673562715065	1.7248473123871224	2.584358208807154	-1.0158119176013372	1.0222309801995715	2.4757087168176737
332	1.6392040211299623	3.2100543894783997	-0.15812638362062095	5.354050145936669	7.194879513695027	6.328851683850287	6.710510713800997	5.584154114929686	5.778594479276419	8.464743592825354	7.58719585410467	7.6147517965704985	5.4377126556436535	3.3953058633911777	8.613780953594091	8.20162484959318	8.758598305523384	5.0580358377545895	2.783350222236022	8.317521074276156	8.172455767025225	9.159213996650598	4.539846885663232	1.1354033918324786	5.404615388576338	6.65916965710689	7.547865848558216	4.375317085663592	1.7965471699178899	2.3768391549182475	3.2414143003641893	-0.3670094898017684	1.6082235534118547	3.146466008825346
336	2.337501996814439	3.7570080662285776	0.11653168470048335	5.576146111715041	7.638310413149202	6.842250806699587	7.1706290064015175	5.543161378216777	6.385053618522844	8.898403145258301	8.028061846491346	8.149055460382645	5.679381833042531	4.064607133139953	9.376702284980887	8.788651444180417	9.366536116793664	5.66015766622095	3.5998701958367385	9.052724815400904	8.9048547519925	9.762846922067489	4.997963892715827	1.8273866130468148	6.08702038181803	7.319195728896296	7.996354559736683	4.712639319919356	2.2590255680269773	2.790558569538379	3.576592913180664	0.005657450281701056	1.9548467348334684	3.4986667544723797
340	2.4818355974479567	3.7056395913979436	-0.34054484877437746	5.1375894416797125	7.319218140242675	6.522590143901916	6.873802644541069	4.958870875236403	6.270087226296017	8.525485017232544	7.582018356253973	7.909455756245143	5.472037301553086	4.4683327562051165	9.282607055115916	8.46486661681186	9.259405112730647	5.841282829795635	3.9623310465909243	9.0080604325791	8.753458000970932	9.703678106604084	5.154599653581346	2.072030300631053	6.183498366956527	7.26952932429757	7.845155696135269	4.7488756059911985	2.284232372238849	2.778498881000712	3.4456210049420006	-0.06369010342968638	1.9084461879230306	3.3858084593166455
344	1.813824052999575	2.9457359239592162	-1.5626736839895037	4.147591580409686	6.242015346026315	5.300107942551131	5.764246449222312	3.919539203284657	5.438426957704839	7.41889665637895	6.256010516584242	6.812833291972834	4.724483001224903	4.454671848494246	8.351828554047938	7.242137413813749	8.31886194036164	5.3622178895989085	3.6991231348103923	8.175585726123767	7.702223758324751	8.896305061767505	4.868517386542404	1.8462333632586307	5.645013318114655	6.493673785027169	7.102739316173753	4.401615131709256	1.8852705907906864	2.328155511700097	2.89974664909669	-0.5520730004677219	1.4793925247988284	2.8572449612004567
348	0.45690452937163445	1.6723810392117868	-3.2982497131998194	2.9519321843958424	4.729198920707626	3.4890949638013558	4.14455889609117	2.766957276034124	4.223608483141345	5.957131847600069	4.416316021259542	5.1405482162388925	3.581217279929243	4.047149647985054	6.945996266947908	5.484862313727738	6.7759570904362985	4.24494074703402	2.895007364593275	6.856238824700159	6.071001991202955	7.548796157851522	4.175352562853024	1.314375397224734	4.675945747013952	5.237513052114686	5.99706123745287	3.7375597859432075	1.2351247041035947	1.5931955535718672	2.141293281870976	-1.267062303205089	0.8213004449135678	2.1139945930513484
352	-1.1174095840852452	0.29858526512100736	-5.089194284941547	1.9632422874474644	3.2692537225198537	1.6467798906710769	2.538890593794385	1.9190993260568396	3.114569894556511	4.640088546481924	2.619865172447366	3.411493769615566	2.3651766717323603	3.42155813306977	5.581363663886927	3.7425255680961973	5.106482016068554	2.7815995146140993	1.8624716950123716	5.510106549656434	4.370433796338762	6.062830909680616	3.278884402579767	0.7391721587592275	3.629246225730833	3.893762101833014	4.861865508202264	2.943854562956276	0.5755990729104605	0.817523894630134	1.4203273022077805	-1.9403992842321274	0.15308637878391185	1.4050753081132925
356	-2.3007390441026914	-0.7236972432938423	-6.425101740827738	1.474923249335564	2.3060696066807855	0.3360869577982363	1.4649226628511085	1.6541529852111774	2.522316211054249	3.8698332212019	1.3793175185665083	2.1634173338628475	1.4495693408607582	2.8248400616851033	4.696417319838242	2.5203747685695266	3.8318686388545142	1.431918379029407	1.007446524937521	4.556482303559465	3.092985145389205	4.868026244270695	2.472017758803921	0.35978463201285	2.8499312328864024	2.8417062687653227	4.001816739469138	2.256658309961055	0.1141537350514311	0.23369803965693267	0.929147002735306	-2.3437735975218716	-0.33312073265847797	0.9215834117509843
360	-2.6369237833204346	-1.0852464410084903	-6.917553884207218	1.5554391106435115	2.0741357750977834	-0.0914069933371631	1.2272653548726442	1.9802517840933624	2.6082494193028647	3.8051297568572044	0.9752694939785687	1.746053691270349	1.1170796127726017	2.473273747875457	4.490484703170672	2.096160644960999	3.318552247251954	0.6490701420609014	0.6537553651516419	4.221093167138174	2.535965674673352	4.267839420987436	2.0241382070935217	0.2989670626721522	2.545364135037807	2.3156876505560384	3.598023167109102	1.8801395845627962	-0.04081195210047192	-0.01595493402029124	0.7454101424470914	-2.3698682725200757	-0.5340073691237154	0.7397181969086362
364	-2.041086430164745	-0.7233593445634637	-6.442424757904363	2.0615477509901607	2.5453517372717247	0.39792230624822666	1.8196502878023701	2.654832594844433	3.253489009272302	4.344912041184693	1.3884240353815902	2.208374733117627	1.4604418240867867	2.4743239817137477	4.895149218597967	2.4526743826930906	3.655302515337899	0.7022351604851749	0.9069973207462457	4.487765300864306	2.722489826958161	4.352907169796099	2.0799369759498356	0.53789025409316	2.7327227523473643	2.347194427286184	3.6791350748632987	1.922484869871534	0.11027280958467843	0.08903218038253423	0.836759624752772	-2.0510783143710856	-0.450029431637375	0.8257529118670481
368	-0.8381749966440349	0.18700510216228744	-5.195969091648285	2.7442567279194403	3.489657393228036	1.551009531873567	2.963482134012678	3.330384007628576	4.163706768967631	5.223631845637281	2.3588647782851617	3.312306395751	2.3583621919216844	2.801794283468752	5.663500294691515	3.334269992039541	4.64683626909062	1.571797962988684	1.6203564364531218	5.152559267386546	3.435829869178757	5.000528322946169	2.610952370727315	0.9566686129258305	3.2678301251876323	2.7878379751391202	4.147108544369646	2.368342393617678	0.48745289321853374	0.46191587927544014	1.1070446940128422	-1.5223563871094836	-0.1616321053000404	1.0830222340896674
372	0.39336588879452056	1.3317584957831408	-3.6381013301548872	3.373687497204304	4.594398963772572	2.9565513059356943	4.24230765225307	3.730223646282774	5.024141775797927	6.145957454423135	3.5192191511947817	4.646602142046533	3.5238106161795275	3.3218581592614296	6.503588660032654	4.37842701760154	5.9087791293688765	2.952725164587932	2.4718465742645583	5.9302954524041525	4.332047451526011	5.940187439226102	3.429627171440511	1.403002616201106	3.9207956691933497	3.385881176983088	4.824317443111517	3.085364333946044	0.9668136810688568	0.9484463906184035	1.445022460150192	-0.9615490412277176	0.2080452138893329	1.4015388453384077
376	1.0979181500371662	2.3840932785876765	-2.3388731420593905	3.812956800370768	5.575382695426685	4.198579300770456	5.259208189083837	3.7535700703266133	5.613583073748208	6.887781602635658	4.529905784614113	5.782148346607533	4.600646961040733	3.853119363593342	7.181305867183887	5.254098402109433	7.015446168353375	4.367637146412962	3.110833875431422	6.55707977546767	5.074894415440297	6.850936395514328	4.258515347219474	1.7492086843196346	4.458357322880692	3.8799095055850295	5.500220284880369	3.8611781499652076	1.4052151406095825	1.3730912173889909	1.750942583431773	-0.5373846278928069	0.5261761532850278	1.6850364165678355
380	1.0024741862736224	3.105289212969835	-1.776869650169292	4.023189057683	6.242033465838281	4.977382170508269	5.7580351684152395	3.468332281892717	5.836719021365996	7.333665352425437	5.169537531198661	6.412240965866312	5.281405435579307	4.237562168866614	7.563250045754483	5.758962139848446	7.646406631237892	5.352509008245247	3.3096516048794067	6.860408765638117	5.447330937937485	7.461762409444552	4.835452544401764	1.9210325431006037	4.711810576940492	4.084253777682635	5.97718857209777	4.469737518469636	1.6641234117454526	1.5872864683130437	1.9451264093880392	-0.3719303598550335	0.6801587922090031	1.8592872572686416
384	0.23278367460606433	3.3920903120229533	-2.162472242617675	4.025954713193595	6.515912516355299	5.170922266302586	5.677660927742921	3.019593946462562	5.6951556061960655	7.465622883067618	5.36862944201192	6.437210543592577	5.4083399636096585	4.394574154249005	7.615294437255163	5.857744202129563	7.68576286282798	5.640955910745748	3.0539355200910676	6.794561845790937	5.411678777382967	7.63205144862643	5.011066900953009	1.9040161323159293	4.624930370098076	3.948688497110598	6.1208605611759515	4.746754157479709	1.64815866531054	1.5179583988011904	1.9763753364255372	-0.511952875752121	0.610915897734319	1.8789160204179363
388	-0.7612445335242093	3.2701346791674095	-3.357444277869704	3.8637928865156126	6.419610960964892	4.836023318478691	5.136584268952758	2.530913108157788	5.247247682674825	7.335583668308045	5.196473108523233	5.973159774958284	5.021983133988192	4.338019360080269	7.3875798992558686	5.664642319682528	7.244926434345038	5.2677230701963715	2.532309764190639	6.44612453740552	5.106019007189108	7.392483215741292	4.800204264919223	1.7368652776735525	4.274909008677107	3.5766544251739174	5.910567268707624	4.649229037944442	1.3538484539182871	1.203750011265938	1.8408691836609679	-0.9096580720823014	0.3440547278777595	1.7439259246665293
392	-1.4268556797242569	2.859069578581714	-4.928166377022908	3.5906867890300904	6.058619483909999	4.168611039127368	4.371264923503412	2.0659031815821916	4.598814475846385	7.04878185399919	4.823286998015242	5.292467103947375	4.3410787472795755	4.157400597566316	7.0074376883015725	5.3898415429410305	6.608245832925158	4.542860496495468	2.040633911702753	6.014430984570881	4.785508620577664	6.9359650436761155	4.370249260359004	1.5037720165433064	3.860277404575636	3.195414773502788	5.470903382793742	4.2779250036951275	0.9049817896882546	0.8020718077436401	1.606321092364717	-1.4185167515226544	0.004709305229814134	1.5217385253633018
396	-1.3636066879176978	2.3329548776852946	-6.3102063973373035	3.2897686875254313	5.603483662762964	3.4426503094538954	3.6558992770398833	1.662197585677622	3.921406736010044	6.758955461603491	4.472573269042311	4.721837031840715	3.6787981894118786	3.9758102793449788	6.673590643246018	5.270667539640842	6.124852165017192	3.905091275846159	1.8516881419161233	5.763797745457575	4.7291426539231	6.557013495102847	3.969727029314561	1.3254655566129327	3.648520937291056	3.0809643190798335	5.056804644215218	3.846020927255673	0.5408697710686697	0.5521331415541485	1.4198868238840026	-1.8173224880111891	-0.20259645530094733	1.3542449440143318
400	-0.4926614748914033	1.8824431848682595	-7.01928613797869	3.082970849836486	5.25667952164027	2.933943502648047	3.2204596914998582	1.3899073565677256	3.4530944737036497	6.6481666397091335	4.362254608584754	4.526986110701807	3.322549811557657	3.900623788522233	6.620056612466872	5.497248635717949	6.080552085783336	3.7188279534862283	2.105541700769223	5.939440235401084	5.135169969945099	6.547818167367274	3.824087133289444	1.3327881064143914	3.8799161813052274	3.4511814030297687	4.972937094530723	3.598213901971902	0.5340333567487718	0.6891112906223744	1.4730976782799925	-1.8760667991955766	-0.0617391726305978	1.4241546356484347
404	0.9217490530583969	1.6720679956182167	-6.828870756074188	3.100187770645679	5.19258354783359	2.835475914471971	3.1801168838319387	1.3672838176538973	3.4359934243236077	6.869643194020564	4.634341705065769	4.816775786636418	3.4174899968648313	3.9856603044971117	7.0314922155235555	6.1433529698716045	6.589336855464354	4.102835644853738	2.763401262935802	6.659626943940453	6.035004123709612	7.07772014738316	4.038301934536934	1.6152144629706204	4.650855529486966	4.360280979591935	5.441223130793482	3.7058968450441445	1.0558093759583	1.3317998614065105	1.9176894377928821	-1.4557336532078655	0.5525318370220444	1.8742514801388805
408	2.396244043022331	1.7911913349704744	-5.840962872063289	3.412757626500192	5.483329282267985	3.184911004608409	3.4945425899014935	1.705546017155397	3.996154298229772	7.467280369025348	5.290826784127298	5.501043305813349	3.9061767956340674	4.21750258334597	7.937070349681282	7.1243791400326915	7.546125869772326	4.875760066120065	3.637934437149937	7.830055217047417	7.261385899330337	8.105644205609435	4.551354873610252	2.1634979193423804	5.831459984361452	5.644864068084514	6.474965556009461	4.186055172841871	2.0581004567636345	2.399003261231307	2.7698225905105325	-0.5955272897943508	1.5873099525430256	2.7159967353913026
412	3.4285886201125666	2.213097089901969	-4.425414551052244	3.969781865587616	6.046059116357482	3.834855785224536	3.974270572165028	2.4117238460685755	5.032451616932953	8.315733888611724	6.167178138421071	6.320498450533974	4.5549402121937295	4.529106128701825	9.143639541428689	8.20590112521715	8.661109902449207	5.646983132410218	4.478511798995579	9.134761787239677	8.49236200095875	9.37026307601277	5.162693010647094	2.842036478496545	7.073235493921582	6.95822380216484	7.8285231392619785	4.884002673215954	3.2465388692904598	3.606418123676652	3.857983102594734	0.46605896832099486	2.7927637029709222	3.7802503013536124
416	3.6901917364412182	2.7894334722664396	-3.0621857565814685	4.587658393721231	6.653491480241343	4.496061790558936	4.345644463057844	3.322269908146499	6.197494491188768	9.133380866833008	6.973988515412391	6.945449811565988	5.05889700566013	4.832211959082796	10.26832768708766	9.075364089940912	9.567992186231326	6.011124595724248	5.069571959093872	10.134144757433763	9.365610099034772	10.476214382424613	5.619735703584968	3.4190232667431624	7.9277620115395	7.893939951993546	9.066666580197246	5.533283219672381	4.181058396273676	4.562337387010258	4.857548224582794	1.3634098733811462	3.798130502648191	4.751460063382135
420	3.13816260499194	3.2999901688228666	-2.159957880288818	5.017137991635923	7.021296960269756	4.852575766709606	4.361698139622536	4.133393754060034	7.0166935743560845	9.586107229825727	7.406349163429672	7.109878522088345	5.181679235727332	5.0539059511378195	10.882752391041757	9.459703421551115	9.96662328111111	5.752942547578487	5.301063524213758	10.445205662104954	9.62203977062856	11.049456568477316	5.729825005370008	3.656964769667198	8.03835199233939	8.152590731064636	9.737981771678609	5.870716556985727	4.4704098588610055	4.929923998783607	5.413031087560217	1.751273866046598	4.260790814132674	5.286385522847008
424	2.012540335342408	3.549843779184479	-1.9203337382470214	5.066026197994425	6.944398862471961	4.7107348323143015	3.9197509189823645	4.5341362838710095	7.109095555476552	9.44665811060993	7.283966522900036	6.728168947398992	4.866045462720519	5.162641989071295	10.714998218186487	9.245585418246495	9.74361131115414	4.95783995330297	5.187976824059821	9.926753972740089	9.218936896890437	10.897641154431902	5.44256781157622	3.427946320462089	7.318285923600741	7.6766109272736935	9.577448820728934	5.75186489560367	3.9672381777736034	4.581660259123338	5.297368989921328	1.462761160018431	4.020876874308711	5.16759251243526
428	0.7374356370427255	3.471953383262969	-2.296146148606475	4.713646399994939	6.415509207740385	4.111187924495737	3.1317880074585958	4.3740692028237245	6.397922499715939	8.729708649529428	6.655072195416796	5.942533478038538	4.261027325362545	5.17676781301024	9.8069190731403	8.545038201692455	9.01926324474564	3.9710748095388193	4.843854891945247	8.772843338751578	8.357471444963867	10.100890134104638	4.864549624559013	2.7945992876067907	6.020029529631209	6.68461988668741	8.638584115152563	5.211719022943969	2.858082287248147	3.666485061925266	4.528233993541673	0.597824691216773	3.182946435521572	4.414683807671134
432	-0.2331745469643533	3.1791233936153307	-3.0404543799883856	4.148176182764167	5.658351407070237	3.340275994450525	2.3060548247289185	3.7677068615201694	5.189600454579403	7.723897437621837	5.80528067076788	5.076640593109229	3.6553001311521136	5.156520830486896	8.534546830564157	7.669094543167915	8.1010160241636	3.2330105223092347	4.431007850903845	7.455450515997353	7.407787304295182	8.987662292676987	4.2075519455537105	2.0098988959112107	4.649144160930496	5.584390626159558	7.28542135306604	4.447433937288155	1.594429608134181	2.553155654183174	3.3787720118093865	-0.5053046928999485	2.081007475367299	3.293630114822811
436	-0.5701712355523383	2.924368850954081	-3.8116860293473653	3.692748060439891	5.042958246850274	2.817471020260837	1.8310854388736577	3.061221353431437	4.056116093885268	6.884159547591092	5.149276720397763	4.506954181736269	3.3460929309287586	5.179472910201897	7.459396343471522	7.0071916403285615	7.358582478064432	3.075005761965971	4.107473839879869	6.526613218995519	6.757104856597177	7.998231390786631	3.695451488701498	1.4205802643195686	3.7497930432060227	4.798286902710929	6.037308677689389	3.7306353951678433	0.6895604712242677	1.6698874192992594	2.266699785231723	-1.410978552116943	1.1360020608830912	2.209107154990778
440	-0.17459925965096085	2.9775614663288157	-4.292293537746985	3.650126447998672	4.915322768199133	2.900802604980865	2.004280323690289	2.6627073220736968	3.5675046353868374	6.626470549065669	5.04607342399695	4.502953041151889	3.503408899998737	5.306471811248443	7.072932702326888	6.86068962272359	7.07215211990088	3.5721926598958755	3.9860772985909074	6.369105799807005	6.647449953462163	7.494678478392209	3.471472731408714	1.3132061925157719	3.661034574802186	4.58266733919892	5.336470113632421	3.2892806446952427	0.4821734714255276	1.31661975051344	1.5704402883934179	-1.7746200516718589	0.6730220300848403	1.5268812141015384
444	0.7995663861114769	3.477468004983665	-4.280929077784222	4.146896351834781	5.426050172457767	3.7063114549521554	2.887817375521462	2.829103701124412	4.011669625644213	7.1276821910192245	5.629585251899945	5.111854540316465	4.098041047240111	5.553394780443138	7.563985805487732	7.312861424102718	7.3246102148140215	4.5239071731790625	4.112276543725166	7.023920995144723	7.084050637479482	7.6114177511687595	3.550080767251507	1.7796347096334413	4.3699178585348895	4.934126364648241	5.357274518792297	3.218262187461827	0.9927142833441622	1.5480618437782871	1.4686917029493196	-1.4828785620443605	0.7933594564434626	1.4196135961930418
448	2.014524454752682	4.337969292178784	-3.7403175736407124	5.061285006142382	6.445094569146401	5.0330939165834305	4.262077797619415	3.52915572229091	5.249271856406287	8.232428529935332	6.738434774552029	6.138904079196802	4.9250149602523	5.876068577235886	8.728201844113311	8.196656206417249	7.981981734150412	5.565407262102262	4.457479942511815	8.182107904757203	7.854846934514121	8.215396860361633	3.8311729334424527	2.670292370730084	5.535173402162726	5.6249923564037285	5.9506759493314565	3.457075587127436	1.9432064245753817	2.181508535599398	1.8824235153355333	-0.6803228837956555	1.360767003438478	1.8116954519307304
452	3.0802199762777573	5.267151342445129	-2.8026020456127085	6.075091823498537	7.611669521187655	6.440517409276366	5.708441243064378	4.461260307492504	6.782886011164654	9.520366644664557	7.986051062448244	7.234267693374634	5.706073746579877	6.177339061399568	10.06940266927935	9.178529716206324	8.768491722856803	6.345964415740675	4.923786150898713	9.345854735620293	8.648833253005103	8.992078758425114	4.1620321168722505	3.6591482070090975	6.666489107466829	6.343402846533276	6.747425062310093	3.837990512694649	2.9209570810957515	2.915660850792961	2.5434567864098097	0.3193741432709588	2.0986657089652945	2.4456722674611355
456	3.6977674867730435	5.898477062591907	-1.730934257905507	6.822745305955376	8.497647264006929	7.445898514068345	6.789137823130071	5.217720018564805	8.00259683495896	10.502123806187322	8.939516044934775	8.046887377449675	6.215241893335122	6.338980658739264	11.041146250505133	9.917467092270373	9.397525763627044	6.678565485304991	5.363424764443273	10.074419949845296	9.21112630425879	9.609161352692325	4.410457599948649	4.388257015593079	7.364017467979909	6.858980638352905	7.360024433627197	4.173438538504828	3.5901687054590106	3.4900138290028933	3.1466619888968728	1.1841722696924424	2.7383551528458394	3.028620235425979
460	3.760454168362211	5.9702586976951	-0.8467737414915574	7.061144334131553	8.80324647588185	7.744437198159578	7.238481026493879	5.501676068720688	8.47748849635763	10.844763728417943	9.316909766516126	8.37278936179531	6.367212756293718	6.2722577890346765	11.30342862136393	10.21895596785196	9.695224737484802	6.589038355404072	5.616868481759933	10.186505291969535	9.454993224114277	9.872490857947891	4.5126709824115325	4.620921600119183	7.493015747225753	7.124495488298999	7.573350887251197	4.336826313513456	3.835480918737362	3.797006597469144	3.4992847354278505	1.696902390010472	3.1356832901941227	3.3750798617027415
464	3.3690438185508667	5.459683881326708	-0.4363133896302261	6.77420566755864	8.488992669607393	7.343287449416525	7.0752577603044156	5.27757071116272	8.142011621899451	10.515865299377726	9.107447601212447	8.233071306422966	6.2319044909493035	5.970448955720743	10.86711403964081	10.111939404706623	9.664152120986104	6.256198867261257	5.567064748059991	9.820127462389179	9.48065564622966	9.80009744077227	4.478256691116584	4.331194389852139	7.210586529646582	7.266873818170241	7.428226929029954	4.300928581823084	3.7702011966884323	3.895552386938968	3.5903160481405236	1.8128827764516586	3.3016004479020533	3.473022929006118
468	2.757393591594769	4.597446430042954	-0.6563228352188597	6.1613449894795	7.777716140183711	6.541615469629028	6.579346640188063	4.77252053009532	7.286457043371042	9.775255178566923	8.55420110450135	7.845663527707473	5.9738135187005295	5.530989156110057	10.056499455810952	9.811696027779119	9.45985505576704	5.89189814033679	5.1919269430684025	9.324807143510348	9.495542502271176	9.581565832742465	4.359487045725531	3.689063062890601	6.839915735141761	7.479057293128914	7.160559636157164	4.123581399043304	3.6188883690064957	3.9300711055712987	3.5500728994384168	1.6270972449230412	3.3428554450513124	3.44472645843547
472	2.1727423613051244	3.751249303883498	-1.4686300717467775	5.523975835204913	7.031371098885678	5.770225033496768	6.144618972523438	4.330841053518802	6.371382220394519	9.026012397865806	8.013535479340522	7.507834415553818	5.7563075873954315	5.128725515768254	9.319745040251645	9.592372870068695	9.296437240017521	5.6309814310956385	4.587850559095502	9.052353836092758	9.683173155178803	9.451389288881677	4.207456101285153	2.9572448655805497	6.670138342229344	7.879963378084741	7.038784963002702	3.8964891335338927	3.5561327844481414	4.013587464689664	3.534439793246197	1.2876728740606451	3.361199132062494	3.4360234650644985
476	1.7692708924446414	3.2413072504224427	-2.638420336737677	5.115190016229674	6.572262747383682	5.37842749191394	6.083469852347014	4.213074673506076	5.781839832966955	8.609811761099229	7.7705530924112685	7.450180511738198	5.663312420851657	4.940298067971282	8.995732284722042	9.639934515456426	9.332245803159536	5.48472689197515	3.9445207019398465	9.164804435479256	10.093767140653384	9.55057237121183	4.041504372883341	2.3609707295890487	6.796541673666797	8.425813653653623	7.1972970780810135	3.689756622535456	3.6020343212737798	4.149555672659365	3.609693279689501	0.914469776228936	3.3789975557846472	3.5070373923449227
480	1.5677072962280767	3.1874725738158087	-3.8053731822258525	5.031668173484003	6.5402297808507885	5.478667722221161	6.480314238399521	4.455719459728173	5.6536378717733	8.652989365665508	7.908203581870864	7.732449035195461	5.6766490792957685	5.051782118440545	9.159413314582224	9.962331746698116	9.592447256665189	5.3778767449976055	3.4698598297251637	9.560868239105757	10.613900157833825	9.851922964017888	3.8499185941769847	1.9963059374952123	7.084977132075531	8.922710396173494	7.560192565903804	3.52356862132235	3.630493631733543	4.236307133469392	3.7083527948212693	0.5638122544358859	3.3345303451272628	3.591284027569232
484	1.4921436272141448	3.4642610462462575	-4.607253539850957	5.193004118206064	6.849030477397802	5.918820843058123	7.159514885946179	4.8631930228473506	5.848566517368798	9.032246566856415	8.28892705731954	8.224585512377008	5.707538113489021	5.3940667969892	9.614270185992414	10.395820591428857	9.959683393128142	5.226082788624257	3.293286315232615	9.949215863857695	11.024556132138816	10.18166253380305	3.6115159897221307	1.8157359315805635	7.267715435752345	9.128343559106469	7.890374163733505	3.3722600851748266	3.47216772156504	4.141883839640405	3.676234474437272	0.2428712689705111	3.1397366444471944	3.5415773302307403
488	1.4473098479923172	3.7859952354211392	-4.810385215058314	5.408946977310518	7.254532318872787	6.386805995074816	7.7818040651306655	5.13116692201209	6.073970302505275	9.465806937160705	8.64929959974465	8.67878911688211	5.658772454279868	5.7506384704358675	10.021928761928507	10.698825809169701	10.235567067053186	4.999795901073018	3.400135270117266	10.019928906892053	11.114095659805816	10.320053074530309	3.319837323390067	1.688978429344748	7.108222466642086	8.884157158355793	7.929374197967316	3.1911563792722064	3.040721885633462	3.7976701163731086	3.376849165973787	-0.05166774975129586	2.7565579344771276	3.2300209917534284
492	1.3856288159672607	3.8716103932860366	-4.39169405782073	5.491511331044935	7.491966705480355	6.585552675786408	8.019328097123749	5.026913153354407	6.064127906747654	9.67291161956018	8.752321221188646	8.856091476969132	5.481670842635942	5.85327623796848	10.090902303014131	10.683201762883465	10.243051503069445	4.741477954337513	3.6368164924353525	9.618203138863343	10.788709613264057	10.124678586193015	2.996625654284223	1.4947416744640551	6.540798170741931	8.206823328278785	7.54742191316505	2.94983028620779	2.40242719043714	3.252541533841345	2.788621657006648	-0.30575790924123436	2.2405681553538512	2.6401553087334184
496	1.320277925972649	3.596896400907113	-3.5358214289086023	5.3485779627229455	7.4053306392623215	6.380445464237604	7.716805438585787	4.521845806149355	5.718308434354163	9.51241300088581	8.510173776121299	8.642043091889434	5.1956696379136895	5.522860513094692	9.720752691521913	10.310974095061043	9.916336034533971	4.527616012586202	3.7887654208847263	8.825710274348083	10.12244031257806	9.606888746802067	2.6826057366352747	1.1886018484623866	5.707977280510618	7.288843136504667	6.817703706694424	2.6494722299440263	1.7461909011622756	2.6535220079184207	2.0338654466777277	-0.49221309895221244	1.7211654142793529	1.8932720374944227
500	1.2842745748520008	3.055555812750551	-2.5496923859118885	5.020014273366942	7.013339978630909	5.85248182726492	6.965522748527027	3.807350149078771	5.135073648839384	9.039614654606366	8.021683672679325	8.101731279899099	4.8706984396985185	4.7895960686874615	9.039247489995477	9.714907621651415	9.339657759927931	4.40822171051948	3.6997308637669875	7.917834738767934	9.329211211492392	8.926965690962556	2.4154703556111183	0.8185529092149383	4.886172759117457	6.414501173990488	5.980000480812595	2.320443147522792	1.2799164024463172	2.1709184591796022	1.3257759776021394	-0.5953631982076983	1.3351931538250064	1.1964037388159188
504	1.2765169111447805	2.501094811800577	-1.7354733900122719	4.6478795887901345	6.487378580880465	5.240264402510571	6.0566420402199235	3.1930935302225154	4.542613971685299	8.462336518856823	7.512494545089171	7.449732761647776	4.588853824473828	3.9182109733838355	8.326344469029271	9.13606927472417	8.716420151638173	4.368027199207387	3.3670012865888608	7.22831581198097	8.673204400099333	8.315067270266239	2.210661405704017	0.4892834710642538	4.3481540570151305	5.837484821840137	5.318635927123493	2.0066819140315157	1.1199190588332428	1.9155875396048294	0.8661307670660071	-0.6309546216293438	1.157717225012836	0.7438439112002828
508	1.2397396533183225	2.210022920750795	-1.2766501871301617	4.405307758653057	6.0631084289059896	4.814058291678679	5.343791948178144	2.951220504939021	4.17867421048868	8.031269053209323	7.218730908288128	6.953384858695611	4.411792743988247	3.3100042259570075	7.876495341441886	8.814234711327739	8.284780481402276	4.338454712404609	2.9564490243655177	6.997267228579936	8.363179185733147	7.964761713899699	2.061160797637256	0.30434372944286386	4.240185726904423	5.683613762810899	5.0266961924479725	1.7514617398864558	1.2406845061449165	1.8973377895135766	0.7539787869490782	-0.6402308924723175	1.1732729643763324	0.6303048713982877
512	1.0956462594026435	2.3433165491068877	-1.1863847941009187	4.421640384954595	5.936855778010147	4.754231917775771	5.087626921206491	3.1874666133513463	4.187911499894069	7.926677683844485	7.279829960563068	6.818066102933743	4.368799675401726	3.3162574684338955	7.8720373908611005	8.886741615746727	8.219230631103907	4.24831103205969	2.723392718114939	7.277766686184732	8.478614785722462	7.955119589748017	1.9552625368343717	0.32208600558978034	4.5348420028633685	5.921843036959184	5.128746019766004	1.5904575546163777	1.5107717475894766	2.043718571271381	0.9534603929288951	-0.6583014113971833	1.3023838964005174	0.8211110213529499
516	0.8187158683133428	2.8749225067033106	-1.3329532112800024	4.7327446818070715	6.189742072690275	5.086902605565009	5.351493345100839	3.8004193210017876	4.579324710728356	8.191295603098263	7.688420753141094	7.1041130840230675	4.463394630607232	4.054381837145262	8.321733453721087	9.338952040935572	8.560520150505905	4.081908692544513	2.8767838405456567	7.936743239391581	8.954115845007777	8.235826471516107	1.8985649299371141	0.5427905903463518	5.072128759929702	6.406783087767299	5.49596785111425	1.5510594805657627	1.7851813986529455	2.26003574754408	1.3327044214933381	-0.6800327283856215	1.4620197974485865	1.1899375885484307
520	0.49693629020157903	3.621495952999546	-1.5165955982064867	5.2720613346507506	6.76696918686402	5.69780062190594	5.990763649120381	4.541033256509847	5.24575947390783	8.732214905626616	8.31345269965264	7.710404376590229	4.685370433422042	5.3272013529746705	9.080361343346263	10.024174664937973	9.204414344436868	3.9059638878434675	3.46254610141111	8.736610390539836	9.62237355663846	8.674644448313472	1.9240198086799145	0.9273564196061294	5.656572327637473	6.962106687134284	5.9357118456705065	1.6522242981204047	1.995735521046152	2.4903526243276985	1.745110149745937	-0.6479772312970592	1.6202383000474752	1.5966364104967736
524	0.3289549938479658	4.346630085461361	-1.556692953947841	5.901408180595982	7.512156467544859	6.404540522617931	6.736004335562804	5.136436926271245	6.021303161677554	9.3792714835828	8.975223518599504	8.430073716814254	5.0161685816957435	6.695708734773428	9.926783536643823	10.737928363392268	9.953550313614818	3.8445310495586287	4.333092201736996	9.448955512032352	10.291204426531856	9.134610153023752	2.0788133091893672	1.429658766951677	6.153983577449746	7.458858471158427	6.298644049954386	1.898297662710616	2.1862087194559394	2.7425470282930196	2.10308551257352	-0.4744338381233062	1.811019892888552	1.957247848337538
528	0.5345807658050069	4.877010333145717	-1.353371735970577	6.463561995399825	8.232526758389673	7.040583592758903	7.321171265237743	5.411448465036137	6.742344362402266	9.962737058281565	9.526619887141445	9.045624710133184	5.423203931467638	7.677054385829703	10.655327770033919	11.305542917318064	10.603742572715428	4.015764226311365	5.2182655202724115	9.940727208788795	10.815620395056465	9.53378579593683	2.389733070062085	2.012333149597692	6.534983618449483	7.8495635788145695	6.5397014452808335	2.2646384182020154	2.4696531233423618	3.062588922397711	2.400840037960068	-0.09363008266889927	2.0982863850069013	2.2647023143810534
532	1.2237240045169002	5.171454416569798	-0.906147775746407	6.839391691106219	8.768483139787978	7.513076763257867	7.596897106063819	5.353966699434194	7.292276364035061	10.376040432482215	9.904088948993602	9.418798422875094	5.853837475302268	7.970110396289759	11.142912836551908	11.64506909291348	11.024449320615648	4.463261593040429	5.861302360995091	10.201071713441547	11.137760134233375	9.85893342390009	2.827344410433663	2.640631430634682	6.852972013337557	8.15202901689369	6.705590708015079	2.6851334504045274	2.9386606142236618	3.47967123106758	2.6801872185749747	0.4866941856971034	2.515262597409338	2.555669062837717
536	2.302288049607203	5.3145685061742896	-0.29542523547925115	6.993822556957774	9.048246360822366	7.82215402535594	7.586752395548661	5.106596456986233	7.626775722321391	10.605985614701952	10.13765713993222	9.541395163288223	6.2435922465045115	7.594291191000819	11.376685113793721	11.78737923507127	11.202518434851125	5.1221346725842105	6.143574699149609	10.313512776084906	11.289145441163175	10.138586972388369	3.2944393074782385	3.2652299321705156	7.182380181298607	8.40676782392876	6.86988542729632	3.0565662306862325	3.5871267228159343	3.962655295857684	2.9701771661155254	1.1674050063223	3.0216224117284365	2.853413097806811
