time	FP1	FPZ	FP2	F7	F3	FZ	F4	F8	FT7	FC3	FCZ	FC4	FT8	T7	C3	CZ	C4	T8	TP7	CP3	CPZ	CP4	TP8	P7	P3	PZ	P4	P8	PO3	POZ	PO4	O1	OZ	O2
-200	-0.9321078038524035	0.1873063440362217	0.0731669737041452	1.0204038594232396	-0.012233572981167163	-0.03747779866531494	0.9544161534054554	1.6075890023651782	1.285356518361232	0.6674126965838353	0.15918852348667556	0.7438736539179506	0.7076047641054986	0.4235255111491762	1.0096595261831545	0.2719703905868393	0.7672098259629142	0.23337605536666894	0.27035584977556226	0.4072512973993711	0.18066221429988372	0.09640440320470714	-0.5139635192292529	0.7051709276515299	0.4551087606383754	-0.042152684075503336	-0.5838555082839022	-0.6029658302342494	0.2721101634784847	-0.3858343055043624	-0.9865334605104936	0.16037216742079805	-0.3093582979974793	-0.9588611101737129
-196	-1.45387374987699	0.1318934854515316	-0.27426296403304695	1.1527830333214972	0.30367681307415584	0.032235115685139426	0.8567612149541954	1.1418688268442312	1.1797360152023	0.8987864829259422	0.03784622614961233	0.4465888727356917	0.2590795748845222	0.3386640242132386	1.1723610133135716	-0.06432395412178876	0.18362207664382832	-0.17970898702071994	0.6357513054055329	0.5349704013669199	-0.28845602201112897	-0.5490103946176051	-0.9253497100355428	0.9600630378325741	0.5861598834497456	-0.42906260382089584	-1.0889663668795304	-0.8981882311078421	0.3450721791615066	-0.5239344822053298	-1.2739247051500433	0.27596926619472406	-0.40598791735190165	-1.1914411753137386
-192	-1.7351250604690838	0.31916233816628425	-0.32582628644696	1.2728192774108298	0.6083722099203066	0.05459651709719771	0.48623150464320253	0.4274026740727369	1.108377930703812	1.0886251898936976	-0.12826338377994112	-0.00822810081550305	-0.11573059082614406	0.48507970449047094	1.2878174749285052	-0.4551456261110759	-0.4538960147365148	-0.5640758857790619	1.0858546468022428	0.5171946870143689	-0.8696326591470095	-1.2006880014622676	-1.1726369828181848	1.3633350099474975	0.5623605237114018	-0.940140841017791	-1.5584880074253644	-1.023019072810802	0.2986813180058204	-0.6767771226962093	-1.4354547225950025	0.38281586669591267	-0.5480657802095896	-1.3181920018293558
-188	-1.5439183673025423	0.8026759008169135	0.0555325782387095	1.4343208038356583	0.8785080291502361	0.09327739453607314	-0.028134277019398038	-0.19275590728730968	1.1397749156785584	1.2697234121690124	-0.22134929839515674	-0.42754271518528314	-0.22570249381301427	0.941357252605296	1.4233049118346621	-0.6837755424401977	-0.893000779281492	-0.753240225797531	1.5639563759418316	0.491435407351469	-1.2482442824319822	-1.5623385866774224	-1.0727232667542195	1.8699865293973903	0.5370627032071879	-1.2620513407314733	-1.7328840450404768	-0.8414086082195806	0.2888127856115313	-0.6508278234262452	-1.309672948391697	0.5660076127067103	-0.5443174229230634	-1.1670336693862868
-184	-0.9405121183491595	1.47737896069411	0.8064815381669244	1.6186035830639924	1.0733007165513455	0.18159295572686274	-0.5443205223645838	-0.42035218967166865	1.2394003836811176	1.4229940140082986	-0.1943493629555507	-0.682860193912693	-0.06858994049397946	1.6286759335405765	1.5725980957381287	-0.6490030272310537	-1.0045537923245853	-0.6610571129321264	1.987555737245698	0.5378923998603665	-1.2411216466085955	-1.481454726293561	-0.5943324550881999	2.33605265027574	0.5940148219369938	-1.21284222296631	-1.496133204497468	-0.35131895453445267	0.3919932236311313	-0.38871404430476997	-0.8943418241809078	0.8097723105966652	-0.3320090464315789	-0.7249400597389162
-180	-0.2502939396737784	2.0992860741065504	1.681520100162834	1.7372217134484094	1.1582781047187563	0.3122496895059111	-0.945280132291284	-0.14066645467529262	1.308613177810266	1.4928754530408495	-0.0778250096263562	-0.745872138047579	0.18164880527887628	2.3341002405364066	1.6653045373833397	-0.3943983306463908	-0.8172484019626777	-0.33512753163603154	2.265300506594509	0.6494222863013454	-0.8673322178877113	-1.0013185714236348	0.11622926563481775	2.5700368816338393	0.7078111749898346	-0.8188877085037963	-0.9192200279869623	0.30368345899203153	0.5645800218632993	0.005877157192740025	-0.3402440837376002	0.9998620723275807	-0.0013673421892274364	-0.14073555135957405
-176	0.1338120099503957	2.4018526016629558	2.3716418683255345	1.7002252297390212	1.1497641772805351	0.47158461690094655	-1.1356229753432767	0.5474894629007114	1.2754565445169033	1.4497456513995586	0.07849620262831608	-0.6448124630860553	0.31299015800608626	2.816933624784899	1.641106959014257	-0.03841188912826383	-0.4484610546233599	0.07992828617181574	2.3358633459244116	0.7797126750333678	-0.2908749871062637	-0.29594269320156225	0.8169269541142156	2.4369347033962816	0.7979156950832349	-0.25769808823372853	-0.19074709665300002	0.9131953693222109	0.6961507183618647	0.35440504461455163	0.15459625383922757	1.0076526377986341	0.287023007145057	0.37845140600022104
-172	0.0010799895944746357	2.242886299192603	2.6544523172117263	1.4979829750387574	1.1356651754316713	0.6786776763947189	-1.029690978311535	1.4083962404932135	1.164324638288085	1.3430056538052817	0.27271625330735305	-0.3950567235509175	0.23924827515279212	2.932451956020953	1.5246864518771603	0.3298670939223384	0.0022454298975996484	0.43915641196954475	2.203699106374671	0.9160832143542875	0.3067005268936549	0.4507297862117176	1.3046665158710729	1.952721113996855	0.8225040415024785	0.2771902971421875	0.505697904740539	1.316795703424373	0.7095173579422224	0.5336352573273221	0.47389554857769867	0.7951211313199963	0.4261741031377284	0.7016647440361146
-168	-0.5276303277999416	1.6943818287985741	2.48671817151705	1.2294111220791408	1.2393436400594346	0.9851793621939051	-0.5685739502856801	2.188281053740258	1.08863591872973	1.291793462352854	0.5642995224056945	0.028048919443004888	0.06853668374400711	2.694328539721522	1.4336882793468988	0.706388590936572	0.5109118210291024	0.6799295527457757	1.9418060730545643	1.107563373630368	0.8286247828543651	1.1319497795136226	1.5123798809014566	1.3011984792282174	0.8315886834129831	0.6899776441319974	1.0791666480474609	1.4793229065739066	0.628710208735993	0.5554802403730599	0.6450952275201559	0.46137615921836167	0.43678930291523366	0.8454481341950996
-164	-1.0501445505331493	1.0155504916300122	1.9930822798953192	1.0480357382063201	1.538156386306653	1.4274562561234974	0.2291477018769783	2.703528874247244	1.1672793597314308	1.4089508021068036	1.0184757683789132	0.6475753767829981	0.02530602359343036	2.2420537415164823	1.5037844143093884	1.141833898522481	1.0988017292890857	0.8312816002838757	1.653284783957571	1.419916626206315	1.2777013746427666	1.721017475551394	1.5083203277653436	0.7498812060496945	0.9342936849847326	1.0040603850763803	1.5322129687725254	1.4766863547235687	0.563920138842657	0.5422273860592911	0.7925928811089418	0.19141717206787318	0.4397708762509829	0.9342254972712817
-160	-1.1165144415322683	0.5215176926797238	1.3800970281089127	1.0567277643226805	1.9873664328943694	1.9658793161349595	1.2185611694087803	2.8635282444182355	1.4211732113242972	1.7067599253478278	1.6222375590374836	1.40906738879169	0.27868446637364463	1.7414975122352214	1.7785690977968371	1.655862208000441	1.7471271709200435	0.9530373191613475	1.4137600624630087	1.8512792540539966	1.6911225276211952	2.2089006845017973	1.4102796280540713	0.5093340264812366	1.2033606737272482	1.2926784721162445	1.8928097438707119	1.4110476935047078	0.6265549047863566	0.6209059938013206	1.02149390916414	0.13869327271730753	0.552599130665826	1.0849707099224555
-156	-0.5043189512871419	0.4236644793781192	0.8356599786640871	1.2239645688626064	2.411132329575318	2.4659664568630224	2.136506075233282	2.6473877363122043	1.7252576307607204	2.05709695296673	2.242322200835873	2.14125918801425	0.7953287939018694	1.2845258680337395	2.1456026976773566	2.1703500692884594	2.3351046980076258	1.0524455282342489	1.2302314011984687	2.278775924651307	2.059536928699095	2.542124980230311	1.280579682931703	0.6173508151680236	1.5890549381190644	1.5827647407625092	2.1420295184413827	1.318777200230283	0.8355965593222062	0.8152084330003904	1.3179841008289042	0.3174571982951773	0.7865129689386231	1.3019622531444408
-152	0.6294789298377205	0.7285528760635654	0.46891164661274276	1.3836438620919622	2.5811314517657404	2.7486472060425107	2.688226693041982	2.0777573533051923	1.8589714718614188	2.2444555702762874	2.6679706506126544	2.600375168910758	1.321182724478055	0.8543041326888231	2.3736762940558718	2.520530932738444	2.6614787511386884	1.0459171507177725	1.0441095802648777	2.4903957780904067	2.298718923487064	2.619628661217494	1.0772438022118616	0.9195600128799027	1.9124058436747522	1.8080284549841172	2.198422903232475	1.1361992330475104	1.084051844720918	1.0131894324471307	1.5380701979905254	0.5782208428089315	1.0191565726298188	1.4571407996581702
-148	1.8087745859255318	1.2504384486099143	0.3120976380574729	1.3308559622542306	2.349038833409457	2.6916353634587904	2.683984034437581	1.2244433133682335	1.6344352919321024	2.0926988072011845	2.7262217929674155	2.5909387999923217	1.5196874103324696	0.379164098736001	2.2438719215961207	2.5495996410848525	2.553012841454653	0.808074770317748	0.7816769460969816	2.301285737903191	2.3019564093645104	2.361464017627964	0.7019901257911219	1.1655052870888152	1.9590150068413772	1.8506908370022594	1.9777339646951173	0.7548745851531459	1.1982645958211082	1.040444371457603	1.5009771547568447	0.6939778310420639	1.07037937370899	1.3779367173691277
-144	2.490422719389777	1.7256904796899863	0.35907423405588806	0.9614726280733085	1.755906577445424	2.3215558470286495	2.154765362067675	0.23295533598258406	1.0257874701350502	1.5908976753122879	2.401042455333214	2.095001453832334	1.1850725382448568	-0.1677810396488347	1.6991659359947473	2.226831192116439	1.9931925484878752	0.2796586148830717	0.4220862079930964	1.6881577925975526	2.0357770868401373	1.79928981803566	0.10838651629739528	1.1644207209752204	1.6213464696003412	1.6418763357670754	1.484156724043697	0.1288425621117613	1.055217144209307	0.7918701151882201	1.1263596983128314	0.5086586462529918	0.8332564809742325	0.984571096795508
-140	2.3631477296293286	1.9571484277903037	0.5937070831567954	0.3640205254900857	1.0406700346421531	1.826842661059968	1.366100784667382	-0.6665405614236837	0.21713940744413868	0.9302762127277249	1.8696083975318898	1.3170211281903441	0.39334246416918295	-0.6970301252886605	0.9128137207826776	1.6999884800905711	1.174892303361502	-0.44104140885580734	0.03528276822003594	0.849215862991129	1.6010553796399747	1.1103638382534244	-0.6107806547956651	0.9052913166077917	0.995557603706704	1.242641803465109	0.8570771195707074	-0.6437313540418488	0.6802702528944518	0.32996034538885405	0.519176362634213	0.05378065617215261	0.37008467223190106	0.379206447836007
-136	1.5157107076523852	1.901000971762934	0.9800121759467276	-0.20746752567362833	0.52385341988864	1.4629077874442082	0.6978867632412097	-1.2147656648483558	-0.47588416813864165	0.41174504056925415	1.4132615292153659	0.594902275490814	-0.5152748810156453	-1.0198898289679945	0.2160689825324812	1.2279905049791509	0.4206537295688261	-1.102099773485471	-0.24257440803795674	0.13110579517165236	1.1991741626980843	0.5478448853966098	-1.2292180030305562	0.5613491521014063	0.3579494348071715	0.8357779958604444	0.32231831469220595	-1.3307228054781386	0.25264191563716487	-0.12706243959771624	-0.06542959792783898	-0.4490534055816422	-0.1008939516977247	-0.18504127813350843
-132	0.38345518611415935	1.651541944148739	1.4272583687033427	-0.47606781004873094	0.42362615359162537	1.397124406148198	0.4460178304378628	-1.2400811879320233	-0.7742290477278767	0.2692782276030663	1.2483246294929367	0.2176965171562865	-1.123712059998593	-0.9539333557839936	-0.08369904735414042	1.0262874338941639	0.006279930922179948	-1.414995309118215	-0.28611281441931247	-0.1490175720267209	1.0151169274450107	0.29883435293089483	-1.4974979124407999	0.3722458472390331	0.022765429633003046	0.6249474867301121	0.06853199732882347	-1.6758575397141788	0.007873659002273346	-0.3271851233327962	-0.36295509246741553	-0.7091577035165557	-0.3269236973614714	-0.44457569606116326
-128	-0.49681389206384174	1.3477791513747117	1.7748018458379649	-0.31649824897012957	0.7118076664119344	1.5885846574729738	0.6564924700374621	-0.7728873471773702	-0.5963737949573136	0.5144880997065966	1.3802816832979607	0.2561157041282266	-1.1828168600736721	-0.45287677531342896	0.10987511249457993	1.121043917686604	-0.006648908352456265	-1.2241396873085144	-0.06394879503793904	0.11210370035478275	1.0906633111120014	0.35860118179382255	-1.2941307988871749	0.4780281174034771	0.15957756300214232	0.7024549824145515	0.12499645320805015	-1.5460478028364117	0.09346931404118476	-0.14346237444419643	-0.2605735056974008	-0.5426530824312022	-0.17751695170883336	-0.28972047494220166
-124	-0.7788501362210009	1.0700875493689064	1.832887883327115	0.1495552208223987	1.1062755556786024	1.7870087578478557	1.0934377881100015	-0.07359869014516338	-0.11355870188414069	0.9061251855860941	1.5812522133005076	0.5145848380448228	-0.7626490573701505	0.32478940404906514	0.6080134495643094	1.313823696634086	0.18248332990826954	-0.6212462767174841	0.3250202528376974	0.7268830519443987	1.2788512674468702	0.5128027187751828	-0.7207212429923655	0.8110724071052237	0.6824312788899722	0.9775372718926124	0.32764443672427573	-1.0245487664104553	0.4691362369136894	0.3340208820016033	0.12612906066521257	0.0045372750495557964	0.26484087042699844	0.15440161487220494
-120	-0.47670784472271316	0.7972258905309908	1.477138515557693	0.607547758475855	1.222351905597635	1.6718584256877156	1.3739312852503343	0.4708300817046399	0.3408746114707647	1.079878208294993	1.5232903918907559	0.6499295218271033	-0.20824779517525177	1.0635703775256193	1.034185764562699	1.2984507051110092	0.23491701424415656	0.07636553029807082	0.6918857080157298	1.3083164658893234	1.3282332386814455	0.46160730603021705	-0.06785086525237238	1.1218430967617348	1.2883493867771376	1.2259521453422684	0.4133729924255718	-0.38161298536273747	0.9228236651963393	0.8423068502140779	0.5197381364098027	0.6699879152548542	0.7472528200356703	0.5937358722001492
-116	0.07696489225267711	0.4473233807714044	0.7432511430094881	0.7305976730020673	0.8030164817563002	1.0557355854082544	1.1963111131981716	0.5429638014436319	0.46143102529373886	0.7693829517012936	0.9926161740991096	0.3906503309877323	0.0759984401929872	1.440799232659939	1.0426835987468714	0.8646596648320198	-0.10465563062232465	0.48605775710412097	0.8574823715495121	1.4851748905831796	1.0510646078275792	0.01896043862085737	0.33626726184822664	1.1320170135527594	1.6284974772345695	1.2345362870518577	0.19149295937351377	0.06689517928161784	1.1970746486958166	1.1020574541877872	0.6525049789167007	1.1213208408655313	0.998859343391056	0.7420899849275504
-112	0.45077383404409543	-0.029907749890277124	-0.146562635528555	0.38232490323813734	-0.10463482115076998	0.031349655161623885	0.5316345678258426	0.08026975373029123	0.15367297789398782	-0.010516410666974884	0.056473351872436954	-0.27385994722841567	-0.1187476363760257	1.297588225903287	0.5336454497215529	0.06493652595576005	-0.8187987783740159	0.373425333749193	0.7536780219123009	1.1199103565551276	0.47207054376625107	-0.7343940716321613	0.30716431063348126	0.7229753714427901	1.5136002263955068	0.9515748596008309	-0.31335696498910787	0.1318472918519473	1.149713990169761	0.9915769075154298	0.43769866117595346	1.1498467893179853	0.9000055171178107	0.5018770086015042
-108	0.3788017024966816	-0.5779327139568148	-0.8587095119730497	-0.2825598411578666	-1.1360771627353186	-1.0348600123026959	-0.33904758010139985	-0.6679795963588627	-0.399075507110107	-0.9340593195220674	-0.9286503172316468	-1.0553282472668877	-0.6695077998424006	0.7314764838824169	-0.26687157086704655	-0.7693371157295771	-1.5865275819776792	-0.21147176569952933	0.46503168227088465	0.39854654569138326	-0.14652070366106137	-1.4513491355492576	-0.09458606666287694	0.03980762128912287	1.0286779377714903	0.5399758802132301	-0.8454815724007341	-0.1497881557735928	0.8462293126675535	0.6256611927448508	0.029551582336321013	0.7938552478774525	0.558604298611785	0.031785692939377365
-104	-0.08775760211245588	-1.0363119814457586	-1.1049009533642629	-0.8924555159924634	-1.7849692061180809	-1.6802673297421078	-0.9758752559818916	-1.2680306402616652	-0.8311994650835826	-1.523214574782793	-1.4940949640698749	-1.5189529619014015	-1.194570419156546	0.052974801376823914	-0.9209578014010014	-1.1949099272123294	-1.949823970640217	-0.9608135795176909	0.1815885449831605	-0.2695968144285864	-0.4406415212950188	-1.6955239729988765	-0.6075054987828159	-0.565415738585585	0.4811187374365676	0.28466913032185265	-1.0565869781520765	-0.550790785352551	0.5185216056130084	0.280927508360169	-0.27387788822644776	0.3112457684764938	0.23798231720444263	-0.34952291758029275
-100	-0.6253307445950503	-1.224958893544239	-0.7988664487696466	-1.0727231475449304	-1.678843851619176	-1.6017895896524643	-1.0344459984411314	-1.3510388101799584	-0.8035681227423037	-1.4131669962489908	-1.3265190091020334	-1.341789480636355	-1.2937039104223713	-0.3752802004875977	-1.0276221010966047	-0.917645809717774	-1.587432738110953	-1.4841811619479932	0.08623852559012617	-0.4894031869929829	-0.16874192612483277	-1.201381084269966	-0.9317675209362399	-0.7293105703060372	0.21016862935409505	0.4047726382526445	-0.722875593267688	-0.8022600392113656	0.41035115615237844	0.21055322832353726	-0.22770079912870878	0.014589374848128405	0.17803266599528916	-0.3683346202610693
-96	-0.844515440716009	-1.059292432971601	-0.12161932854940892	-0.6727507097425077	-0.8001553396050156	-0.8432698228526379	-0.47543910025722746	-0.8385062196542156	-0.20769675023569453	-0.5736428484738713	-0.47053146243506916	-0.5248302804093975	-0.8070863464959332	-0.3289645901957504	-0.4633175719007617	0.0062055634178008	-0.5338999615541012	-1.529426809264179	0.24515066979025663	-0.11649765044840253	0.6105607732616438	-0.06343211217600807	-0.9071930027945493	-0.29836973472604367	0.3737338473897715	0.88866698517546	0.09238959825554637	-0.7585587482374112	0.6078247412594269	0.46776726723826695	0.18930119228252795	0.07269219290738553	0.4262461055484353	0.020562855474888706
-92	-0.5335533009409629	-0.6236582382668755	0.5490376935448433	0.13061992791099244	0.4751154470369143	0.19880405018204325	0.3960913409723166	-0.005423257113711805	0.7485069613632228	0.6439229829743179	0.6582405550550213	0.572920499785662	0.06815430504757719	0.1596940602800617	0.5266547785813658	1.1552792758383883	0.793321428680192	-1.1194088430752536	0.5655938372637243	0.6454696638976896	1.5236091575302098	1.26589417137973	-0.5980235919158863	0.5570970163585104	0.8418149926866332	1.4614828788098053	1.0361734602516504	-0.47762143491320136	0.9640036200980157	0.8525457360677438	0.7406196575539432	0.40192225473971466	0.788892565165983	0.5885782226961117
-88	0.20641015417914368	-0.14874553642865285	0.8180626610128985	0.9210026240937593	1.5526072939773823	0.967037854137291	1.0922993393976659	0.6695089919352931	1.6281696516891324	1.6700154500759137	1.471878763297413	1.4106835091260497	0.8800385572149143	0.8184390643437047	1.4445553981549113	1.940848226415442	1.79017185712881	-0.5204731212826724	0.8462933280558806	1.348556157522042	2.057271236947613	2.1862823907966957	-0.23287650884006764	1.4118028843521053	1.2649983135710179	1.720098848768435	1.6386322933787203	-0.16759152668124982	1.1723301381076559	1.0227555010722706	1.0622732612492922	0.7170690876022638	0.9407666301817079	0.9604384874890664
-84	1.0089795563972737	0.10006242220172382	0.47374758004741735	1.2760406700342275	1.9188961934279578	1.032765981927734	1.2140190570697842	0.7884966711163844	1.9831255624293076	2.0077311941954923	1.5184619388389817	1.5588154753429337	1.185808894024553	1.2789581981793272	1.8042687132104676	1.9174991797672394	1.9853445241394034	-0.06479995681376324	0.89274209512382	1.55080568398895	1.8380943490351003	2.261934513103251	-0.04102611158860919	1.808526630603892	1.2827084032098368	1.3683148587966187	1.5720306595212996	-0.035224992692942964	0.9544438099605613	0.7107863408262866	0.8856888987114213	0.7151380163257062	0.6345263703538465	0.8437008836425651
-80	1.4362443649269931	-0.040194783258283934	-0.39574393530112034	1.0073978875475071	1.4002202713900156	0.3211030355929488	0.6722919923974745	0.28195711899141956	1.5818542202112191	1.488231178340966	0.7260964494492839	0.9389970874920838	0.8171412328116421	1.2651956049447262	1.3914295399821563	1.0308999989231067	1.3003045287681332	0.05768050611357368	0.6270314439201327	1.0666582557450572	0.8542596676239329	1.4603247605647434	-0.09573735272554869	1.5084559879365098	0.7444069366734096	0.41079580680128025	0.8433587529824181	-0.13933376932728556	0.24633777079376737	-0.09084121859980294	0.21404378062089968	0.2742505960692873	-0.12372872947210367	0.21759842281239505
-76	1.2101858823739566	-0.5458248243856272	-1.4379752838069004	0.2626464956328103	0.23990005194176542	-0.8550460317004692	-0.26815941862113457	-0.5354544506859188	0.5281596766488553	0.34955191523990276	-0.5571653232812506	-0.12880182233716017	-0.015806857456591536	0.7246841769995415	0.3721312275074194	-0.3415722540337769	0.09886687969041809	-0.0907688958141312	0.12887112763769779	0.07279003393153731	-0.5133155571375355	0.1791957612281772	-0.26644954018077993	0.624825952859722	-0.18981149744748407	-0.8165888169652584	-0.19536139021663693	-0.3462227276167011	-0.7354485970048651	-1.0948499413504547	-0.6602535231132936	-0.45817726734831005	-1.0476928922904376	-0.6384665353867758
-72	0.35536262303277305	-1.225441333537833	-2.210942024370911	-0.570552824487227	-1.0435229513524793	-1.9696348855834853	-1.1453357906034833	-1.1436438531611608	-0.7908746580183397	-0.8999702311681927	-1.7486183599192695	-1.098856327143562	-0.8449752309446456	-0.1555911596661453	-0.8058046678225639	-1.5813646276602702	-1.0024213765584848	-0.2501850419880487	-0.4119843532174231	-0.9881233548012184	-1.673877115791872	-0.9549794769018053	-0.3122661403878275	-0.4369814980918266	-1.128469821941842	-1.8045808031297235	-1.0282759640481398	-0.41918900503181367	-1.5923138816685756	-1.8608728600249533	-1.3093706336341593	-1.142249104476938	-1.7145458416566004	-1.2951723304473504
-68	-0.8174874165876235	-1.829492206722834	-2.4007658897821544	-1.0990897389319132	-1.9340329121397413	-2.567214482501561	-1.564555402620312	-1.127460476889764	-1.8948925685724847	-1.7532772973617303	-2.338131898698835	-1.4945830069000636	-1.2170025079518392	-1.0477057668936767	-1.658172722444681	-2.1472766345170022	-1.4583992921247806	-0.14652903341014772	-0.8014532903463675	-1.6484459596976322	-2.1274850314785922	-1.407798525116915	-0.05498711005871499	-1.2004663913935523	-1.6624473291386004	-2.132866377213907	-1.247542735764747	-0.18373846961361961	-1.9558500002117947	-2.0345439859521375	-1.4058339560300783	-1.44454764955111	-1.7987564756755565	-1.414135810142724
-64	-1.8650217009187142	-2.17903088973163	-1.9674599121011227	-1.1527363032801112	-2.172588104484835	-2.492624514962221	-1.413557883508441	-0.43243995199695445	-2.4328870711890938	-1.9556212375857243	-2.14400672371288	-1.1569898099298337	-0.9515597200210961	-1.6390216309174102	-1.911842579783047	-1.8448580456885557	-1.0720798942201384	0.31721115032216574	-0.9414072012974917	-1.659480805975619	-1.7158160166335572	-1.0004385684503927	0.4848135101475761	-1.3721270526575384	-1.5846953352019097	-1.6864907698966831	-0.761515198215451	0.3412749758687102	-1.6881641106898828	-1.5409949979022692	-0.8997951127222847	-1.2344487874335484	-1.2551599709292314	-0.9347940063717141
-60	-2.4066522060667315	-2.2394406738961266	-1.149530288655027	-0.8648904540160075	-1.849075312714346	-1.9384146879846964	-0.9012284256115799	0.5917246922812157	-2.3216540754829915	-1.5965480764134394	-1.3758406604362483	-0.30726891678479795	-0.2302607739118649	-1.7641347602173136	-1.614092822768069	-0.8990213252257643	-0.07277113180861064	0.9859168504618491	-0.8664517976819569	-1.0995779009713913	-0.6841120106591052	0.024986883562302328	1.0800840827375273	-0.9837434267002466	-0.9874833201272362	-0.7023787480740762	0.17534851983621821	0.9344941354046061	-0.9506804919082341	-0.617456732621522	-0.03419158971617812	-0.6557297094001973	-0.34027087602535905	-0.09710819994727685
-56	-2.2715055885185396	-2.102621073182603	-0.33166670715517577	-0.5605449066314826	-1.2942476239906398	-1.2936239209892846	-0.40567076103785255	1.38978588230198	-1.7376375154493129	-1.005412218416473	-0.48020747182721973	0.6020963772831059	0.5308258520075719	-1.451658960492018	-1.05388819905275	0.19980409690955986	1.036615130668321	1.5415972432315594	-0.7000299674479873	-0.29472964927647854	0.4727523016914707	1.1616772383924254	1.427218433591444	-0.34658878954166494	-0.1861404771873586	0.37605696821634943	1.1194956274378274	1.2959773507776544	-0.10152232621310216	0.3318394116129764	0.8053331354789364	-0.03009139925094703	0.5401549325656833	0.7079780083901397
-52	-1.5389586648233042	-1.8976589393388157	0.14833575449685663	-0.5273165093459914	-0.8514576532801161	-0.8943585134814027	-0.23145580233311075	1.523558612791568	-0.9863276456726039	-0.5282424675002393	0.12833905187629244	1.1500287026933804	0.9390959715975165	-0.8822935201303637	-0.5593866691771314	0.9754138564278502	1.7629317000702045	1.699040289403878	-0.5671682343468465	0.3870131661657537	1.2829359737430148	1.9150340508748427	1.3322316374521732	0.14486750923774505	0.4746095526156604	1.1447532148069195	1.682702656312192	1.2280935018050627	0.5129880892199663	0.9666066741380744	1.309300300153502	0.3442942193398624	1.0625716421002844	1.1642186612299419
-48	-0.4668644356861335	-1.6947054820188874	0.15106342694766492	-0.8172976353991378	-0.6722555739596087	-0.8290083387425264	-0.42592432987442774	0.9261520481568386	-0.3348793975004581	-0.3269876233428316	0.28935879395861774	1.16770696345197	0.8553656914095926	-0.2936559014058832	-0.30321389360167655	1.2065212696131284	1.8715447140171744	1.3825093472861718	-0.5242522345658251	0.7363425474649494	1.5293912848959823	2.0414617010073037	0.8347395637417894	0.23679053723632884	0.8070328215250601	1.4382358753132005	1.7207958654826785	0.7601739745021014	0.7432094793628953	1.1848537891990836	1.3982789481145825	0.36925327684635056	1.1538672418072242	1.1930714815535188
-44	0.6316522343900337	-1.4658040963358214	-0.22839040996585774	-1.2110164134921602	-0.6591921432064579	-0.9142348743244693	-0.7653539757478732	-0.06546889974038853	0.09556755399417349	-0.32153186120870264	0.14456026219586485	0.7941369990325945	0.4558864820414411	0.11381558300131286	-0.23608507156370964	0.9950136517198571	1.4652976952750882	0.7746503333560856	-0.5478230104920324	0.778006968918137	1.3126034703493248	1.62290393896439	0.1917575145886814	-0.06495604647687471	0.8458080866439893	1.3682619298721919	1.3646413053390967	0.13845275307508487	0.6863034946280291	1.137702700603529	1.2234030931102398	0.18755871010156352	0.995678064693491	0.958932456933329
-40	1.5013627968075678	-1.1263831825428134	-0.7444458585063497	-1.3679215873513837	-0.5808394536612375	-0.8488247969177449	-0.9139985419085315	-0.9155675149689928	0.32747116602235116	-0.29883781000028303	-0.004537568881827345	0.3475785842703061	0.0966718790474614	0.22652088048487534	-0.18018324627683915	0.6379318817244903	0.8664644338666173	0.20785793609592143	-0.5861436709864075	0.686197040732729	0.9231405830918099	0.9559946632090567	-0.2696307890760226	-0.5440748320194401	0.7605862598289719	1.19088160691	0.8920913316138053	-0.31382065932196734	0.5762717709296972	1.084361192826521	1.025663850102098	0.06477854384518174	0.8693080522523822	0.7252868991659884
-36	2.0064413496858093	-0.6283017977110232	-1.1493010491917997	-1.0660833093430053	-0.2738330357313675	-0.44196417816156774	-0.6524679644323886	-1.2038631408814362	0.4404014039841474	-0.10538525852775867	0.07198157143300628	0.10549154105970546	0.07406058888810349	0.021263180246909007	-0.006661656761486703	0.39943250912908784	0.39190304180381386	-0.030629286465203312	-0.6290085299823407	0.6107855423765244	0.6188589318863229	0.3434961131483349	-0.3393865517153817	-0.9471406912732504	0.6855467540598713	1.098092791645917	0.5342373834473229	-0.3799179782812168	0.5913727864593503	1.1884915798698306	0.9549867486684496	0.19097097169821117	0.9463037228534276	0.6638379676271013
-32	2.128997558940594	-0.03740179529283761	-1.3161451783329365	-0.37735155129528003	0.2056126738363848	0.2311220759278559	-0.03337146333375205	-0.8633625485556927	0.4698131370603721	0.20884934014996745	0.36205896643780244	0.1316143121972697	0.4324743140745807	-0.45690926794088216	0.22748829366945983	0.33078205501965297	0.16382423001889396	0.1393419351635992	-0.7400293927582228	0.5367792831219965	0.45065447574323403	-0.07994949052414105	-0.03930837651103497	-1.1626971930712466	0.5869626388035537	1.0708253356600734	0.3378976276926516	-0.06776939315375072	0.7078982573756315	1.389520999261267	0.9671596860309043	0.5328037725348047	1.1601020068442784	0.7398637514508102
-28	1.9318345736366858	0.46729165197648254	-1.2726292578037657	0.3400005093573405	0.5837258085771984	0.847085891015458	0.6318629964134274	-0.20374795743045584	0.3638905277601588	0.392320065699932	0.6091856941101473	0.25118297275068113	0.9375892257860435	-1.1196950645787425	0.28057858277053477	0.24754610595192572	0.06442028267808318	0.5547676072419245	-1.0232049200927424	0.2756672196580874	0.24260353980801716	-0.39024987718281984	0.4008980979334473	-1.2908210721804432	0.2647180848590711	0.8877747036454252	0.16324959654122642	0.4050646712089842	0.6994252783282676	1.4326944315024233	0.8623410441561111	0.8354078510173238	1.2418874470827364	0.7444741111079018
-24	1.5141748151696908	0.6769301278189613	-1.1458566159882158	0.6331939681279014	0.5256147967419504	1.015287515937927	0.9450306272488842	0.2823995046638256	0.02594042190320523	0.14049766922287604	0.47485184549606063	0.17767259433711013	1.2246751754358245	-1.8494492722547227	-0.13003087010932568	-0.13129515912762565	-0.15417085549053963	0.9140750146675852	-1.5408651789862764	-0.4034481038397899	-0.2700591378546195	-0.7771038393427805	0.68451249426634	-1.5608081778220335	-0.507987080722003	0.28166437077934436	-0.19480694781233607	0.743992922811845	0.285001187797058	1.0377341482665088	0.4351817060450554	0.7752484063602518	0.8975136257399774	0.447328208747619
-20	0.9781494711975548	0.4695243227548421	-1.0651012632181653	0.21972657684640493	-0.14982882104238815	0.5130723701874659	0.6472707374443202	0.20559927769250536	-0.5958343729234582	-0.7016704660819986	-0.23734003245512583	-0.2959727339424532	1.0255746815537392	-2.509496920925482	-1.1316083641092112	-0.9771427487498402	-0.6864408833338894	0.9525136923583177	-2.2381591740366913	-1.5883042772246585	-1.2393143145742793	-1.384404894194533	0.6173889621405836	-2.15121936254965	-1.7951480104899649	-0.8582483508375868	-0.8473451712195763	0.7446593027387515	-0.6653224809061292	0.09892822777089827	-0.3640356352674981	0.17121772424861736	0.013860749977104713	-0.2324251675698067
-16	0.41386619105752054	-0.11025588186560496	-1.083337065822576	-0.8353515246281533	-1.3334652151773303	-0.5687974677030235	-0.23560436010480978	-0.510274528168773	-1.4373137914608531	-2.012497896835435	-1.4374743663734726	-1.162045475886918	0.33239018833163286	-2.9635088368934697	-2.573447936236433	-2.2122406903679983	-1.5357122382491641	0.5829474315230417	-2.9300188944273646	-3.1065311353452394	-2.5697545940368958	-2.194385999861319	0.20727880246758473	-3.031984798405765	-3.384472838439891	-2.367205613835392	-1.7167109207679554	0.39728182453940974	-1.99886309595891	-1.2095636098840727	-1.3621607984483868	-0.876808223894823	-1.2343486516305786	-1.1466762990610975
-12	-0.10326928619299403	-0.8593523480653292	-1.1643743485617022	-2.140954727489506	-2.6594710282891434	-1.8618723107060235	-1.4109239542624665	-1.6092709262272036	-2.3204731882636827	-3.4271516713399497	-2.7770306993943112	-2.198464626483712	-0.6019161328377602	-3.1104156892447334	-4.0637860195556	-3.5264768511428883	-2.50494145714609	-0.0761462448104958	-3.371042958331586	-4.5629258040619955	-3.938092221807761	-3.0265681667208324	-0.36029940752615297	-3.9345400234066954	-4.836109149166951	-3.849738826568796	-2.5650420124142723	-0.12832750347639635	-3.3135235225942403	-2.49306964244828	-2.2361955586241686	-2.0112893530610205	-2.447441571732181	-1.9828011939532588
-8	-0.5143278824218449	-1.5106962881093815	-1.2348693578060217	-3.186808816493266	-3.692258587098231	-2.9136717245925388	-2.4802777704560404	-2.664836638398277	-3.031659118627535	-4.516270149272563	-3.8298177622422607	-3.0933563631159293	-1.4146069252538394	-2.9263138697174806	-5.15239809642748	-4.537067878712241	-3.309544316519082	-0.785808084411289	-3.3778738890241784	-5.519007192028981	-4.952734457862979	-3.640338411676949	-0.8400716164359994	-4.476700771473296	-5.679483876194129	-4.864196288225677	-3.1206412236580037	-0.5933036789219741	-4.144752968814069	-3.3264295970855815	-2.680013649849827	-2.7922568250730317	-3.197284213576803	-2.4293374953923914
-4	-0.781615851336241	-1.860196585727039	-1.2562419144384624	-3.6121406463978	-4.154921044349921	-3.4211425694874453	-3.1395878712542107	-3.307851306193156	-3.4235663327564723	-5.003980147125686	-4.31385611398649	-3.6088578609904385	-1.835465784207142	-2.4887330469239504	-5.553588376328879	-4.989164339820563	-3.7325262929139233	-1.318857785709816	-2.933670751794243	-5.712388977887175	-5.3533625467562755	-3.8681416413874454	-1.0594750616027315	-4.370233047895666	-5.6489405489397	-5.138329969784532	-3.220127574420008	-0.8208096602697263	-4.2000369919594025	-3.4622998150195197	-2.5620968277140665	-2.9217855856560373	-3.2409100450706627	-2.3391740263054572
0	-0.8924126006483335	-1.8545447541144164	-1.2622160879692166	-3.3825673971605217	-4.065031041372525	-3.370126238897255	-3.3053738987439667	-3.388005724936098	-3.4790134342094996	-4.900130736377139	-4.225329865278113	-3.688224544750018	-1.8215303375031289	-1.962091917806204	-5.282930837644548	-4.879160868723783	-3.7289886380461463	-1.5625313480981395	-2.213958973063245	-5.190186964282512	-5.134277330787196	-3.6985182668767385	-0.9915615891217613	-3.590368738646372	-4.824434268214982	-4.69455384022869	-2.8847443984631806	-0.7739422897825864	-3.508271208488658	-2.9421756193264814	-1.9847832868056154	-2.3908955990508494	-2.6324236326512547	-1.7968485310011133
4	-0.8588359930289438	-1.5935645063220953	-1.3370988335229537	-2.7766947676172054	-3.6971359159585977	-3.0037290974120405	-3.105671159532591	-2.990066282352542	-3.296573869011546	-4.4703640824939335	-3.8088083171048748	-3.4505154999400194	-1.5488132199284286	-1.540768619461984	-4.628818977113404	-4.430073250076126	-3.4226574811352317	-1.5395191869013567	-1.510611649514014	-4.276867378880903	-4.522193897273964	-3.2624170697813772	-0.7352277617965298	-2.4055087505642474	-3.5925273804561075	-3.8165590666733187	-2.290436500488566	-0.5429552779794504	-2.3993623196105274	-2.0530638642928305	-1.2146217792362313	-1.4702027998998501	-1.6755933719292013	-1.0555195781761337
8	-0.7173736077316524	-1.255384680439467	-1.5494077166539175	-2.2018415872295805	-3.399847737311595	-2.650127165779165	-2.7610306670097806	-2.3256006182128957	-3.010181180983397	-4.067943562727477	-3.391811362286109	-3.0929517667882154	-1.2820253339824355	-1.3708318437298392	-3.980484713995042	-3.9441122909148763	-3.0121717376952906	-1.3571364845343752	-1.0910303565136017	-3.3970763597551157	-3.832728376248584	-2.7447020938240776	-0.43360394129951185	-1.247063037584806	-2.4487097201512205	-2.8864738868316167	-1.6619604784013042	-0.26794698766769137	-1.3301356997285831	-1.1670187682251307	-0.5350558744273121	-0.5593097195809207	-0.7563497405029677	-0.39223763247641574
12	-0.5235352502956322	-0.9939084027945776	-1.884465808878961	-1.9560698221411714	-3.380571356821323	-2.5200488503727176	-2.442207568678379	-1.5909815986519198	-2.7005996635917975	-3.929880370708499	-3.1890668788502357	-2.772201292668223	-1.213230129993529	-1.488775130327813	-3.6155025867732227	-3.627910128016921	-2.6552588872627907	-1.1333039970395002	-1.0688570710852698	-2.856347553670984	-3.2983577168158797	-2.2839529456648475	-0.1914002145464774	-0.49408605570026076	-1.7530007318106708	-2.192105287739392	-1.160117504051881	-0.055331021407620105	-0.6575356109230426	-0.5611914382117289	-0.11165516050281919	0.014340463989529664	-0.1564848717076511	0.028117965835867405
16	-0.33898574028260153	-0.8716561772273803	-2.2294640484788104	-2.0795681424088968	-3.590815773481059	-2.6005418234971294	-2.198530430011378	-0.891970930231663	-2.3600485265274123	-4.058571805243814	-3.198170653851665	-2.541915887136967	-1.3713600600905052	-1.8058328582947143	-3.570396652744038	-3.49873661111588	-2.4053275524445876	-0.9509118175340234	-1.3538597788007658	-2.705050461615228	-2.97214364255099	-1.9245647143410756	-0.04331882287055755	-0.2932224266278486	-1.5750976761151185	-1.8142980291336321	-0.8284151533192194	0.059679433552746464	-0.4856447267191927	-0.317220240030471	0.05526862279527841	0.13473710383729648	0.04908642160420285	0.2030830527185039
20	-0.21508341973360842	-0.8639472105148184	-2.425149434642467	-2.374045842852546	-3.780436029426264	-2.7041087082301547	-1.9900439927402094	-0.26878228715746477	-1.9342029045862117	-4.253062714329188	-3.242578021445846	-2.3743824898853876	-1.6472406345740274	-2.1506636088431677	-3.662031164460315	-3.420270911164451	-2.2304658833456656	-0.8574113228131193	-1.70757317111909	-2.7574500967978732	-2.7550952364980326	-1.642070408489974	0.018793251317974803	-0.5125574456625513	-1.7105802254404163	-1.6473576980960707	-0.6204482301306014	0.09108458436380643	-0.6643518788730572	-0.34184649500369607	0.07580278794700594	-0.09385585761215784	-0.03171976275184164	0.23972098468815106
24	-0.1718739862870987	-0.9196466184285428	-2.353735440987321	-2.560333722326062	-3.6803538706365884	-2.6303005152097154	-1.7824556782542487	0.2247813040303364	-1.407824274323393	-4.259682167742651	-3.1223442475642265	-2.2334921303625612	-1.8974139642494072	-2.352144473812993	-3.633154859906756	-3.231087438055057	-2.0848803467564467	-0.8832110144250748	-1.874996180568824	-2.7418448855793383	-2.513004535052368	-1.4099451267884364	-0.0021969114840443343	-0.8491793849486184	-1.8460748149039286	-1.5211218557100126	-0.4752857673089299	0.05361026139433117	-0.92318427329632	-0.4735274600948176	0.06382109208683018	-0.45190051083911764	-0.22126267794535562	0.24854323205185572
28	-0.19120854091052486	-1.029155967021382	-2.0151622244501683	-2.466496938200184	-3.1961829581627135	-2.3288876951546698	-1.6237862069141278	0.4681123483283228	-0.8709742404882268	-3.944381227071424	-2.769728892009182	-2.135748142572232	-2.048634285522886	-2.318957322941582	-3.3265993511134733	-2.8757886813989995	-1.972023124484316	-1.0522932979718769	-1.7197740034552293	-2.484376424239027	-2.1981000844771863	-1.2535690037549034	-0.1370076682684764	-1.020796773240607	-1.7678583815763205	-1.33878218789645	-0.38574784896733394	-0.07135651242598608	-1.0512641641777833	-0.5992040022980379	0.050031248353764796	-0.7491934280553678	-0.3951005329647168	0.2561978393285197
32	-0.23288741649003397	-1.246030923558481	-1.5449063738918447	-2.1272160953220447	-2.490093940170026	-1.9565561960413107	-1.6383233029009847	0.3052161328239163	-0.5098611103536547	-3.38096593956874	-2.309429878126159	-2.15109705381888	-2.131411070210745	-2.0753102250154725	-2.7818953920700173	-2.4532225070050613	-1.9514198253954043	-1.365491744408605	-1.290166732391751	-2.014919752755834	-1.893656845080121	-1.2489595381674812	-0.4321174014625668	-0.9273571348618649	-1.4880479536633893	-1.14233302781657	-0.41267707839725376	-0.326430439124878	-1.0148214076169604	-0.7099341732220844	-0.03139440334857603	-0.921840248164673	-0.5402752743431809	0.19200782429378366
36	-0.2626268261000841	-1.6436630445943514	-1.1564491958030858	-1.7407226518550978	-1.8958575677689617	-1.786040063163412	-1.9358639668226183	-0.3503434649205215	-0.5142460452447749	-2.8038542199869885	-1.9834961841095853	-2.340800279429403	-2.225467199428843	-1.7376873449322192	-2.2002382222891708	-2.1507034247457772	-2.0830955452777986	-1.7660009816405193	-0.7842659930455534	-1.534193273485543	-1.7525622800448102	-1.4632935487042207	-0.8966885782490794	-0.6911035162643171	-1.2156138389413682	-1.068341729327843	-0.6355536564039567	-0.7307757716802066	-0.9479121541886305	-0.8706929065655973	-0.2790700488197231	-1.032703635469456	-0.7235069852681996	-0.047481547921225886
40	-0.2807516150538809	-2.237144941403754	-1.0412510607179566	-1.5236246547378123	-1.7183641151912719	-2.025211567533927	-2.4995617803408243	-1.4106470310835393	-0.9519441699789267	-2.4603135523667965	-1.9916812131187662	-2.679385655314059	-2.3663821160652545	-1.446160193606792	-1.8084162428020467	-2.1119654125297385	-2.3523192346310333	-2.126658911104091	-0.4363789249369912	-1.2708079782826072	-1.8757071447699099	-1.8791804266214922	-1.45695018400466	-0.5581496939872308	-1.1978962391173265	-1.2315064637562847	-1.0742670270500045	-1.232317444551051	-1.0347112391097122	-1.139120099052709	-0.7316526156072836	-1.190452095840833	-1.0056307290436681	-0.5045855032579044
44	-0.33350953375536624	-2.927213661432738	-1.281937357526969	-1.566246624806899	-2.043007845488874	-2.6645619801958453	-3.1394889275441336	-2.596018307807256	-1.6950364070058448	-2.4596579012759228	-2.353807204979449	-3.0269327087273585	-2.490463965803858	-1.291849848346669	-1.7157832340790136	-2.3314580858494742	-2.638042920127912	-2.291674369748136	-0.3918674280286505	-1.3257204260733488	-2.2183289471885645	-2.3618237912629203	-1.9583615015177096	-0.7280872445797557	-1.5386575421586592	-1.6201029975041765	-1.6380243260035463	-1.6996874766352152	-1.3666526044673195	-1.496994014775141	-1.31047331955972	-1.451302047880004	-1.3692094053031494	-1.1022053929157463
48	-0.48798557992754654	-3.5135893733006704	-1.8240874959668263	-1.7822925999465549	-2.6728558472861117	-3.4536747845237175	-3.56022166306941	-3.53662585319246	-2.4503233370905058	-2.711675398655997	-2.8825664447485866	-3.183342925617617	-2.4625310835654215	-1.2764463392455445	-1.852985496611029	-2.6457362108189373	-2.757908098887171	-2.154963726324987	-0.634266792126505	-1.6015883643722106	-2.5909898215681206	-2.7001306942478887	-2.221778387182297	-1.2127851217167596	-2.105890983986725	-2.073012346755893	-2.1372423118036887	-1.9664647529544652	-1.8626095009507444	-1.8379849149075689	-1.8333648396934032	-1.7654676392804156	-1.7055309967849517	-1.6577305751908533
52	-0.776726363128371	-3.7799911403587836	-2.5163493092901392	-1.9787323424925845	-3.2334690012356897	-4.02661036428447	-3.5166020304585914	-3.9463591475986566	-2.889351599074107	-2.9879500790497793	-3.2855844414727633	-3.000483743721504	-2.1728808824992325	-1.3218277659421858	-2.0253789373760336	-2.8295123505679602	-2.5713670188832887	-1.7305090383707529	-0.9982150767873054	-1.8581002903755812	-2.759982340520118	-2.707288496811604	-2.1256289428449726	-1.8069581939852324	-2.5853385860019444	-2.3540773332288896	-2.3573882520285134	-1.9064288091210562	-2.295918220445429	-2.0132715651226665	-2.0898573345826263	-1.9939352223599014	-1.8629566384010399	-1.9590392063270947
56	-1.1489402026732405	-3.6096904186665593	-3.187748424111133	-1.994366879196275	-3.3849284563434034	-4.106166352395378	-2.9719080849954325	-3.773816337594222	-2.8132579255601704	-3.065156690488152	-3.3361644660642993	-2.4892768797015083	-1.6400319296438022	-1.3250735964698794	-2.042963738051851	-2.7375571658636013	-2.083084578023188	-1.1730864018386566	-1.258068916005505	-1.8571838093598287	-2.588774674555281	-2.3290393293705955	-1.671617622923431	-2.186239475452566	-2.6490142278547286	-2.2800898494374184	-2.160531038551531	-1.5008931122079237	-2.4072520672102367	-1.9011052798910275	-1.9345058153901953	-1.9776495645183283	-1.7204391912892432	-1.858132715302257
60	-1.46782242881211	-3.065901510127385	-3.7210853005874625	-1.8141243411991952	-3.020121328358203	-3.6714219954302574	-2.163762087127358	-3.238718978334251	-2.2637958469455977	-2.864531032959405	-3.0145678444092114	-1.8563340855460562	-1.0492722961637084	-1.2293982474759018	-1.8454848481314312	-2.4074547230019614	-1.4832448921902253	-0.7247483712018025	-1.2435339657858546	-1.510655995369615	-2.135841841073582	-1.6997729496956073	-0.9979102586346936	-2.0785386509869355	-2.141211742717129	-1.8277786923991575	-1.5643844564995277	-0.8620787837197615	-2.037141317946312	-1.459112998139519	-1.3513482774948509	-1.6166977841567558	-1.2418171136020788	-1.3350461687713613
64	-1.5669927557483134	-2.384723418890651	-4.080705155560247	-1.5835840662075231	-2.331157440021986	-2.985412351700229	-1.521632190677291	-2.7239615848432392	-1.514530416479523	-2.500860446337912	-2.5319292481393534	-1.4329208099427087	-0.6898588520752599	-1.0665602657092939	-1.5421043595480282	-2.054168934404176	-1.0859001847507361	-0.6057153328861515	-0.9199897623676483	-0.9369854307359933	-1.6416827398813336	-1.104856130671505	-0.3294163934020072	-1.4104926550539607	-1.1707454890256581	-1.1527025670512536	-0.753303943162635	-0.19663016448444492	-1.2011970251273643	-0.7303074579873887	-0.45710217837321065	-0.9141711569593652	-0.48024481413707726	-0.4998881208196604
68	-1.342455622144683	-1.8770368051822022	-4.287876595161701	-1.5165168008662926	-1.7053986744738843	-2.4632329878605246	-1.4681563340312986	-2.5780270034550967	-0.9396520233272222	-2.213256353512407	-2.2208247128682985	-1.5237842759761178	-0.8163897374522112	-0.9449387168868726	-1.3425301279504642	-1.9550602386705147	-1.1860544651604075	-0.9088146067562144	-0.39777177471822645	-0.39405769010235947	-1.4057458603653226	-0.8581368305474936	0.11102860392910278	-0.35087418467626164	-0.05854164794208226	-0.5087724911242254	-0.010814390117938505	0.27451959183047947	-0.0730042604748998	0.19058236431641795	0.5521532283193871	0.03201665348671829	0.4604018020926784	0.4609334159180879
72	-0.8293886163752333	-1.7837909415031357	-4.371183861186722	-1.7586560204926818	-1.5150086841479933	-2.455488198756543	-2.206397766264708	-2.936238519884684	-0.8311132171628103	-2.2240450326080925	-2.3561265409110934	-2.2517223301303773	-1.5115729532225246	-0.9889784430330072	-1.426281210159362	-2.291244977888258	-1.9056799363659889	-1.5521089991483181	0.1269498762263421	-0.13099189069577416	-1.6205826956841178	-1.1514561147228577	0.18948695015750147	0.7664113025388745	0.8257321694507186	-0.11591594636976636	0.39797910947455417	0.4029732932407079	1.103150126533051	1.198874351335621	1.4769371710681503	1.0724874707800833	1.4723058901807953	1.3589976991674324
76	-0.21262983924110773	-2.1581685488571787	-4.332234848528711	-2.2918899001430995	-1.9151853274629007	-3.063069335833388	-3.599537363501153	-3.658036699596132	-1.2572751013483905	-2.604931586364464	-3.002621166277753	-3.47470544891459	-2.625096314478226	-1.2578258482647247	-1.8263627244614482	-3.0320556087235797	-3.105180017260882	-2.3135554732085164	0.46830537796994054	-0.2439447784225279	-2.252777809177395	-1.9460558842163198	-0.09007393546012714	1.597311373492506	1.2467536894792026	-0.047343529641306635	0.34531190904218795	0.17040261583221067	2.117313141245485	2.2043898049965844	2.1786158029864624	2.056630367808606	2.4699463781939164	2.0644299931856422
80	0.25389495427879194	-2.835980408184076	-4.150218476307594	-2.9334990904177234	-2.757843487452398	-4.07756947441582	-5.203637109969989	-4.408535946205943	-2.030876154540499	-3.2228214659384755	-3.967061509606935	-4.816415297745726	-3.8191912077799546	-1.6875698523829725	-2.3927895962384502	-3.924777974710029	-4.406081188521711	-2.925889007810594	0.534936069091616	-0.6180104597700874	-3.036742917976882	-2.959335319676834	-0.5923490509336616	1.9379087637611203	1.2061653106754284	-0.1971485162764254	-0.09306520945178906	-0.3061553828139155	2.8611493038419664	3.1301963250285327	2.607869141670158	2.8659052776458767	3.3860595140798058	2.529925578405643
84	0.388749151440454	-3.505848875731102	-3.8144175910012352	-3.42580412953427	-3.662376632980561	-5.074402796331431	-6.440486891698318	-4.833730685427839	-2.80001162775731	-3.7923273944475104	-4.876251208391774	-5.799631104131753	-4.697532165111307	-2.091072077240082	-2.8550226616302616	-4.595821369011901	-5.321815954123521	-3.1764039913089643	0.36435952690638984	-0.9862967108620435	-3.587968101979459	-3.7604377174802948	-1.103058931426775	1.7955412819352	0.9145585871494271	-0.3445254555586847	-0.6591704471158144	-0.8195959904958741	3.330242386992947	3.8972563645195044	2.792969935041324	3.423097124993985	4.15013502980512	2.776322357797589
88	0.20181813785143535	-3.846064796274117	-3.3577415858370925	-3.556939592917784	-4.194163311859486	-5.601608262224486	-6.825930101326974	-4.730932223773317	-3.207150451192274	-3.999790896807627	-5.334535108449318	-6.02308510213326	-4.952734457862979	-2.2211487237164795	-2.9431350156863636	-4.708903300794267	-5.44123457488525	-2.974701873898291	0.09922963355760525	-1.0667884322889178	-3.5771434216784197	-3.9379134078738867	-1.4078769648292415	1.3552432026025099	0.6600832922482448	-0.2759233408160406	-1.0175805066166472	-1.150832054093635	3.5768551736170138	4.4178805239716565	2.802849524097191	3.6870083715810913	4.675883281346385	2.85672163242065
92	-0.08745828993889135	-3.661483516985501	-2.8642690109416336	-3.2453164972384925	-4.057518948801159	-5.369883046897671	-6.151671394075456	-4.1279606714931845	-3.0392107886829316	-3.637577762956502	-5.085622774635623	-5.3097233638220205	-4.469020355385509	-1.8756986809103733	-2.5057702001249544	-4.106375207070143	-4.590190875862054	-2.3658182561271026	-0.08019239435214869	-0.703752992760548	-2.882167808885335	-3.273580781301043	-1.3702011073804186	0.8664376117765361	0.6484494788964223	0.0965540630167797	-0.9067475772852674	-1.1518038482195994	3.647297134727617	4.606447208218472	2.7006912163259416	3.6424541381425546	4.870063769442552	2.815138809725954
96	-0.1503129001637093	-2.958472482841244	-2.434655660204404	-2.550316327331822	-3.2119169154136387	-4.358407009564928	-4.550981510116322	-3.2393741525879682	-2.3040184916499533	-2.68830799377725	-4.108761300203767	-3.7718439006942948	-3.3461623107351017	-1.0010225747584276	-1.5716440637962623	-2.8722839282950554	-2.9074027464894696	-1.4976071081497526	-0.038910239836682355	0.05668560773723653	-1.6479418236133947	-1.8505357457169456	-0.9833129023521209	0.5102975355615982	0.8970127083065497	0.6774946434082039	-0.2739732258555253	-0.8051661232646974	3.5382718950584215	4.399640072204965	2.5030076440558795	3.291613570485861	4.656401622460025	2.6523914270191757
100	0.2710914902995228	-1.9308954428559757	-2.1320481246524965	-1.6190417964112749	-1.8667372418003083	-2.8011684347001906	-2.43463086467224	-2.3351623953036227	-1.2062650888505306	-1.3283406462510596	-2.6175661020948944	-1.774862046529036	-1.8499909592650738	0.2536575489792509	-0.3336926690259762	-1.2978610959663799	-0.8067747930184789	-0.5687994346562962	0.24771363970680516	0.9879863237232257	-0.23179177881370017	-0.04860108706005429	-0.3805853118824372	0.31206685225852415	1.2299531667173595	1.2160402505690147	0.6675881130529664	-0.2391500615996114	3.1886904159147846	3.771249761596674	2.157830948150023	2.6457099847753027	3.9975938696067526	2.3097598494388025
104	1.2094061344129736	-0.8654944874846363	-1.9409630249609897	-0.6111358984776295	-0.37303635383837086	-1.0747840377374809	-0.3329034737288202	-1.5990214307467945	-0.046054988983224895	0.142664745089826	-0.971215782097629	0.18547990871330308	-0.31753629365859454	1.5658494194551185	0.9276522970620473	0.2298450911202508	1.1617398232692815	0.22359487357907767	0.6753605587120538	1.7836900904444304	0.9381833648836646	1.5801932771841016	0.2058900440501468	0.136385738505299	1.3673875297355447	1.406654592777274	1.4979956112234178	0.3139199606599124	2.5063362058303125	2.7352313926303373	1.5546632965890737	1.7208605961267411	2.9049498961538656	1.6805101590643097
108	2.436748498486473	-0.017389872998797466	-1.7648252204206485	0.3518464854417054	0.924115297845361	0.4507849205079956	1.2872296539232142	-1.0541800233928336	0.9052619315179917	1.4092928135576615	0.4583058941714106	1.6475199419387396	0.9468511319096626	2.5493032867917775	1.940885896550845	1.3657664026110365	2.50152491891619	0.7299770098375883	1.0457342836680632	2.181135648942625	1.5265523156724983	2.512338631962619	0.526594041448493	-0.24077095030554105	1.0549076768944143	1.016213176068952	1.7519125894183987	0.6027073844951558	1.4122316801655368	1.3401275839349236	0.5683917388870618	0.5403035865493777	1.4348332845701433	0.6510536058200843
112	3.577891340759173	0.4916307019695825	-1.4701193533973753	1.1975989311499373	1.8075351669452016	1.5368156394304604	2.1645317022987545	-0.5831475839196921	1.5001445970807241	2.2437610569571182	1.4124258720977247	2.3341216982084716	1.7548301175634984	2.9023475573695423	2.5233085091779643	1.919191594046719	2.940121643272707	0.8939786530812083	1.1419610948341106	2.052692884984685	1.408574458380642	2.452680343157553	0.4127892245361155	-1.0207864020324422	0.1706672306520229	-0.01597444709082532	1.1192663879746	0.45731085423404244	-0.11439961911166997	-0.33223366653484787	-0.8725824930094959	-0.8525037147932832	-0.31657484093847255	-0.8364740589003741
116	4.315608490538462	0.7106809598145898	-0.9543551182493595	1.88888668537079	2.2414970341356857	2.1361074393700306	2.3069112242628895	-0.016473129350079573	1.7474683479058766	2.571939461890266	1.8249671413122006	2.241016143862852	2.081973309028801	2.5333337719852946	2.6231241159968772	1.9053666543538403	2.519821399048829	0.7836812714817831	0.8164057711016154	1.433879729465434	0.7012931686815229	1.4516944848602145	-0.1487295176804099	-2.283898347810371	-1.231083389988737	-1.5437978467111109	-0.40391167896336005	-0.13700954581478209	-2.00419115514193	-2.1572577898873098	-2.720916979595799	-2.373397821156184	-2.211632722992824	-2.7242069175605153
120	4.568722713379635	0.824865756336451	-0.19628246079002554	2.411375754943966	2.354937070622959	2.3833277165321145	1.9679450939083694	0.7652670125713655	1.7816504195053662	2.4883561071513425	1.8347455216814945	1.6344059664469468	2.070008272666798	1.6080784757068378	2.3221185148739085	1.5275280437050078	1.5755515058792926	0.5870052561244605	0.05912907034131212	0.49241191024435876	-0.29368352815866683	-0.11023569079223827	-1.0004365418924754	-3.943585862693549	-2.9441304132515995	-3.255333415395575	-2.487432473578235	-1.028154847410262	-4.087265481166242	-3.9549138446138015	-4.780452239364845	-3.8815936944235507	-4.065418709981166	-4.811485278379511
124	4.535399425499901	1.0657199594293718	0.732673345146485	2.7777357031309347	2.37275647518002	2.527019971189468	1.546904083161093	1.7703713133937065	1.7915966465539237	2.216925138598359	1.7267446474348225	0.9515711641128641	1.9753918597892264	0.49232399339353705	1.8036068632365525	1.09666537961644	0.6031215771706543	0.5538381324136438	-0.9853106116213691	-0.5383286462543763	-1.2084619968421153	-1.6723340707518224	-1.872733707468152	-5.771595463485983	-4.682040202717559	-4.773283469546518	-4.58521460329161	-1.958551640334063	-6.113821014227172	-5.497136578986055	-6.73917196479675	-5.189504133473689	-5.655300602939756	-6.787389738112512
128	4.574269760027007	1.6055506427282957	1.701132293220923	3.036908618888939	2.5205945904989036	2.826051228063881	1.4397799932368531	2.8956396506634556	1.940279359687142	2.0260727354394676	1.8169941856285952	0.6321511252655441	2.0712802357830933	-0.39098253747454914	1.2933520046005058	0.9139642096332276	0.06331443025577677	0.8869181849021653	-2.064885372670577	-1.4329745733321602	-1.7422633127093623	-2.7195920875550765	-2.5007286008640017	-7.480782966800095	-6.165472015073328	-5.778321251585457	-6.155097469048496	-2.6786525181851726	-7.808361510589737	-6.553459627771732	-8.265053728217218	-6.108282073811469	-6.762394888016926	-8.323969819987415
132	4.984742628863709	2.478280061186792	2.5801031524366715	3.2684447682830045	2.9370231554265263	3.4460585030335475	1.8896822881672433	3.9738664526744714	2.30175780668862	2.127449268691817	2.323603385780804	0.943380591871733	2.531352036760806	-0.7314506750712944	0.989510652904863	1.1598935097973804	0.20105323144696396	1.6254625279395587	-2.9133155272362603	-2.0303718992469726	-1.7576823190180892	-2.986134283155926	-2.745711081248288	-8.826929070121373	-7.193804722743151	-6.107677921133551	-6.877633077423243	-3.0593159121520683	-8.946173645320798	-6.967087251239142	-9.126695609891879	-6.518063528770522	-7.240008812744905	-9.19415853086413
136	5.81520269833072	3.557502260763043	3.3000047123561553	3.5493159204516807	3.6184971241191777	4.3889512904936705	2.889960043286438	4.837036120600158	2.8349494862506437	2.592849724898996	3.2730045235968097	1.8710782480683399	3.342408648635204	-0.4544781733005662	0.9996022556816607	1.830222721247357	0.9558013057418935	2.5891601973967147	-3.353550425645648	-2.263242000587743	-1.3081425395363078	-2.544980519545001	-2.6614208154241132	-9.689894651743863	-7.686117152835631	-5.793899521504622	-6.770579797816818	-3.1479537407551836	-9.428317999877425	-6.729012472329725	-9.283243155883353	-6.432028754207466	-7.0811810314686605	-9.360352492541699
140	6.822853071152858	4.602103698555366	3.8735763928843445	3.9044723412163735	4.418228138259109	5.486735806917587	4.183088768888179	5.363388524819341	3.40471266840588	3.3265528594906657	4.486814010736093	3.1299514691484136	4.293542374261166	0.2611333125197179	1.3085449900968151	2.7482216288798886	2.006363863647797	3.4289274129126146	-3.3653421317010817	-2.1585202162604653	-0.5897020086658696	-1.74181079424737	-2.469349139654775	-10.101609204537393	-7.684452037483389	-5.030013071712059	-6.143692477927388	-3.1389253060245603	-9.319807982756368	-6.004266723732285	-8.89545724530236	-6.012998565751255	-6.443445189420341	-8.98588178273275
144	7.602766017792166	5.352935777500761	4.37254284708417	4.276020992927229	5.106784330826091	6.471083147877174	5.369837270530599	5.499533162537133	3.842053880528018	4.112564076530837	5.664310441021256	4.299225319498283	5.061778055762719	1.0784006091547416	1.7958127214868218	3.653355112388714	2.935060255269739	3.7866203689339653	-3.0808918398319696	-1.8099814607698967	0.1607210334057876	-1.0030536626286657	-2.445834630513094	-10.20744321153337	-7.319759350415868	-4.075970162591244	-5.416037545835097	-3.2669777787694962	-8.8236131445316	-5.080164896536609	-8.244169214414965	-5.519841180216573	-5.60133598820784	-8.354251840479808
148	7.814383487045481	5.6417469835892105	4.875793921558212	4.542974937413147	5.480204091541012	7.100686532212871	6.0964712942697545	5.266767488533745	4.020247926098629	4.723586070532588	6.532473547655039	5.031140314751205	5.368672834193207	1.664021487803144	2.3008885325514106	4.332509029893986	3.440488329784061	3.4934432418360317	-2.7095310619609716	-1.3307906355637216	0.7779344300656285	-0.6096050127850835	-2.7719929148306144	-10.179454777766145	-6.75037954533486	-3.1451656738982092	-4.889131533676637	-3.674081316254842	-8.190631845775721	-4.246815670735341	-7.591167907622474	-5.196113573306856	-4.834280001832703	-7.7300047679286825
152	7.3764633946147455	5.464140401396022	5.41523455206271	4.590450275275462	5.472787366401046	7.2921843344637605	6.236987098205758	4.761319148440251	3.918503274561076	5.043493734977584	6.99362466953762	5.233463274140291	5.13419722214482	1.8444746686143283	2.709904425454902	4.732798087568656	3.496950855962918	2.698800318579861	-2.426000350549132	-0.8015944341448392	1.2424709765536142	-0.548731862113273	-3.422994128168073	-10.12180325813631	-6.093691810481606	-2.319871896608707	-4.592901218262438	-4.318194378440869	-7.6020650671713765	-3.6639089491845778	-7.051367741901598	-5.151950823174215	-4.2993001829319315	-7.229627114162717
156	6.515086157562219	4.98142145806521	5.94065807750006	4.38926123464572	5.211929784967363	7.17986105059818	5.970186695284394	4.1422176256503045	3.6366681960795257	5.134580599219047	7.185241204240602	5.1239266266202135	4.5374112014652805	1.6761680799126748	3.014632932681142	4.990339266575409	3.3712897215603332	1.8382203532538373	-2.2816169204327084	-0.23985436498166043	1.6758454995759646	-0.5266264067705243	-4.16273926637608	-10.0168800101102	-5.382426248312536	-1.538300987174513	-4.289175976414524	-4.978666769809225	-7.084878903621189	-3.287489882752132	-6.547389490763131	-5.304467187840418	-3.9583456416327247	-6.774133665147933
160	5.633808598599487	4.4475302583938685	6.322458728086398	4.035238255803214	4.976841437172232	7.062684994985817	5.702208027748084	3.601830234970584	3.3519370471249412	5.208739744387038	7.411717872980327	5.121104227487935	3.942245235026646	1.3969557250039095	3.311240426286528	5.354563699554757	3.4836118133330216	1.4351699316029847	-2.1859028284197244	0.3965963413239011	2.260677331938823	-0.13526202704134685	-4.651047218024081	-9.739067053047938	-4.564311969677392	-0.6554000957154216	-3.626667490385781	-5.357965932669946	-6.506086333061016	-2.8997819350463083	-5.87072084852014	-5.413053975743753	-3.60342620893506	-6.1489400708401645
164	5.08354948667699	4.088351716209886	6.39656208330702	3.7123725320547725	5.066258894527041	7.25068328934149	5.856002792832202	3.310646287188907	3.233065597000868	5.510034547245727	7.973478773966802	5.617473588112165	3.713361969155546	1.2868486610347718	3.7346379662636946	6.041504367833826	4.1764750375206	1.8257487966218118	-1.9688209245564876	1.1702842682855505	3.1246807496335225	0.9109100080380029	-4.614879119665689	-9.131254173112792	-3.548774471859908	0.45375659947273717	-2.362236016985146	-5.232486711642757	-5.655938611055821	-2.2336726132264855	-4.818209159130357	-5.200298296196681	-2.974448911786503	-5.14157198561497
168	4.974683272199654	3.991796483451956	6.033106311824755	3.594102850422833	5.634765610773584	7.883728007439251	6.628093225910937	3.350234738474454	3.352773657916896	6.167825206443119	8.980416275239227	6.7477793523177425	4.012475003602384	1.5087959728294502	4.363424290130873	7.091926556801638	5.50858639279992	2.953692428760905	-1.4912663660545555	2.1080169624512064	4.2480640304123645	2.5918185645469856	-3.998960246480134	-8.105812052288698	-2.2790310325303014	1.8014993622119053	-0.5286754952434393	-4.578291881446296	-4.3794183620509415	-1.1289696664916666	-3.3311650668917405	-4.498581874933676	-1.9111112307934992	-3.6841170694796266
172	5.135078894048111	4.06792878077561	5.203738676284431	3.740808000656686	6.5889277291836486	8.828296639087647	7.851163367476302	3.6681263354196574	3.647208204597837	7.107426625427054	10.261223767122685	8.285625436844478	4.6938376308188765	2.017599339159591	5.1564707625854105	8.321737268418344	7.191683274231661	4.361279953435848	-0.7396049480838489	3.165960303896367	5.452589498104873	4.558619964534292	-3.010814420727892	-6.712713701466334	-0.7844469527466347	3.2620577729835785	1.5500315388645618	-3.600647678821226	-2.6804442338025973	0.36845585610823633	-1.5548421105229484	-3.3413467322865666	-0.4525430191058518	-1.9167154978997112
176	5.2271194326035735	4.101713647023319	4.022917737340667	4.0568590061758725	7.6099376486334345	9.720025991694644	9.049511886637042	4.082911481085683	3.9459028144394086	8.074902514097694	11.4289235780173	9.733788465719957	5.3639869554513755	2.586359255936501	5.962924942220452	9.400789237129546	8.713217713291767	5.397409425459765	0.1515433784473458	4.239444721962447	6.4828471973775015	6.288103087761761	-2.0327882715400665	-5.134627329260433	0.8182902315460763	4.626810062170967	3.405395260796124	-2.6495978765348958	-0.7398709636128098	2.0189046808768767	0.214707001501641	-1.9498362491970098	1.1702581614512049	-0.1371812369936241
180	4.955141054994354	3.8787021539035074	2.737125389817938	4.340859879024513	8.306240060815869	10.145111058370432	9.674386000049621	4.354668606254053	4.063653935663112	8.770695664196454	12.078554122946965	10.572319004069179	5.586430058680044	2.9389531538194804	6.605736715805028	10.025347684344192	9.589967703448792	5.546020970647302	0.9642864441367609	5.216320024671854	7.140274029824104	7.338828545161425	-1.4400879108309854	-3.6086010841813945	2.3790261685388243	5.7107581948102375	4.6546120526098065	-2.0592126794323353	1.164554712216337	3.506102314680047	1.6678097205969244	-0.6219601615461566	2.6462387971824146	1.3365946974387162
184	4.245147217523001	3.3193061267971697	1.6578392940626492	4.404042709675538	8.420543649394467	9.868158315539397	9.400340056527654	4.296619404435282	3.906463374765424	9.019403434869798	12.012054413031853	10.535971614939756	5.125132070953108	2.9145598337974494	6.9906453909806885	10.091092084202618	9.62143895581074	4.7046570659111895	1.5139594039840165	6.042963489534244	7.397351723114253	7.574958305307442	-1.413648482568271	-2.3155929983803745	3.7911953830367944	6.450946791574253	5.190222727069287	-1.9871669957534546	2.7915985513777946	4.594949710688907	2.628548377076322	0.4166039217921093	3.7395145798683256	2.317686790336758
188	3.293664923935272	2.545066350233261	1.0551683876100038	4.186227311055548	7.97621057403925	8.977389312966595	8.318181016901443	3.873929967636259	3.5316841513158987	8.875133491996738	11.359703035284351	9.766215299744532	4.0895295039876745	2.5706005031534125	7.169980984705155	9.763161634591109	9.003121353306902	3.257758609176073	1.7477971271256276	6.756258470643503	7.421434860565657	7.234327774856416	-1.8470721198177924	-1.3032330241678438	5.038181292211456	6.935426217688707	5.223268495723648	-2.3382952154251075	4.041256894398858	5.237057672629751	3.1282064835723746	1.1117824287954972	4.396933544501837	2.828582279693233
192	2.461043351635584	1.834293837684527	1.0495419475759913	3.795568933440791	7.274119358770845	7.855771044924386	6.907927018844561	3.2319581427037374	3.126874677392876	8.595213868374854	10.520412418506872	8.747029282420268	2.894503586136905	2.165604585902003	7.315194111474758	9.394174552087653	8.231570223052731	1.891820545188517	1.767874832458237	7.453213196056713	7.485882740194201	6.800088865277715	-2.400372737546209	-0.48937862987939745	6.172558292063494	7.34090946251457	5.155737863875103	-2.813725464392608	4.967358576630988	5.564317212361361	3.3637809668490664	1.574104901154246	4.746582972940346	3.063794128312027
196	2.080016846173633	1.4827662668938872	1.5556516608062438	3.442815056691639	6.730304701025192	6.981177312391312	5.790497288389433	2.6263248854132346	2.912083856859731	8.489729859852114	9.944793676063684	8.049475649537868	2.0494968839398977	2.021022553109689	7.607358913288382	9.3279990914393	7.844341735108271	1.2479591338120968	1.761920686088077	8.209939935936934	7.8121394913846425	6.741831762458491	-2.6729307107197604	0.25430387194324106	7.237244110908623	7.813864688218666	5.35443447668521	-3.0595717352867986	5.694649205135332	5.7808003279646965	3.5699589162339125	1.9753254602151142	4.993301855831845	3.262962094651827
200	2.281015390359154	1.6381475884086305	2.304264062785808	3.3079245006967555	6.639954073354136	6.661619169582395	5.389642225009405	2.285760396908453	3.016344778074769	8.731496788868176	9.879315351338866	8.02080247761319	1.8877804231665518	2.336642497838948	8.109663942842937	9.696750616387199	8.131626108620008	1.5925191600646638	1.8817301941092563	8.9986181031962	8.42921636360597	7.263640862245786	-2.409890407199913	0.987857875714059	8.180017450660918	8.363882997376878	5.950200542685928	-2.8431076931697437	6.295656665165786	6.020347580014927	3.879035939913407	2.4130160747640432	5.275466905626039	3.5680227189579172
204	2.9289691374262308	2.202305549783341	2.9423448965172163	3.425714960985911	7.007078629922352	6.861905080636781	5.699258313094886	2.28567504305735	3.398767224313835	9.24452016403776	10.224497769290606	8.595574357265546	2.388868325877867	3.065258495221171	8.708442666001577	10.334414456024811	8.98151681539758	2.6861045292747567	2.146399969403859	9.665958380136816	9.139018035703053	8.199617365162213	-1.6312255818190513	1.6333125788459477	8.830799080487578	8.840481735797605	6.776094896374671	-2.164226049681118	6.71392677519374	6.261388286040879	4.252082813971554	2.8314917016066636	5.574696526757764	3.949579467338451
208	3.696299305166643	2.859069101744557	3.17615198287149	3.662383547119337	7.5379137802544856	7.22203586662329	6.288133605339809	2.5052385266949004	3.8573563001518587	9.738072370738438	10.58906743237162	9.333677268304847	3.1932842650853153	3.917073239927235	9.1637172467613	10.859328242541327	9.942885373761374	3.9201016327113374	2.430963748516337	9.997864697963385	9.61277387099375	9.1117362746025	-0.6134879573591728	1.999901885705433	8.972775436635471	9.01300046552561	7.475418071946696	-1.2431436745728508	6.789912683510194	6.351543410477566	4.520323741944213	3.052143089217908	5.73462675554099	4.243699539914351
212	4.217658985933466	3.2198839106327815	2.888956062652376	3.799675693455447	7.807828406648213	7.263322335024911	6.547398550669115	2.6972882679550163	4.127025116991152	9.871917699685179	10.514352771915725	9.668291067508857	3.8016805552820503	4.5012426262697325	9.24613282730273	10.884423228439884	10.473663303634668	4.645901191425745	2.5493845875270456	9.84191796678973	9.569910978951091	9.534730887182002	0.2627458565754	1.8973944139259702	8.476953485067476	8.710552193584142	7.713603953913694	-0.39575758476473943	6.376276953811116	6.122953399458021	4.5067624931991555	2.8939435408960095	5.574127660029464	4.271298874561466
216	4.249897946118184	3.017993919382251	2.1795585100458497	3.677210083260493	7.509590129965889	6.669273836463704	6.045058235164941	2.639400713932467	4.016313065879071	9.459250426251966	9.743450140195074	9.228688216751072	3.8484210870854287	4.529067504892108	8.881429649817756	10.238572094816595	10.240444157494974	4.520580280334679	2.381411069579556	9.217351890180572	8.941322304085487	9.234492278626066	0.7195000630332905	1.2714867559755956	7.420235138278646	7.941633681273765	7.374482613064571	0.1377745714285427	5.469355092544966	5.524612412809507	4.153493393901865	2.3102297724570255	5.023715006542413	3.9665353198041866
220	3.76006030087053	2.249127620740566	1.3070940938373559	3.3036219990291515	6.639232141898439	5.479706750386262	4.787737834286635	2.2805781306861856	3.511741867735877	8.586656548755347	8.380959489643335	8.058065394084052	3.30144046903588	3.969394435397554	8.211378076802443	9.072888351421772	9.30585286651963	3.6811740305466274	1.9630309293776247	8.338379838871932	7.923170546554755	8.33964345733798	0.7309475522660156	0.2743018262613424	6.1024322355694025	6.919212323839262	6.631000025220004	0.3202111116907817	4.2649559866990625	4.684843528363557	3.576584568530417	1.4517503940168726	4.1968440903561355	3.4350984009799204
224	2.915369503290034	1.1805564135309172	0.5665096030237413	2.8614542412038673	5.510182366764396	4.084639062105491	3.2372779764457995	1.7899697973835318	2.79419898281349	7.577487926425323	6.850596887458544	6.603245241659708	2.4766583380158376	3.0696682852491	7.526427726816689	7.789411525133431	8.10057733397916	2.654910319301024	1.4789062701079785	7.5217451859349564	6.885690671702216	7.275143128146921	0.5308432565638024	-0.7849662284106068	4.92888592429282	5.968066200447218	5.851265892514571	0.32772654212224656	3.088643781493306	3.857946386133645	3.0118300838723004	0.6070678814819799	3.3451414023819663	2.903672449410265
228	1.9930078932988273	0.22351625505281741	0.15631250997655705	2.596442931295564	4.584037769188136	3.0187857074814484	2.0681135602234613	1.4688125811686188	2.154637808128178	6.816163999514473	5.673083767872885	5.480710969438902	1.8627756786999587	2.2251214924900182	7.102719765850315	6.830327016751664	7.196546536395896	2.067547792936682	1.1538572282269273	7.020410519994894	6.184172137859367	6.537887556735608	0.47806173442304556	-1.592964406760012	4.209775914053955	5.361846433453606	5.397704587659947	0.4415578532991598	2.2316930237692034	3.284282437615577	2.6833515099488214	0.04898366692215981	2.721375458522254	2.5910842353252064
232	1.2585799662285189	-0.2653733783220773	0.10436387333746633	2.660272591550059	4.219576824978917	2.677102320587768	1.8041063501585093	1.5708028038420265	1.8519902182550825	6.538022024813882	5.1950445044008635	5.152044283256987	1.85763489731035	1.768853540722978	7.040567380295565	6.450776560709205	7.0089111151167005	2.311198228722891	1.107331511562777	6.87942121676199	5.980170711677643	6.440857394169306	0.8530740120330543	-2.0039322325656794	3.9896044630412306	5.183620916630633	5.435470567331444	0.8803492166226993	1.789398784888025	3.0496549529326855	2.6744871072002057	-0.12409783123394338	2.433526748235208	2.57992219273559
236	0.8753374792887035	-0.1502164598487062	0.2821760170488045	3.0072436256777033	4.484928596617317	3.111929647218206	2.5379228527842552	2.1351528113817184	1.987343425501544	6.708426935424911	5.420761094712331	5.68834112638539	2.561498635500611	1.8008524133991466	7.205116253781487	6.60263298275012	7.589363078983231	3.349211207516955	1.2660509315950936	6.90680692836277	6.174261554388295	6.965360623893647	1.6981136755985393	-2.1229450649068027	4.017024983754471	5.293591009126422	5.858301147928938	1.6677352147911433	1.6080855090549036	3.0346791667613893	2.8804411815398407	-0.05065457882609088	2.3833703934576658	2.768127911254557
240	0.8697421528791854	0.4342857886316985	0.4965734171251026	3.412207594839594	5.137773023985157	4.0228576558588856	3.889100303367611	2.9380564615457434	2.4576349196373535	7.060038548764472	6.036676391619209	6.749865038042458	3.734960308181826	2.1526300852786324	7.309278946542182	6.990668756001381	8.618195511993589	4.75580834141681	1.397292729664619	6.788050634412112	6.486997111154865	7.7960610192877855	2.79075550328422	-2.2428898754712807	3.888854970650335	5.425678716312464	6.369520648133594	2.611075156295242	1.3833197320344919	2.9908173008748156	3.0731067579882216	-0.02696463831411726	2.332128518892215	2.932453386532424
244	1.153820869393706	1.1704521149648144	0.6046558603279439	3.6057121662657146	5.780599102684443	4.938595759320795	5.2191204892949115	3.605022182899537	3.0102078838641892	7.263941746491853	6.606925470837427	7.784875850096054	4.93401383107919	2.5027050908797634	7.093723756046368	7.262653809330798	9.590229010210827	5.955970749122776	1.2496163813512475	6.285686000212932	6.638877851890788	8.509591081115445	3.7630450630547667	-2.66336464209462	3.2964706337670555	5.35825441914993	6.664924604754714	3.4032697591688	0.8577888586321734	2.701135151719108	3.04147862620162	-0.32682567752338576	2.057028765253279	2.8677940296247506
248	1.5844422538808325	1.7302041010088518	0.5892674312019095	3.443775883562992	6.091555103181093	5.476598725796941	5.973625168023515	3.8257012270658866	3.368910304146907	7.1281971751487845	6.817203981353888	8.326451280552439	5.738188729103775	2.5717623168864407	6.495335562519311	7.214893799685756	10.081402753172393	6.525698645328394	0.7167463284516199	5.405947671592993	6.51893947862793	8.802467323967313	4.2968373190160305	-3.495126000163082	2.231325859158314	5.0551776758355365	6.606496317396128	3.7892904185945824	-0.000513697041764296	2.127148146027172	2.7222094467098454	-1.0253806088308406	1.5025705061169576	2.5168085034723293
252	2.0286495634358914	1.9366604040840965	0.5633499012075305	3.009142391236874	5.998324379081761	5.535109029146531	5.962539657797597	3.549812307932117	3.369405261115872	6.709893209682683	6.632179243509263	8.225255945419748	5.946568474061065	2.2866759242498915	5.70564411630142	6.8991861169196085	9.95333859791711	6.389200671277266	-0.07354662548808352	4.432142246500346	6.247556193790646	8.636954285749939	4.288135994575109	-4.567223060520872	1.0261239979586023	4.6958608508760245	6.2922673066538355	3.7056467439552985	-0.9489580964925083	1.4536130391614008	2.2458777370970378	-1.9304676007168582	0.835529861724871	2.0154564329760367
256	2.41129564630159	1.8321515275474187	0.7007524949501304	2.577307933022342	5.696119294090361	5.313812719280445	5.426673875459122	3.0438682956139216	3.036173097574268	6.274944289577211	6.282960875860682	7.695183734538814	5.6437768793665555	1.81591283816581	5.078064905697185	6.573083860968035	9.391344046723706	5.818122372243026	-0.8101141432335891	3.7919716739283893	6.096512779102413	8.232135751920934	3.891295423219857	-5.501996980127347	0.19248321603815075	4.57164572515204	5.986518844748774	3.313959590174316	-1.590942498005046	0.9969195698363831	1.8693348122130615	-2.671273224762031	0.36329486874409983	1.6239626366622175
260	2.7309098174764532	1.6248946148855725	1.1345601053203256	2.4588007864862167	5.505911336349154	5.16274927743162	4.864971625442958	2.758453600594778	2.5625562603148353	6.1309647405327645	6.102954849093473	7.158827286765787	5.1149854530893215	1.4525417052789127	4.9314432019658065	6.527986033170519	8.768574692522122	5.246608720884446	-1.1716767519932776	3.8230485819615	6.312607749259952	7.915724734348212	3.4200436982591405	-5.924174770656911	0.13562622632116617	4.9042911405719565	5.954921707377378	2.9073777125387275	-1.6045745570679182	1.0236166689778112	1.8292562915394088	-2.90119909507691	0.3567520371013019	1.5789445598792098
264	3.0321314258315426	1.5497379263851394	1.8764038038562858	2.808341257634351	5.665775284767558	5.3593811853519195	4.734954345192606	3.0705637854299446	2.2064607087694323	6.435997946702328	6.318209632180379	6.994281751139964	4.674181449533055	1.4200702869801578	5.363327966500402	6.902418596006906	8.4267453934584	5.020225035390336	-1.0233798001200718	4.569116580871317	6.951412660214262	7.930549124722162	3.167239657988596	-5.684703812551799	0.9086844302123537	5.693345532348096	6.304580672559027	2.7453458239860264	-0.9459069347341595	1.584252115064479	2.2014741842001126	-2.500796073321717	0.8805395342529866	1.9524644563971003
268	3.3531427298764136	1.7267667011533336	2.791709654435375	3.515171042150437	6.180784209858887	5.94533298898728	5.199339853511113	4.04338120393329	2.155713552754368	7.095565777983856	6.914213639922439	7.32898519572949	4.507001865451969	1.7193390087587568	6.180432304037022	7.589362602146075	8.498666741848593	5.220661626986333	-0.5166202770541186	5.726832852209838	7.81892345361727	8.30463025857384	3.2468049444240656	-4.9643516415189515	2.152555460263562	6.6825876067242795	6.918895227129857	2.9103088305428013	0.09654907857837293	2.4599485335231135	2.8454489636106097	-1.6632374483077481	1.7310199693844774	2.597971432802325
272	3.6763553526565715	2.0962502903465148	3.640757551537951	4.245893467673704	6.8200950450367746	6.712405664662913	6.056770309415156	5.346982465595626	2.4308969913143574	7.8088202279347705	7.650661449189796	7.990578631253951	4.6095142248122905	2.113018030553814	6.989255410668036	8.28894613080582	8.864131905110453	5.650922761001346	-0.022849440516956705	6.782161218686015	8.556898095461339	8.849577881404523	3.545088997473461	-4.187785614884621	3.26620649466805	7.47029445669474	7.519333343594854	3.2674007333277544	1.0361961100166077	3.2568645395066995	3.4652435692082544	-0.8080300668342794	2.522663586923123	3.214680663575606
276	3.908851375247676	2.460570567594419	4.167864312139508	4.618555534146153	7.253833275600626	7.330326538652129	6.8767676179832895	6.398146613179729	2.8753113674048434	8.231657007415306	8.20008371190176	8.623811700028726	4.83503197402929	2.2612125816475546	7.39555357019521	8.667243935636844	9.243678069618499	5.9734144060001215	0.06958670151546113	7.265191536680348	8.820855118415517	9.271732306913393	3.8010418319102497	-3.792110433541076	3.716818323288055	7.7026753231124285	7.809969405483138	3.546479693041849	1.4383852445526304	3.5978855995893078	3.7520542050045127	-0.36832383182039213	2.8768331931914064	3.4936840446003163
280	3.9179510971332707	2.6069254809364564	4.199704159623817	4.414192188562267	7.2461805160679456	7.534391384175732	7.2488894279568585	6.6566052268765485	3.2402393736093433	8.163547495258165	8.324919679604157	8.895083404971272	5.004623400450478	1.9305061053172858	7.205143433499435	8.529460885447604	9.364077544412176	5.91092537341253	-0.4157162000173883	6.986967069151596	8.452496507284986	9.325520491897219	3.7626457119357797	-3.980560054265848	3.318919650281422	7.245787125413422	7.620554427934022	3.49703477930255	1.1458666295685127	3.306927911038627	3.530304184583543	-0.5676629528972331	2.6093029910012544	3.2653288758805927
284	3.6054844765232477	2.4380958018735748	3.716432800446621	3.708845129185871	6.793168050781028	7.2654814536718035	7.003043633899825	5.922982677764412	3.323573342515156	7.655238609059832	7.9946102894163795	8.667092301420919	5.013432013251725	1.1570687264793171	6.520480616319351	7.914172152565023	9.101164794831826	5.399772630409854	-1.3190540041999212	6.132040961996112	7.55568025588712	8.927621818890586	3.332493296792562	-4.603200900853621	2.3288648069711337	6.246911033117226	6.976265412837062	3.031752340291728	0.3546243897067713	2.4893667635056027	2.83507560967867	-1.3067046370893767	1.8171099378484568	2.5741300517895205
288	2.98789118966089	2.0370986410207608	2.870641462707771	2.8503749298609904	6.1285085523370615	6.6906981299276795	6.28556726776084	4.473333347470567	3.087126724078313	6.9807710471335485	7.386765461391714	8.054396608998099	4.874707686514568	0.2632443898230427	5.684957489919323	7.06471536760032	8.529669740122369	4.616036403445726	-2.2031714860604517	5.158117281288529	6.440668566655135	8.181374529209737	2.6207249098414356	-5.236318575036402	1.3029969897751292	5.0574536195858935	6.068448051390067	2.2783539237673627	-0.5005675541637397	1.4695068560692097	1.8873295736346092	-2.220904583092096	0.8215197900057875	1.6482887226451117
292	2.2351167145564577	1.629315252958823	1.9425536345074499	2.2882192077085195	5.596915230925299	6.101849063726392	5.461575017491366	2.948602907365674	2.6870942047941084	6.491239531340688	6.781266195342328	7.341628532947324	4.687765586461649	-0.2889579825258376	5.106790529709133	6.299597724268384	7.865834693122854	3.8705639741450018	-2.5703539783432436	4.557149875579263	5.470361218946234	7.312441807404558	1.880473012944828	-5.4190397125755645	0.7983088473191807	4.061627377745865	5.15384100566456	1.5119922122928162	-0.9848591660429802	0.6232740267276233	0.9861144398587806	-2.8750805782208557	0.0017779078289682072	0.7858282307811721
296	1.6284435946358287	1.461303349620195	1.247167584131478	2.3461649358642225	5.468378053210274	5.757111058004975	4.912945734971493	2.0500662275053547	2.397153609899307	6.432215197535853	6.413983328837987	6.824635488445721	4.565746295845646	-0.13160845604093532	5.057241427051029	5.857097134107515	7.349683266203355	3.44429110611113	-2.1226165241056303	4.607012737086673	4.893453585667678	6.563300593017882	1.372160788886396	-4.911949622150521	1.081877228866423	3.504207840655289	4.444897163612919	1.012438056296989	-0.890312430994975	0.1995012904137042	0.37868285083529957	-2.9861717148727505	-0.38681977889626823	0.22223637941994803
300	1.440436478792752	1.6599202114157938	1.0189516518615984	3.059729091548608	5.796845898297721	5.756117806206945	4.852076995043384	2.1983263437081826	2.460429662214526	6.822536451280611	6.3710450965245204	6.670015795079995	4.573685634509682	0.8133043030232031	5.546626076999534	5.796109184890157	7.137804013350848	3.4569466026764677	-0.9245286560558347	5.242942796821436	4.749684798646626	6.103907569733158	1.2356321780479311	-3.8305001162139267	2.004706139271489	3.4034244928262467	4.04576777390407	0.927280840916745	-0.32778805411549944	0.2218622410656375	0.1715542818744919	-2.555026286350082	-0.3159812382826531	0.044981934016623336
304	1.7973859264770513	2.149850124653327	1.320053097253124	4.160930146202425	6.395386679715017	6.007508739562723	5.241357313274413	3.332491389443934	2.949073068802475	7.452405433912756	6.568572981462823	6.858535272448267	4.708269584212616	2.283077472644597	6.3336748916933345	5.993464454777625	7.252919178770659	3.833550205088672	0.6206236465997325	6.108681186511877	4.884379374569983	5.990012630598107	1.4368990623435531	-2.5785441333518624	3.099580756944819	3.581581345098612	3.9497065444407915	1.213118430889502	0.358036368181357	0.5128751384184022	0.31506234327879334	-1.843247170562923	0.036052372215561825	0.18701334250440682
308	2.591227048053728	2.675378077428059	2.0148856588991086	5.2125573026659735	6.933594686168672	6.291360362381223	5.839010700742534	4.949209677598441	3.7091269399456572	7.992711047020052	6.811472875563915	7.222432118300756	4.91849993417622	3.7911915683395385	7.052028161364041	6.222839339757591	7.596362094773666	4.368661869463353	1.966256971163303	6.748290998587203	5.048585878977179	6.167107566521835	1.8095583870023493	-1.624519224833725	3.8368165396141167	3.7805263900675152	4.075632561884089	1.6792148309273212	0.7895798067185082	0.8102794269131339	0.6515815837621717	-1.221688625112249	0.40068453449175623	0.4848252820648895
312	3.5012879283244045	2.920855276362732	2.8236606049772655	5.8197383733680965	7.103007298655986	6.377305491558763	6.334401591520601	6.35827873532018	4.429048527025735	8.156565645605381	6.894690973040577	7.544383029963495	5.14466427457811	4.848457324184603	7.38609073681456	6.26956222858616	8.004630068596404	4.842713343791391	2.6845440796784765	6.834526044756199	5.027796732606326	6.504854662684487	2.1576704924466927	-1.251645681082147	3.8949296376119267	3.7958319091328763	4.313507069187566	2.1011824554799365	0.7568903546297154	0.906877932643062	0.9951394771246603	-0.9781672929862976	0.5609765038632115	0.763011930446627
316	4.132626046237265	2.6750247410947225	3.442043534171614	5.8110256048354065	6.766074163520332	6.13705633521343	6.494770510488267	7.017330151960679	4.802853572163511	7.834290961513041	6.696225149414458	7.659149627421539	5.347300515979344	5.178476320543768	7.211557370098232	6.025005802201653	8.314790704715179	5.126225935391264	2.6601588658881146	6.3189110596383244	4.734725940194403	6.840953809632548	2.3578553140237943	-1.4206460678472346	3.304406872989572	3.5611061959956434	4.554670799200024	2.3371686876416966	0.309778331928151	0.7401102166563341	1.2031201093815422	-1.1871017187664672	0.44408830888206546	0.9027332640744248
320	4.204527844304021	1.9550369928591111	3.6750941183763084	5.302707658731091	6.018833145204297	5.599381909538457	6.25260399193464	6.774078828874878	4.701631534150029	7.139900666330173	6.222549899603292	7.509100418205651	5.509739861882701	4.823200213652668	6.639371378348283	5.521069035895846	8.410650232061048	5.2187709676588305	2.120837444672866	5.435721383676025	4.227718819434679	7.021213513767281	2.4052901207277633	-1.8168166829969021	2.400809997219177	3.1488425652158303	4.703402984188282	2.383009666148396	-0.2988292269314571	0.39247071643922143	1.212381598272649	-1.701885338301114	0.12361708252214064	0.8671321250957055
324	3.697750320635391	1.023313638964538	3.5220024496801865	4.623176086197476	5.143546568282104	4.930857169099855	5.705777153868223	5.900190338497006	4.256996620874431	6.354124530008403	5.596892342741763	7.141361695379219	5.622300133815311	4.096539963869877	5.952632889023781	4.901442038558886	8.244798639462205	5.214618669695682	1.5010701380024596	4.57355259694288	3.661627998644072	6.937805635102133	2.388577216793519	-2.043412680235166	1.6329377848405462	2.706737273058113	4.687326419440052	2.3455836713698406	-0.7679378966970074	0.021290212815891545	1.0407094929168947	-2.2563679161324424	-0.24951679941599775	0.6895634514564989
328	2.8721065448726515	0.2802990965918886	3.1697065750203315	4.142150868448324	4.4768781548957	4.356287945239223	5.045634733812511	4.913514124862636	3.802501192029246	5.793919548665216	5.000188814890385	6.662066442835661	5.665213093759456	3.423992863593408	5.471758828653399	4.348897446142892	7.83918855595258	5.225589262166763	1.2216020791682536	4.087657441309296	3.2033905902093354	6.561925871494253	2.4193773208569915	-1.841868991969906	1.3389722075035144	2.3722546040722783	4.4763007050985735	2.3600408971329	-0.9063842273716339	-0.2331189954355629	0.764921961283632	-2.6084406310028214	-0.5375513420838228	0.4431970704333116
332	2.138814205491737	0.07737603764071911	2.8875830100587967	4.093493451273809	4.257607449272547	4.056534280071956	4.460004795258125	4.296957481979595	3.6972031499977347	5.669475541105872	4.591761577457209	6.1797809444805605	5.605885491522769	3.1544880787361227	5.411695943520619	4.00371693553978	7.272316437480231	5.309156404442349	1.501300807977158	4.146161545775845	2.9562771245704194	5.961447700708069	2.5628030235435824	-1.2129317491425367	1.6072518784951797	2.212497944014199	4.104587544568553	2.5046148236935455	-0.7066217047016999	-0.30743095201121073	0.49074256296234914	-2.644347899436334	-0.6737496239817765	0.21223536080181896
336	1.843129272575855	0.5336465822098008	2.8694639133485618	4.472895134123285	4.518147933996826	4.082851399603901	4.052636613150645	4.2630886923922535	4.117541779612751	5.986814006948957	4.435964573150852	5.760010227919531	5.410797105479675	3.4260449322985544	5.78672216861747	3.9011037251207528	6.652097685231435	5.435802922829872	2.283751720384594	4.670121181141206	2.91871356227207	5.284797178277043	2.8065040040684335	-0.38389658830992907	2.2728495540455422	2.20771002212077	3.673068514133376	2.760740273181168	-0.3111360363257394	-0.22312156799727248	0.31962576427824285	-2.4008898674429746	-0.6684563143065727	0.06976457667618301
340	2.0723059125077987	1.4495171271920666	3.110795728458862	5.0504608026785	5.063826548189188	4.321447838363075	3.806767454072918	4.676222312565011	4.9332580441853455	6.535152418803061	4.461763370693138	5.4029545647585095	5.062656866643069	4.132040967045627	6.3985104399305195	3.9484782119243613	6.0763053740631	5.50980042020164	3.2972786343295906	5.380525575404737	2.9862599297467955	4.7043571353394364	3.0785591524599294	0.3431591084876257	3.027147762285165	2.2723267021028923	3.3150801574932642	3.0342993659658397	0.08994720853507401	-0.05404652268950199	0.31537091652401644	-2.0130414911944143	-0.5772008285254656	0.05949498325466441
344	2.595845454337844	2.368968003967661	3.3906996164545653	5.482868657574324	5.5469336369657976	4.524624336263189	3.601348391023436	5.1553220618742	5.7438387725770585	6.964817029534668	4.4755654222024805	5.046603190078376	4.569134223846125	4.985259520341897	6.911291104987191	3.9529757399891783	5.590865121077294	5.423396096841909	4.1969113243952725	5.920098766638881	2.991693250732223	4.336624134558889	3.292324534686947	0.7624343614402116	3.568105688623235	2.2952074946629217	3.1324295918533385	3.215412847030178	0.3608291438052568	0.11791055619749413	0.4774749564990357	-1.6312398869337612	-0.461079745320642	0.18031559839022876
348	2.972447864657156	2.772209398899892	3.3764820013628976	5.46801804115674	5.6049895145047675	4.4010262378203615	3.267203561163335	5.288622842787648	6.066660388888478	6.925289613405217	4.228922833256101	4.590230453346085	3.9581575293742888	5.640288815563107	6.983933431158767	3.691294660785357	5.162770735103685	5.112294661012374	4.7102012515356195	5.992828830847345	2.765539639166365	4.175316800066248	3.3886611376083935	0.8540814497365045	3.7137091066058416	2.1775481645919412	3.1322784344745696	3.23762272971031	0.46415990473860086	0.2312573933723156	0.7316991668347356	-1.3593918050776923	-0.3662150492958854	0.3778852512832514
352	2.776595347069971	2.3145666063999335	2.801154844841216	4.874549853415601	5.009507643449621	3.7363626862605606	2.663731568286931	4.843438613107186	5.5840015270394465	6.211214526707106	3.5236484915461475	3.935567130642872	3.2665517247697173	5.821371063793662	6.410005553274299	3.0018634720352813	4.689206588350101	4.588080871442332	4.725371348848393	5.4692096572120805	2.1994538251659073	4.079030980302023	3.3537998114787584	0.7522585969052035	3.4393360527941725	1.8598488522302974	3.2060415663836728	3.1039915006470613	0.43744128832046314	0.2506366961826939	0.9502794122545531	-1.2379901377892923	-0.32512470997740256	0.5550272450739107
356	1.831709737921459	1.0003133986966803	1.6235216815012825	3.7941369914583225	3.767372598673113	2.5001735624132544	1.7516643956781806	3.8688502214027465	4.320510376512414	4.859281527648486	2.316617483012187	3.0380742473192237	2.5323038037261765	5.413616643589012	5.211714254572399	1.8676704121165557	4.0500512020853945	3.9313149352953314	4.298067082043931	4.425743091853416	1.29492926270657	3.832413902143543	3.2083110728324105	0.6280432327626404	2.8459474968582525	1.3375891413296381	3.17262744102553	2.86986779442054	0.3332089177302005	0.15928697545843476	1.0005974744329627	-1.2644122807050657	-0.36647462752322685	0.6045771225923944
360	0.3242540649333666	-0.7946401814425179	0.08571986832434199	2.5044002469728954	2.135917658181545	0.8918945170772539	0.6346885545918709	2.6560790471728293	2.660143845517669	3.1566884437970955	0.7762318829965628	1.9525867651278705	1.8024791433602494	4.499499309623743	3.6511609462107817	0.454681127115514	3.187776795921974	3.255859843616902	3.5986299423913835	3.1156458776012794	0.18227785779708636	3.262240878451866	2.98557113847351	0.5730699882343813	2.098220581479236	0.669810949064963	2.8751716541178425	2.604610913376382	0.17484088197910908	-0.04206129525413221	0.8091899136140354	-1.4178194963898323	-0.5112069832292849	0.46006956580353914
364	-1.2654496399401176	-2.469495767080552	-1.3694045509096513	1.3616369928314231	0.5397850261411411	-0.7051512581188036	-0.4551607656908106	1.5907480676542793	1.183378455035328	1.5493404826147805	-0.7478399853898702	0.8475561716615485	1.1468247146262134	3.3307499801465728	2.1455693190763663	-0.9217066741560687	2.1726889555435402	2.663990014026025	2.8354337143835764	1.88071739198779	-0.9052911973985025	2.349175685673516	2.715336315928859	0.5535677061409806	1.3644671405675028	-0.02659644738575322	2.278261417358905	2.357021564254781	-0.04642296570739731	-0.32796400702643214	0.4071785797329287	-1.6690943198978805	-0.7550554256449379	0.13753807509983226
368	-2.3813126027066356	-3.4527633102981135	-2.2837111892262487	0.6677448732683299	-0.5820066914169268	-1.8540323925892208	-1.2304148642946242	0.9772238706711747	0.40377259152512784	0.4801083195008862	-1.8426338387697327	-0.029805868788806863	0.6637498719623457	2.241991991104651	1.1133080692793162	-1.899793143244255	1.2121858566197008	2.2146763745659506	2.1878812257841145	1.0335522863996256	-1.7015633540108503	1.2729967800425228	2.42360758169531	0.4553496528096269	0.7755182365864688	-0.6036784633653848	1.5089197120716915	2.145405525512937	-0.3400680116173782	-0.6420539005281701	-0.07146640848951324	-1.9740600536097275	-1.0518478128579505	-0.2586987608100137
372	-2.653659098601058	-3.4486732395839526	-2.3858487545811693	0.5633112773978136	-0.9413707232549813	-2.232819074715457	-1.4569587670734858	0.9178234315587562	0.5378886447677552	0.21958637182108598	-2.1954641286732945	-0.4350693214876151	0.46437564374982065	1.5346724948283272	0.8115982988847492	-2.208434337762252	0.5869066104376063	1.9180877160282657	1.7668360427117142	0.7496981005814068	-2.0002477118535467	0.35828688650271545	2.142555708244131	0.1819646651919048	0.4037095000087924	-0.9272349453403838	0.8126082995879181	1.9720020244401189	-0.6783406717340097	-0.902401743041021	-0.4436867225889052	-2.261951202403746	-1.3146238293835306	-0.5754665121808148
376	-2.0708799309897925	-2.5643181736099474	-1.7136257843621705	0.9816646551143084	-0.5156711922977564	-1.773906703284988	-1.0602180931026255	1.2894509998190953	1.4165641033647425	0.7568573336565932	-1.7342650846564358	-0.23063050152247316	0.6287142618518275	1.3656806911320658	1.2315225570103334	-1.7832372143545703	0.5306536541892505	1.7549340680637242	1.597534175654114	1.004454371777351	-1.7392990545228766	-0.0654628498689591	1.914447183543866	-0.2670053534919072	0.2515715652313132	-0.9304327345245099	0.43758585938600086	1.8422223283032424	-0.9891936158001031	-1.029571172975839	-0.5644910321288743	-2.4448370871806513	-1.4480549060501284	-0.6840520483866126
380	-0.9774339770434775	-1.2543919054785948	-0.593270479134918	1.680149550964329	0.4387691307910944	-0.7076086384073992	-0.17944323971265982	1.8156529619152455	2.5753636295146776	1.7996711685519702	-0.6756480915177243	0.5348381386604972	1.1551800937097323	1.682598586602677	2.0994639343661112	-0.8065234998367402	1.1099650831808838	1.7072528557588758	1.6221916634611224	1.5830200870600821	-1.036858556036969	0.17756201282016978	1.7846577122452711	-0.7856160382463075	0.2537141733916446	-0.6496005041887738	0.5091096149942238	1.774131412795224	-1.1864955395306318	-0.9847654079369852	-0.4013673354982568	-2.4502701697475002	-1.3966349328065384	-0.5483760223848623
384	0.09812653785011273	-0.11050140084739551	0.506257711562856	2.3370687902573053	1.4843052588181023	0.5166228996584822	0.8645458199607863	2.1928975526757464	3.475423327254452	2.8898332046026765	0.5498316870158917	1.6158885915013281	1.9306281756294776	2.2424247208246277	2.991678707198935	0.35458886533857487	2.1657810156500927	1.776020760820544	1.7251545147255192	2.1684892122832697	-0.15483571549900813	1.0126728985968112	1.7841925575986184	-1.2178244560012166	0.30224010272011714	-0.2176709467637424	0.9623144840739906	1.790130253086862	-1.2147029607622104	-0.7938140014633721	-0.05287514241101108	-2.2578315677858516	-1.1783140868001283	-0.24743083056922116
388	0.6985708457475697	0.39969167012391693	1.1703128785149706	2.6754450730486172	2.1737396662189883	1.4032446110582832	1.6833077626644242	2.2157287541714474	3.7425668145102775	3.58788537073272	1.4681100808270697	2.645306580540481	2.743500225769861	2.715683930216311	3.5149090201326656	1.290797587950461	3.3543987189479494	1.9751112411223322	1.7794114306346762	2.4769186911035592	0.600672899160174	2.1322734302091786	1.9113430928610902	-1.4389145337968996	0.29582124873813903	0.18842183005921562	1.571830983961806	1.8976097059023553	-1.0775562497589852	-0.5393362627717602	0.301460622980035	-1.9167429160362386	-0.8799307920174325	0.06421284361362736
392	0.6413553340931663	0.12595881489900268	1.2027395933302567	2.568353169632475	2.2292168084129065	1.608510967008236	1.9731982896577407	1.8524138880690761	3.3137702858229874	3.651493540127789	1.7562483504777033	3.272566787086684	3.346618882312929	2.838578455433986	3.4758829982737995	1.716058369118602	4.279825676602926	2.308273548020436	1.703879590500974	2.385681146320484	1.0047274802590223	3.126540652964398	2.1288399642602056	-1.408978577871199	0.19841687331172103	0.4291723657739726	2.067091698196012	2.0767233319302396	-0.8282625654289797	-0.31684115449065664	0.49942895643979246	-1.52478980633094	-0.6084172710316431	0.2432615452823538
396	0.08148035386494533	-0.722008762920908	0.6851252896177286	2.085796350935042	1.6539058643545625	1.0773227187613448	1.6411178070595787	1.248569127745188	2.4342927871279274	3.1315009514900822	1.3730819190644292	3.3077056324416927	3.5500721841826812	2.541830533285864	2.964112989571388	1.5823197324857396	4.660534370099737	2.7393975188710398	1.508574958807181	1.9963970133921993	1.0090091203010076	3.666570415776369	2.381129974075505	-1.1695604294812258	0.07700978945124082	0.47340464472456795	2.2722423019261035	2.2880206050326293	-0.5283673392307285	-0.1770340646804047	0.49101868147857397	-1.1774322956875476	-0.4238957155969415	0.24602527854316014
400	-0.5922303184815688	-1.697328444010251	-0.08832763113132613	1.4611936770740852	0.7260161023883296	0.05788880199479598	0.8440448024420508	0.6634318215786272	1.5203851423024488	2.3402519166988536	0.56504231548701	2.802867405490579	3.3035223400633384	1.987111325015375	2.3057141245802426	1.089142677418331	4.451249588218462	3.1790039459075023	1.2981028524049785	1.5934567411246134	0.7589743714243806	3.6499466803904834	2.622825377518017	-0.8001041988199274	0.08473105707233716	0.41687759651790457	2.1939787809292417	2.496536486998243	-0.20867773837809236	-0.09160704142568543	0.3735744347677222	-0.9204406715042357	-0.2990274421771572	0.16399432677349227
404	-0.964198229262716	-2.333224052260421	-0.7540100197828616	0.9909970139278742	-0.12167783050810825	-1.0086286042497221	-0.07541908304723313	0.36410277989966805	0.9648770069557044	1.7085225538986755	-0.25066906150472523	2.0335986562883863	2.728852026725423	1.487074371398086	1.9102008294514985	0.5869435057126291	3.8634948632924884	3.508985033712686	1.2239543168637308	1.511652823446322	0.5240840898633383	3.2404749311649006	2.8425269055125186	-0.37232959176473107	0.38627698919999154	0.43561127671886707	2.0124790617677335	2.6960623196243714	0.13951149547639588	0.034215256485384496	0.3447084120153608	-0.734544275336616	-0.13251981105725008	0.18251590384655705
408	-0.796398756877531	-2.3508133828892297	-1.0347464058500409	0.9068575478546004	-0.48993915195745	-1.6785000520289795	-0.7344464641147866	0.5170125948250398	0.9767000054495664	1.5911133249165408	-0.6744787079948283	1.3803378308731973	2.0784151501632726	1.3437576260018693	2.0778853840818465	0.4147828806895293	3.268632642122862	3.634574642541721	1.401133414545669	1.968310947217077	0.5679831490481582	2.780280821456418	3.0628364008821936	0.06219179167542787	1.053840396127761	0.6900603753787367	1.9771281430871497	2.912288181581505	0.532804189767317	0.301021008923604	0.5910631999351685	-0.5658826217669319	0.18255388690634428	0.4764215934169021
412	-0.1349617388417266	-1.7647886231688488	-0.8466093518816818	1.2748998371361067	-0.18727101338312027	-1.6921530919267598	-0.8723450281053103	1.1188653679255638	1.5170688590848085	2.108046049517783	-0.49824252598853375	1.1608688802020224	1.6297075707297444	1.6876313643762253	2.8565606998801627	0.746676681540726	3.0262083930858767	3.5369701296198137	1.8324065162171241	2.9395942613770663	1.0184506152188815	2.617928736752792	3.3143770611052688	0.4511759567790573	1.9901807257949788	1.2276796071527873	2.2630698623740666	3.1784653583386717	0.9469478702478888	0.7390468697962259	1.1709129780770542	-0.38241234325180207	0.6735122186822355	1.0964043112729829
416	0.7322711330045562	-0.8456491210567747	-0.31107067983290815	1.9665282915056355	0.687404869251408	-1.074636575846679	-0.4566010225212045	1.9939838597499153	2.34401535396047	3.0930862348664894	0.21475461071153512	1.4914356432452902	1.564270492419005	2.4029977260954896	4.014760007258725	1.5178095063989174	3.319479933940896	3.296458951256709	2.384102100075081	4.1470007791721635	1.8013693048773336	2.938809148998067	3.5998921303459603	0.7171705347074154	2.9321691915868526	1.9389252613705534	2.8668215202430507	3.4970879466455553	1.2911527124231361	1.263852116254881	1.956720466441897	-0.21624065881016208	1.2405729262501786	1.9115612458604172
420	1.4291236364522344	0.023808540716261168	0.3150562636050416	2.7105221679917944	1.7852538779008094	-0.11567784816623161	0.3083378962838233	2.858154289658854	3.1308643738854887	4.166625012368467	1.1683810919826774	2.235371107179717	1.883637423527964	3.1825456538911143	5.139151083368885	2.4565689501728816	4.070629586432854	3.0599186343185156	2.8332095074647534	5.163976179436578	2.6668319634817403	3.6752202418043347	3.868637313612146	0.7616322021328497	3.5438079744511826	2.590740912572167	3.5927019028555693	3.810503473198007	1.4288665020153226	1.692482467192957	2.670781128816008	-0.1634073849367097	1.679364557794619	2.642626517299567
424	1.6721465545398324	0.5202829228616743	0.7574589233347925	3.204551927105207	2.6552455358223948	0.7593597154518806	1.0725614997487076	3.4219415101439976	3.6009855179469596	4.900012003925045	1.969042057788046	3.0637292784586747	2.4064102112095545	3.6825199034222575	5.811285957923128	3.2063090720287493	4.97611712153075	2.9651126786710367	2.9701933785788635	5.598659501245603	3.298099986332522	4.5390672569115385	4.0207457440905365	0.5120469318813391	3.56430863434205	2.928037874458611	4.1394038095868515	4.0052008527723615	1.244502302842431	1.821631665398991	3.0042123718706595	-0.33206885969246	1.7717508032889053	2.9787330552235627
428	1.3927967513205624	0.5033268319773604	0.8421747067169445	3.2391443170782943	2.9356293604166175	1.170456764127095	1.4886169396009785	3.4923808486502375	3.6260697750094826	4.998599516646107	2.2948801459546417	3.6002690701185682	2.8531057762591248	3.6959676649239497	5.784414276777594	3.4805262000900794	5.644797787719691	3.060390226266788	2.7055983475086203	5.269893632935032	3.4532368095950137	5.15790890345092	3.945520629458074	-0.013583349961020412	2.939932577339957	2.7957038808809793	4.241726864595845	3.954702128916094	0.7212334853082719	1.531365748353827	2.7622971464987707	-0.7675327043228474	1.4005906546517148	2.7230017116461998
432	0.750639913571125	0.04468845937294176	0.5601230249568275	2.7830378938981872	2.506378167500128	0.9374859309369086	1.3525072302049375	3.0345642490065527	3.2591078199118027	4.4244637377611875	2.0246334024810655	3.5856721310685082	2.9813613816329423	3.2541415609216555	5.08460472730543	3.1828069606531497	5.775058731757269	3.269554129928763	2.1245326942210316	4.295009125356096	3.0745332163433847	5.248303400140421	3.5793681054344	-0.6705751998183435	1.8708336306067994	2.221308464164074	3.797888030953857	3.584922543057705	-0.017983309879199015	0.8609651305395899	1.9649767826060491	-1.3994218075706204	0.6269771440888794	1.8953731012174506
436	0.045874524745752134	-0.6325591786626462	0.05820335805622333	1.9946309277719634	1.537442441873336	0.14726093374265806	0.6818623525570275	2.171413177729989	2.6987438133767565	3.4081792745372645	1.277193423861273	2.9895241185050336	2.7069268158280204	2.6034285956456027	3.9953598875262113	2.4428133902863465	5.290477262491217	3.4295344266134746	1.4564946853104364	3.0472736281706316	2.3168055952706235	4.745547282635344	2.9519455358362388	-1.2201126783083667	0.7420357447009417	1.4160312378417959	2.9212109968818534	2.926227562192064	-0.7396905403535302	0.012173321998677109	0.8507614114262527	-2.0497734494909574	-0.31688883820635655	0.7385787349173419
440	-0.4225670982659301	-1.2587006060292398	-0.43064480911246394	1.160916325499144	0.41804164542510663	-0.8854228831824603	-0.29238524959176954	1.1342834205599768	2.2118999902193224	2.3525988996236133	0.3569362154531928	2.026772493967364	2.1520798151994556	2.0788376278843743	2.9414989874006996	1.5612863262812144	4.377441395198023	3.386327496562039	0.9786527728167674	2.006077522935019	1.4865889511722608	3.8352639578309273	2.1952202264674896	-1.4244934284484827	-0.0300213526176419	0.6947413665397089	1.8967798900398876	2.1224520152864654	-1.1889107197308328	-0.7235680800289401	-0.2166585320724661	-2.500969880465443	-1.116645571750443	-0.3751347949570352
444	-0.48179766414116754	-1.6168767172999199	-0.6925150734583241	0.5904012307519644	-0.4028258909545505	-1.7455675557887884	-1.2151216237860556	0.1887776250841428	2.0383038469350763	1.6707683759468155	-0.36928245331989445	1.0708568069124353	1.5920017917493197	1.9453246544360616	2.3229637087346897	0.8889291264025203	3.4072847280307337	3.096741191674888	0.8985670186244333	1.5651884039462283	0.9186592674903312	2.873680584327906	1.5046944580235215	-1.1602604359896913	-0.16590008097724546	0.34965667040283105	1.0647819015322653	1.3858256305038121	-1.1968756883920588	-1.0827126475654856	-0.8968870617156803	-2.5906693869986173	-1.505389567389137	-1.094869134046024
448	-0.13948383892128993	-1.6016131599043746	-0.6244477613895769	0.5023723828029818	-0.5954545125232638	-2.079656118864363	-1.7392072633701543	-0.4371563185145115	2.305064910790988	1.6278767544654458	-0.6089336856726733	0.5038218485509701	1.3241816725677125	2.2878737391882735	2.368011945467878	0.6936556083332216	2.7812633444184147	2.6732451848248013	1.2720516887973503	1.8832614374296701	0.8463870861618756	2.2377986851459997	1.0650303336910618	-0.4883703279086003	0.3703752150721251	0.5361063466841813	0.6861140710674111	0.9139095521741065	-0.7543318848638362	-0.9372497773349047	-1.007933733302685	-2.2854173125739923	-1.3717510665592445	-1.2304189174104587
452	0.4399947214938717	-1.2257976501034007	-0.2728350453640905	0.9535158252483962	-0.0722753031217178	-1.7258174375830375	-1.6480752188080652	-0.6033583864237491	2.9794092103121876	2.250758165398925	-0.24189519821129482	0.5681573734243968	1.523638363806076	2.9974424763341627	3.0614130419685512	1.069431183022297	2.767803900406376	2.337165826618755	1.9930832335696331	2.8377058434366775	1.3208757605582366	2.174011940235635	0.9734082197408668	0.36508983281465646	1.3728018964439814	1.220776197212331	0.849258122684168	0.8068810084952004	-0.012435485577479168	-0.34152603063187026	-0.5874294027756114	-1.6927608208833553	-0.7946329692805183	-0.8166993835810377
456	1.0178618405392768	-0.5949269518136887	0.19693185339321387	1.8218059493798744	0.9899140571396843	-0.7672689537703822	-0.9291291809465633	-0.2825094156285139	3.8735952279520456	3.3315715705680824	0.6476652009824478	1.27662503397013	2.1533703749648736	3.8423600099828112	4.164104451156569	1.9134933900205782	3.397838583950579	2.297638887326461	2.846616499389522	4.08943652074206	2.204357380069909	2.7058331898084425	1.1958379715291392	1.1096522780058924	2.4913012918515482	2.207440370708487	1.4510593377670915	1.0243034336931793	0.7855125645832387	0.4983384894663799	0.14041466975523587	-1.0090563271795505	0.004708804643931542	-0.08112410435460286
460	1.3834245169997426	0.13226050105080944	0.5838434085410433	2.8489127087190522	2.2310516777930394	0.5080279695082157	0.22575032654032573	0.43376177439847863	4.704341399713256	4.516793716470948	1.8118286087068225	2.414006703957709	2.9766633435436076	4.5767388228259485	5.308603273340229	2.975432865259971	4.46090983218211	2.6246836119188433	3.594613066180822	5.223173128292248	3.2347507395137036	3.6367738155098013	1.579414721316011	1.5206772050611108	3.375257006706567	3.2232220091503545	2.2529685440401948	1.4036345446434193	1.406555887485775	1.314813968199884	0.871645567600637	-0.4321664560850931	0.7640982250949158	0.6654723269827162
464	1.4359720909103466	0.7844819406730295	0.7444714885035384	3.7235920335218076	3.250554076570972	1.7187014774798488	1.4865391216893544	1.3452844585785808	5.186408029813293	5.438481317140736	2.928299658057804	3.6221194175823226	3.662347307495405	5.023043142988201	6.1274466359884245	3.950183620016369	5.5944404460804735	3.189155808980016	4.05231951644124	5.898105606446605	4.125703801229107	4.636483180737853	1.9155380677497909	1.527967091517315	3.7943096065091564	4.019969453198941	2.978472702135841	1.7308802560974768	1.711512561291639	1.882049794213735	1.347886678153615	-0.08781207330706246	1.280856486901341	1.1577389211034794
468	1.214279529366795	1.214698073181351	0.6513912661318844	4.17945765393763	3.752236595217065	2.5282075341289745	2.4959402021334154	2.1806068365355125	5.13152931825141	5.837812408966995	3.70665239351941	4.532479751587594	3.931967725363263	5.098939882756297	6.370422347197479	4.579825866580362	6.425788386333817	3.7144021894135397	4.126180161548949	5.951661571734974	4.661315429362902	5.370222554953454	2.0259644934048286	1.2185356586208809	3.691732158876904	4.448142994140612	3.409692517255001	1.8298808290057884	1.6838105874464797	2.0864369816554706	1.444902297186628	-0.004021494639197345	1.4674142562057186	1.2670401302772885
472	0.8731880165942403	1.3349852528245545	0.39434483547783994	4.079215993118939	3.637239446993611	2.7585840155572177	2.9872009678761335	2.6696236066173924	4.518983352695888	5.640650734965269	3.9776155848213777	4.895556437530045	3.6794176008788204	4.802283751760897	5.97645138185305	4.730836379504761	6.70942972396608	3.91814826929769	3.816367854973362	5.428245053891434	4.754014480032179	5.619431481478803	1.8338744594049463	0.7615237216796323	3.1661565223864723	4.48215531171221	3.449424973361962	1.6307915407968927	1.403504606518137	1.943303818564699	1.1944688528421052	-0.13386458124695483	1.3500841821916458	1.0239499781505537
476	0.6162394865689923	1.1433197231036907	0.1261149194632753	3.457378617140709	3.0129616184458596	2.4365739760870118	2.8676805423813847	2.637225382822237	3.5053663165282187	4.961364256730351	3.7351503277888902	4.656681525871183	3.0054840965683765	4.18289469616528	5.078115450435827	4.421268451972136	6.403746111914371	3.66067647009728	3.1984863200495983	4.532725799560606	4.44924925634485	5.34609030327488	1.38678419239867	0.30269792599548107	2.4033007561087625	4.196635712518527	3.1308000008692938	1.1865934103571059	0.9874592994554523	1.5610754450485316	0.739374039690572	-0.4052192856571412	1.0240797970665467	0.5721894488193375
480	0.6129980071803561	0.7361771445761153	-0.010994543293672129	2.511525624609935	2.1325931495229464	1.767216797181578	2.2466826382180525	2.0907244629526294	2.376298898419367	4.0489206211861495	3.1286101262257744	3.9616634745711257	2.1616537516376857	3.333598843741065	3.949679603141421	3.802324285443999	5.670417294490946	3.0252115650091698	2.4040658413271676	3.5445370584642344	3.8927366635268874	4.690648543912866	0.8279871323661679	-0.10257036958070298	1.603520270113793	3.7225799466560767	2.58806132616841	0.63877731400385	0.5384764061684013	1.0858755084278615	0.25914713674920453	-0.7565894107790043	0.6042568668368248	0.09267663187231817
484	0.9320237016988377	0.2911296479504236	0.058519396783185726	1.5392323693514216	1.295122977801601	1.0494337055413525	1.3959161007923622	1.2514895169132296	1.4527807199038587	3.1974012770988467	2.4089617668366574	3.0957357805293553	1.4367613756144695	2.396801465658863	2.916057340889006	3.1034679334486763	4.803941237718626	2.2799382152214926	1.5996804196977674	2.726946585446054	3.277322999309173	3.9110572239359547	0.33207666790090584	-0.48518940683890305	0.9313033199639013	3.205289594187085	2.0053601214323136	0.15220257601457493	0.1251057830274534	0.6534621103000874	-0.09739188080278849	-1.1409566373628917	0.1955652977058987	-0.2647716694345889
488	1.5123263559305833	0.014480150268175842	0.3276686362099934	0.8378317931002848	0.7460060696840511	0.566903887747935	0.6533844454481412	0.4918251323203489	0.9851875280302187	2.6514806680493073	1.8450258923678193	2.3794271885878606	1.041582462542071	1.5613231619515926	2.250017160456948	2.5581879551195654	4.121038426485026	1.7349721149509763	0.9562851762469584	2.2575356903299335	2.7867748666975904	3.2882001316974825	0.0340308210884636	-0.9008200741912546	0.49140256519228065	2.7746548582595625	1.5615849455507853	-0.14990737996400377	-0.21131306833321553	0.3610426178399809	-0.24889384147270058	-1.5073940715878726	-0.11565430433160477	-0.4177662421646172
492	2.189274543956866	0.07003584486445151	0.7303304057755693	0.6005056485273566	0.6109232887102525	0.4940074073716782	0.30261036677252706	0.18785703134791118	1.0750983926332327	2.536490195546051	1.637001510301783	2.0589261003009787	1.041850206605726	1.0252102587565026	2.0901563114800648	2.3335771501751785	3.851872911264946	1.5796768625430715	0.6040539726265216	2.1944296304611846	2.5501174862373537	3.03224467465633	-0.015833808069187716	-1.3595783676153683	0.32318103231850676	2.526589387236698	1.3849290574393645	-0.22336244526736287	-0.4419980037973924	0.2573501759230529	-0.18415746046301038	-1.7872091486630846	-0.26350054078331825	-0.3532916894576031
496	2.763160221752939	0.5142326341997343	1.1802668541673293	0.8470411279273447	0.8752548076466088	0.8467559793074592	0.46941524625517855	0.5478553162094192	1.6480797487610568	2.829955570705391	1.8532369090020568	2.2269906941454556	1.3573023046557218	0.9263876057123962	2.4044451652855607	2.482211345127672	4.067647923690137	1.7878199770612007	0.5831004962504385	2.4782049593345645	2.612469904979465	3.217109195216203	0.14270484411449738	-1.7998856260633307	0.4018620540486435	2.5076155599225416	1.522272106141984	-0.10408147398181411	-0.5485867248036114	0.34080597672247914	0.054895050685091824	-1.9075385283946826	-0.21285423582695934	-0.11078428449078531
500	3.0829987448101708	1.268383261339266	1.5992250402128332	1.422848578675414	1.4109802210469924	1.494487758677953	1.0790901156837625	1.5019814930187743	2.4869682726058966	3.3848082933798396	2.41455315933963	2.801232330879228	1.8145222618067112	1.274500962854277	3.014932147997159	2.933294288858792	4.6669049145172465	2.1388804858565598	0.8178313353871092	2.965513221882916	2.928845159765411	3.762477388419359	0.4085085083661219	-2.1230671352189945	0.6459022744083771	2.702268832059873	1.9275917958229958	0.11984919726391911	-0.5364653454587571	0.5603323564687501	0.3941397955003303	-1.8309640838172014	0.020410824515547165	0.2372583442896674
504	3.1067349832298565	2.142955297781697	1.926400775814101	2.070612902181873	2.03482484303761	2.221475595587602	1.892105455389824	2.721712820810831	3.3141450798283887	3.994812478469976	3.131756536206234	3.5647468476893325	2.220694774743016	1.9303753327269788	3.6758599188504495	3.5265521914136944	5.421870217939512	2.3427472055414307	1.1408449382588646	3.4834017665653634	3.383479586641861	4.468135345622119	0.665256260145951	-2.2628827037899444	0.9367420053673451	3.031134359336257	2.473789924097909	0.34818252833196794	-0.45005297547200185	0.8222259262306587	0.7434341888731312	-1.5954356153261604	0.35493022113834166	0.5993801936275491
508	2.916078321723914	2.910966627400882	2.1203660911431723	2.548573964360147	2.578598969624917	2.816030733628121	2.607789509864939	3.771614542021778	3.8920292756044788	4.480720031869643	3.785653343179571	4.256284702999031	2.4307343898438205	2.657823079074554	4.178223122538159	4.080782403179681	6.070307716302365	2.200399631666815	1.3693470920322328	3.8920884034119467	3.8356106184440657	5.092926966206537	0.8273211100671293	-2.2364518585960558	1.1585959166838964	3.373981467311594	2.99270438392364	0.5070524798942846	-0.3666834821979925	1.0148252223142165	1.013542768780467	-1.3180277314287696	0.659541724447183	0.8813042022388795
512	2.676902764237564	3.3959491167159697	2.163682455322139	2.740800850624088	2.9487156793533043	3.153158656742409	2.994745246955597	4.318501938407134	4.108043183445327	4.764058101070054	4.218875397520971	4.675479400274407	2.3911161362359614	3.230111590813258	4.437621105434268	4.471137035525429	6.419490798001328	1.715981955964193	1.400785442630349	4.135703076411381	4.1778187646290235	5.4512662749942	0.8688937999722391	-2.137155527441115	1.2478002278295266	3.617518892691594	3.3348481570924027	0.5734973535363418	-0.36166700629474907	1.0506954166587725	1.13840329359645	-1.146638390507116	0.804451105947777	1.0098812554611591
516	2.562120907990495	3.5339255243723735	2.0803446717190703	2.704893343771997	3.1520643154670958	3.2371051229763874	2.989360563360183	4.28852986206679	4.009516705880362	4.894116866153064	4.399162758210808	4.760772693058329	2.1535391753184516	3.536993733059085	4.523586738609559	4.6810030819010855	6.422197802541612	1.1033064099112575	1.2766696182443094	4.259378422473643	4.38319109763712	5.49011372133777	0.8302897789973173	-2.0700144715498388	1.22795092749512	3.710335483720072	3.429391852303532	0.5806309566143395	-0.46061044815118785	0.9114012695190014	1.0997377606282752	-1.1788206070701508	0.7278922777871876	0.9615040993256704
520	2.678692810924939	3.3867971811616835	1.951708907921835	2.6338403158446995	3.2809042847768155	3.1880772033308835	2.7160501411528863	3.886067619049096	3.775841226581419	5.016283022613423	4.425549495967675	4.607386100580603	1.8600730849033762	3.63178919828911	4.616610038545596	4.804490077286332	6.1936063610105965	0.6856234652375035	1.1749124497313852	4.3846950420302955	4.519272792850187	5.313944803172935	0.8017247298979893	-2.0689382500864917	1.2091820209491841	3.6982505228130838	3.3194668209190787	0.6045097097393236	-0.6068622454580239	0.6724913103291001	0.944660720824342	-1.3927069867257573	0.48314800736514474	0.7836269120458853
524	3.027991764053054	3.1019689958456493	1.903805966338982	2.7462901999754634	3.4593663128296606	3.176891557301996	2.4179806648241406	3.4613759430278335	3.6358294395203643	5.29048489188573	4.4703264123585305	4.41455410796443	1.6989369349500985	3.685080280536765	4.907658087737528	4.992351996215103	5.956949695806095	0.7412871699690975	1.3186587061967687	4.646438586901683	4.7134680628982215	5.138669954677472	0.8865420795945822	-2.0577330537341667	1.3384169306341889	3.7110640908959667	3.1476576248806873	0.7318877559303287	-0.6740413887172154	0.48361232754677275	0.7768675069268427	-1.6399937826712423	0.22888179065614545	0.5875260815091929
528	3.5159172923011406	2.838218443380452	2.060300344987451	3.1600279728261396	3.771529426589254	3.3339185630548327	2.32747816451858	3.304090491535903	3.760259857220734	5.794367298755638	4.680187690362617	4.381403911972686	1.8349772645397961	3.8679931066130404	5.484981523016987	5.361744867139165	5.9342450945755765	1.3708572353084494	1.8417479945413175	5.114654051265207	5.078388678126787	5.185585008880313	1.1541566819615228	-1.8912334394389618	1.7168921188876152	3.895697107016117	3.0872609537380082	1.016228434857976	-0.5288293348312161	0.5010756241545223	0.7129175644994946	-1.7172784761940738	0.15510737856804727	0.5020329939564876
