time	FP1	FPZ	FP2	F7	F3	FZ	F4	F8	FT7	FC3	FCZ	FC4	FT8	T7	C3	CZ	C4	T8	TP7	CP3	CPZ	CP4	TP8	P7	P3	PZ	P4	P8	PO3	POZ	PO4	O1	OZ	O2
-200	0.07689905147210832	-0.9772650574806104	0.4799746858876372	-0.1511650826690727	0.09110545344000572	0.12139665304767085	0.23171445668846052	-0.5623531327354683	-0.18379118992179033	-0.10150381152036554	-0.20318989404399404	-0.49233472222956953	-1.3270894255510937	0.435786007734585	0.4691787946299516	-0.26098027759464343	-0.8759953357514286	-0.6358482821623376	0.2938337914677662	0.3011657886053979	-0.38878482482026205	-0.9316023564659843	-1.2724655834496257	-0.25481215055027995	-0.1499434109716795	-0.8832038022630752	-1.1722316712347354	-1.06820869176104	-0.8096287230077639	-0.7416026573530972	-0.9370365715210814	-0.6956430656035945	-0.5548508749304656	-0.9463475918718715
-196	-0.05488697425574515	-1.1033143969336372	-0.15268972477509427	-0.42239153278518743	-0.28962734268497525	-0.44628405458307996	-0.6772143227645329	-1.201269862003096	-0.41092586413585175	-0.5851131066808429	-0.8104413131279352	-1.2605973450304935	-1.7728190377298727	0.3873072256800107	-0.16661290782347585	-1.0305660937039178	-1.6483383137094396	-1.2424073187931548	-0.139967053775264	-0.5647921547935193	-1.1538840503170085	-1.7705123379828889	-1.8061399414238217	-0.7193620782809839	-0.9849617456363796	-1.4011157715708602	-1.938045616025179	-1.6077521998821611	-1.4326803648062918	-1.2171289890077333	-1.507322188386455	-1.1634628743360982	-1.0916324826336024	-1.5223259887407248
-192	-0.15785910149296173	-1.0289633248099543	-0.4493675816634601	-0.3688291003928775	-0.36374917534543083	-0.6927288753185936	-1.2229888408300966	-1.1568560571072954	-0.19583743761209488	-0.7020714861310349	-0.9757710670630872	-1.5885063369699368	-1.8467754078968497	0.4387745548137553	-0.4340215910443986	-1.269111391678004	-1.9362406681766478	-1.6446576076945625	-0.3770324578302806	-0.9958493088374983	-1.3600366081232445	-2.1615557616019223	-2.047553772525126	-0.8701182581867686	-1.3311569657095863	-1.3557341064556405	-2.274940246560405	-1.8575431061576275	-1.5327029189513421	-1.2212610213917099	-1.6667808252214094	-1.1549278468536799	-1.1620289057957123	-1.680405374099059
-188	-0.09116294957032701	-0.741437254464263	-0.28306651043950054	-0.010868951650834596	-0.11655476659911435	-0.5058199154480861	-1.174855110063256	-0.5038535582219106	0.2623679035238335	-0.4436540592436507	-0.64868503645198	-1.3435740436964247	-1.4803862534340149	0.5699627385054404	-0.3091143659893519	-0.9199129319807268	-1.646095629350783	-1.6650013881607775	-0.2870289378071972	-0.8753904082131305	-0.9507768726185927	-1.9775412032744004	-1.925682063009214	-0.6584908349578013	-1.0866781445723803	-0.7664748410900446	-2.0562076516689265	-1.741502995862527	-1.1261330814539674	-0.8039460757938702	-1.403593894275785	-0.720617232887495	-0.8063752630855582	-1.411101695312738
-184	0.20036382922607118	-0.30585673374202244	0.23134605528119515	0.48213606951102544	0.295630960910174	0.008804348275188322	-0.5827866777964884	0.4270284761137818	0.6757411939726284	0.0016189054545119857	-0.020984828419155853	-0.653774736661145	-0.806269941678506	0.7178091388699266	0.03008898526283972	-0.20520897157834034	-0.9323286986653834	-1.3271694149841802	0.13326975669592062	-0.3447431317208548	-0.16296663839203085	-1.3366068567862197	-1.5442433318250373	-0.18674504709778897	-0.41224273935187206	0.08172926286089893	-1.4006884062688996	-1.3603011335360897	-0.4553554940648002	-0.21405002420742414	-0.9007144547609793	-0.1007363719184976	-0.26108893686179463	-0.901605961430634
-180	0.6456163509281114	0.1688356991319889	0.8298606851606626	0.8802832342810996	0.6427447183593727	0.5990557655468558	0.26967683366399536	1.2221679656643225	0.830643055726009	0.3640063991893096	0.5875254258581021	0.1740501667635151	-0.07572517524912374	0.8053666928938601	0.3201461128258183	0.5058060871705332	-0.09891898160040083	-0.8112220147632322	0.7470503430578794	0.2904171638308998	0.6118352993776581	-0.517354189043385	-1.083026883251948	0.3518486610112342	0.3684218516584778	0.7970551232241405	-0.5852458462244227	-0.8967533684977868	0.15896484215655945	0.25161290105236056	-0.4114953865152427	0.4224291433159457	0.1925352508929083	-0.40864884750189123
-176	1.0726453038790502	0.570103763094623	1.2584676710780456	1.0025269959887602	0.7440837006856087	1.0005233262550493	1.0156688664542373	1.5803539713060102	0.6900121552212352	0.4359675634821124	0.8935509897560245	0.8064278343821173	0.4721501159668253	0.7752726058459696	0.35478323608469664	0.8832303263299333	0.5489664063898719	-0.33695149336619823	1.3243672814310743	0.7158176284837193	1.0227755282328646	0.18083685590863469	-0.679751692486215	0.767018852681536	0.9284363365574434	1.075464603569808	0.0995192003717736	-0.49834132068699954	0.4827828991144949	0.4047609855446203	-0.1186728772505049	0.6713296754100054	0.38041955136573535	-0.11549175501513208
-172	1.2790671554697015	0.8049865344704425	1.3931032384032236	0.7825116495403087	0.5386859164942579	1.0475468609111067	1.3633598054796614	1.419429894678308	0.3740762760731416	0.15406972130977234	0.7650738339181362	1.0151345704198196	0.7055037599871153	0.6031792744666512	0.06579296274263355	0.7677351216959936	0.8154031017697353	-0.05912577345940631	1.6236485201850444	0.7344119530255488	0.8994103051365864	0.547166644145423	-0.3754793694076118	0.9414508915020018	1.0650360557369458	0.8196735361385311	0.46086010220519924	-0.2182409012768069	0.4529733944423659	0.23284290672166033	-0.06606729311951967	0.6311867817201577	0.2948696009820578	-0.06378641708481965
-168	1.126469370858941	0.8134512284722035	1.2609499661080943	0.26988747647809974	0.07791048268674831	0.7138768416500878	1.1890951365013023	0.8573857524205751	0.050189312420729465	-0.40929636255877383	0.24110260544939516	0.7355225067642001	0.6194475277519939	0.2958167485874698	-0.4844118642497712	0.19639615664964755	0.6477351172305928	-0.02313502127051577	1.4812470637116877	0.31423938195045725	0.28183665800463265	0.4999498712314918	-0.145156606665337	0.8512327053513018	0.7458890061620078	0.13826499844451642	0.4397754956109413	-0.03799483915511367	0.15429528018619412	-0.14288680219337604	-0.18533293856081923	0.4070444096778781	0.04617182898785086	-0.18229609681834158
-164	0.6104452594603608	0.5806966409327161	0.9775043701287794	-0.41266247525932065	-0.5325482474232978	0.08496877529626243	0.5438737259484756	0.1102758494215543	-0.18511523259632678	-1.1140434713846983	-0.5266758190209183	0.05064846189943625	0.2940298013416152	-0.11651749879506262	-1.1670339078048655	-0.6594399197141636	0.10887626531053637	-0.18438985897240287	0.8779583551175052	-0.43751165160344285	-0.6432578547449486	0.06906989199366033	0.029991364030814996	0.5437431321721025	0.07917445878066401	-0.7461977582211649	0.08271536210157333	0.06707316620104838	-0.27135968139801253	-0.5700573906811047	-0.37789794707255653	0.1280483153209733	-0.24051526128126136	-0.3709568669966973
-160	-0.12697797981628275	0.15163835844855558	0.6509080512779103	-1.1179867954637928	-1.1883404224910619	-0.6986808759215473	-0.3996201147480447	-0.6181191190372386	-0.3556030383668676	-1.8225032045126965	-1.355571624194393	-0.8634818770542317	-0.16463613468565208	-0.5835496768523317	-1.8524167490920183	-1.5863091905597737	-0.6705283505676682	-0.4582932281844278	-0.04389620188716812	-1.3371183838463907	-1.641942139294741	-0.642886100576423	0.11458713532365992	0.10111916784743988	-0.7534985523273353	-1.6098639924412215	-0.5096939789301264	0.08011078069249604	-0.7114805561222328	-0.9527912711883358	-0.5857607707493372	-0.1296939548555834	-0.5050861822727536	-0.5729178771812985
-156	-0.8454703071228999	-0.3594396105274387	0.3219707302070758	-1.6992762045873036	-1.7980455114744707	-1.4793633185229622	-1.4098507130313505	-1.1892389029041377	-0.5554600940031766	-2.422451728426744	-2.0794942326495622	-1.7875521137882564	-0.6553335173273755	-1.033932325613754	-2.430573695721912	-2.3889808594469186	-1.5202212295297304	-0.7541265468631033	-1.0183348629990199	-2.177507633433596	-2.5028197702160218	-1.4829418621769521	0.04074103747452944	-0.3816218664547866	-1.5531007012255873	-2.2909789027546528	-1.2113540141993155	-0.043988861032527825	-1.1075661154440208	-1.266343113563045	-0.7989714125488311	-0.3536753943573759	-0.7542043309243388	-0.7815742472942928
-152	-1.2971131768856266	-0.7863128165419726	-0.024193495450925962	-2.017703051241239	-2.260660642638328	-2.094050402122699	-2.24503993421219	-1.5164070091108934	-0.8433796146080369	-2.8084635663651216	-2.556020253403847	-2.4936892923338005	-1.0808612080941469	-1.3796716893648695	-2.794099800684834	-2.9072651789696753	-2.2412714901604254	-0.9813503002185567	-1.7417647794617195	-2.7602336337018563	-3.0601427477823053	-2.2558054867057615	-0.21712464039343285	-0.8014007190498084	-2.1333200877687917	-2.690055125120495	-1.8725618076730537	-0.31667175809063264	-1.4200509750752994	-1.5060763321045052	-1.0076246236156603	-0.5480098114482869	-0.9986309979974979	-0.9904645656374399
-148	-1.3202232089088832	-0.9640020107726108	-0.3929506530377412	-1.9556608150697552	-2.448003047484548	-2.380375617693132	-2.687898152240809	-1.5278578958083622	-1.1602907151491608	-2.8615212368244256	-2.65974163337574	-2.776980154655669	-1.3371134962655313	-1.5321534833371897	-2.8227398324271	-3.0127327366105	-2.6237769060648093	-1.0487189266430108	-1.9790152261359741	-2.9190306589814745	-3.1907107749489905	-2.7405250003287644	-0.5761179313419204	-1.0475732061640308	-2.3377244413481795	-2.7390491893278517	-2.3197958410821653	-0.6588762385899459	-1.5790301521488912	-1.6250085789660953	-1.1483770579908243	-0.6760969144917498	-1.185734507428061	-1.1375747890361638
-144	-0.8931328035693362	-0.8008846620366459	-0.7208912950434804	-1.4516191445894084	-2.22675799761284	-2.2024500314419115	-2.581609957852789	-1.156422612131583	-1.3292649950799027	-2.465319627259553	-2.2950346411935096	-2.4987404283378933	-1.3227281537038895	-1.4287781679319886	-2.4051151214911446	-2.618981831614025	-2.492655032540269	-0.882061777272062	-1.648213024746438	-2.5527567799013444	-2.8189697194452856	-2.7377724578399865	-0.8488602020766521	-1.0173439953867756	-2.0653638787576254	-2.3863441883872913	-2.3832423626810115	-0.9048182941480485	-1.4749448262169182	-1.5196598729866528	-1.1003931733005707	-0.6461994035618321	-1.1892034977452304	-1.1003252240056982
-140	-0.1354677971757532	-0.33742219124480105	-0.8814915992415803	-0.555400131730684	-1.5339277943983838	-1.5142819843207265	-1.8852068138209377	-0.3858291795049246	-1.1516815394888291	-1.5766749342211828	-1.450661655578154	-1.6497342544865548	-0.989155647641477	-1.0644247505016728	-1.5109357795714844	-1.7298690036967705	-1.7875703528095115	-0.4692847716880946	-0.8553025104862901	-1.6787435966069169	-1.9574776838472117	-2.15430688314122	-0.8380033948721598	-0.6570042951208562	-1.3193613257476071	-1.6320241648477358	-1.967545981207961	-0.8856605269005798	-1.0183758709945219	-1.0945167513870016	-0.7562956194856482	-0.3654943099330811	-0.883904454860641	-0.7673516850171215
-136	0.7419028859480727	0.24670617220103275	-0.7562232594470736	0.5383062349079972	-0.4594531047665061	-0.4256259192211132	-0.7220253330121138	0.6772932989186609	-0.5433510528197598	-0.3062741450683306	-0.26007154518269215	-0.3961678435336926	-0.3944430043275372	-0.5104775415883653	-0.2673093669818165	-0.49266561741420467	-0.6304583533581969	0.09338927990461467	0.14016196096318745	-0.47316443800672964	-0.7535227518130531	-1.0777677270381143	-0.46528968097514356	-0.007720545846102836	-0.24851241645058464	-0.5841643795523483	-1.1260198326291802	-0.5423231707232034	-0.22980883659515772	-0.3613243987974451	-0.12180010198597567	0.1739765699285645	-0.2565658980090785	-0.1401130553522727
-132	1.50967955208137	0.6988148075580194	-0.3271675995672765	1.5231058559109971	0.7317129355076439	0.7857656459043161	0.6204500778745847	1.7746227934855117	0.37891435527502265	1.0596824857660263	0.9906874274036924	0.9370732879821704	0.2867851846130037	0.09960133557206673	1.0285115216036975	0.7993814925038505	0.6758391840083917	0.6025052651452328	1.0213563416443456	0.7477613668636099	0.510431049965558	0.21592983548960434	0.15156319699168358	0.7805045227372097	0.8640897848247612	0.523094950785788	-0.08106873909032691	0.010485365029028458	0.7128222566727395	0.5064148294060873	0.6327185614823732	0.8449390509253583	0.5324908481505239	0.6135752781635483
-128	1.9837257812006803	0.8055374602007105	0.2711424820729994	2.083041662679058	1.670450802400254	1.7442443326781156	1.7606340602292037	2.554377787816563	1.3139982190335475	2.131631845814436	1.9356062363392603	1.9594008873106787	0.8146964887077071	0.6091189965128121	1.9896923253369223	1.781960006029548	1.737124081040514	0.8177497366286177	1.5300624331944588	1.618853326524971	1.488360401210513	1.3447117771530248	0.7300899606391524	1.482740279268831	1.680413480330728	1.3835365737316374	0.8378682711427952	0.5168170915906701	1.511671896932602	1.212005135337198	1.2153338163209204	1.4088244402601988	1.1872798174446064	1.201527592486454
-124	2.068538183711769	0.4976148294759889	0.7891354540928296	2.0293104597354925	2.0332093187496967	2.1211225932927515	2.3590612351938454	2.7144944599281766	1.8993334722249076	2.5704989368389715	2.2721388282630346	2.364915364970325	0.9918606256238444	0.890364704268311	2.2967476786800294	2.162125343585958	2.2258038464616843	0.586694358298097	1.5592615565033066	1.8706920099711706	1.9068818044202054	1.9750593850815086	0.9675499176392636	1.8801438760972093	1.9420930098137885	1.7448173717315394	1.331791516756263	0.7112703305406408	1.8754982900951442	1.470757719141308	1.3512831892229205	1.6192145306713979	1.415761109592356	1.3462430204734386
-120	1.7669268801901226	-0.10992445768974876	0.9810218786266734	1.4009361231719606	1.6973059134545827	1.7884730055477112	2.262996667870467	2.165042394893901	1.8795025301210453	2.2489354553662952	1.9068387698667861	2.071173185841347	0.7703732828717363	0.8895382858705868	1.854926343049305	1.8606396866551806	2.033037895791755	-0.04250592727658254	1.184147354950989	1.4620199166578756	1.7015159087137288	1.9772274444250948	0.7229619603977495	1.8543089581402803	1.5997348983429547	1.5446989497285502	1.2821370330864625	0.4811554538976565	1.6746314721742446	1.1743509739790186	0.9491030549882361	1.3556249107466876	1.1002908917303944	0.9524940228255915
-116	1.1619034976234215	-0.7704985718347379	0.7343066316184966	0.4619824278611639	0.8105327466527897	0.8920168854126688	1.579388376063087	1.1059112520906549	1.2306073872967627	1.324987884990909	1.0142617200039326	1.2651612726694224	0.2878675453547473	0.6418569071776848	0.8580378868374162	1.0660475465562305	1.3263467516790675	-0.8017911890767461	0.6164452418022375	0.6185027345300445	1.065879938295545	1.4903731308502066	0.11956739395471315	1.442379232579656	0.8562700130778416	0.9658915376118649	0.8225828984473172	-0.04682979720928459	1.0262156699020355	0.4766303288823785	0.18536969972539166	0.702636061324922	0.3876872946964614	0.19367940674996678
-112	0.38243573807481734	-1.225443717723618	0.13544648851529978	-0.41443583264620076	-0.2686970823179735	-0.20455533214422247	0.630280195075413	-0.03998589505590567	0.17727638736312723	0.18080684497006605	-0.0326047427129099	0.32351633824684417	-0.19554007004006121	0.25258129771358134	-0.2848609678705779	0.1595727350259277	0.4753771114268176	-1.3098063435863674	0.10630083057268065	-0.25493931705958717	0.3732311716193274	0.8559950568521869	-0.4995017635132018	0.8220652321087499	0.08847545810057647	0.3636160185693388	0.2837083332528215	-0.5539858923276689	0.2526338690101405	-0.26045733624502687	-0.5550647363953797	-0.07606780509816942	-0.36374452618315006	-0.5469618425864918
-108	-0.4350407410605175	-1.3287327256034023	-0.5664513692859428	-0.9217790341946432	-1.1363348932186768	-1.085265872122638	-0.19642436454771628	-0.8174667337759387	-0.9027657486057453	-0.7503873686918493	-0.8343059399521432	-0.36160156039495095	-0.4320470977842317	-0.1482267376018377	-1.132214304926468	-0.46250077965314434	-0.12356895922218661	-1.2594734398514462	-0.16415184694807475	-0.7576099018996273	-0.0031289751562453283	0.44740131384425147	-0.7473323326315998	0.22970972897230768	-0.32757216609266804	0.08958829171688458	0.029935020877838163	-0.6941894871351268	-0.2755176418024012	-0.6448211653641706	-0.8651998617262554	-0.6618490798452575	-0.7628628592304201	-0.8621667005705833
-104	-1.172334072014201	-1.1098861666314006	-1.0834560366932473	-0.9626367663874774	-1.5270777902195114	-1.4745259247744944	-0.6277640446072174	-0.9614576077028629	-1.639025803242534	-1.1800694435843317	-1.150844451859717	-0.5638552293846605	-0.3177406183803687	-0.45327600722312655	-1.409851428287086	-0.5788729772257726	-0.23529514610965696	-0.5893314465902366	-0.14744430743184658	-0.6832413656150693	0.12055054276547862	0.4830114829266314	-0.4065093685854026	-0.14690606258972255	-0.20095731267260133	0.3043068639701634	0.27150016954539347	-0.28746926711936366	-0.32860106146818313	-0.46192514779767935	-0.5317526446268445	-0.8369733670083969	-0.593980787684913	-0.5368484245097613
-100	-1.7420841411476198	-0.7411477547053199	-1.2290190427267982	-0.6762886626335082	-1.4173835480190458	-1.3504718508002862	-0.6189706905949945	-0.5253712521640131	-1.8154879762589238	-1.0766278478143076	-0.9972504948233405	-0.31259208838695884	0.05970427751368418	-0.6069239958698553	-1.12079822734146	-0.23897701441510416	0.11682936519690128	0.4665046620511776	0.07066676002780611	-0.11330133647923094	0.6477426274158156	0.9269103980504012	0.4472461033496482	-0.24378403959713568	0.38246330522295635	0.889519987244687	0.9565680598903482	0.5734652862375336	0.0701738817708222	0.20922474510297626	0.3437089017296458	-0.5843590483216934	0.06737590564167885	0.3302924326663817
-96	-2.090195650545517	-0.43188300619757936	-1.0011552546973626	-0.3401050261016903	-0.9998103951006909	-0.9231110787927206	-0.3435075572401029	0.15618212481644006	-1.441766019995755	-0.6419326646810031	-0.6019603594840719	0.15102623364941897	0.47980198142983654	-0.6095296725142777	-0.5137682544134616	0.28457483577405607	0.6879867297922363	1.4857222996394146	0.33174255406546094	0.6347967966265097	1.2602214781414889	1.5247657260545113	1.4792554341161912	-0.12959170308772938	1.1103448839764338	1.5130116901344806	1.7992918445935773	1.56270289026537	0.670247433877551	1.0377674076582095	1.3874548638599893	-0.08179469385953592	0.8962401129029217	1.3688950504073976
-92	-2.1931676809251863	-0.3152683965352616	-0.5714321718093782	-0.20371273108548255	-0.5539020881973263	-0.49776983135433595	-0.07252020370532038	0.6509048922317452	-0.7264214735764235	-0.17632271304912878	-0.2607081823919308	0.5190482126482695	0.7167254668260012	-0.5023722635936925	0.06471970661035638	0.6546441300076439	1.1534259290184214	2.0659432359033794	0.48976567263926923	1.17648958862816	1.5928034742195245	1.9472596596191645	2.2668335380542612	0.05170698823391049	1.6104013879171595	1.8118246748002773	2.426047557427675	2.2843959273837	1.1409393520159505	1.6193628270272244	2.1408379023860418	0.4032244970154796	1.495277520219233	2.1232566779889015
-88	-2.054726595459287	-0.38940521976384035	-0.19041767668331935	-0.3515328159993668	-0.29193511531556227	-0.30408704204078674	-0.016168942634171814	0.6536921842283395	0.021400518661350506	0.08670893289608649	-0.1712419535366574	0.5801339730874571	0.6616940481645882	-0.3474414041807019	0.3492364576582255	0.6505964381958114	1.2733850446976094	2.0210027643676733	0.4758038508800096	1.2556493250616017	1.4289128744288409	1.9595617006418766	2.5110552247545552	0.16754668908733072	1.6434169966213399	1.5925444324339848	2.560509913655573	2.4691066679604408	1.2548837630060394	1.691546197435189	2.292142146999152	0.6565018279666682	1.6070189435439854	2.283042663532136
-84	-1.710242624733261	-0.5415912256872095	-0.06184952317954023	-0.669605313041007	-0.2635004513763513	-0.3860962381151665	-0.21463479047467793	0.13085763123375657	0.5165286051106855	0.08552497603757972	-0.3402589848987564	0.3145399383709784	0.37188404704615996	-0.20861367828628175	0.2717521183782229	0.27428424289117803	0.9958646868358115	1.4579549991037464	0.3151142887265839	0.8661856629437067	0.811657128668994	1.5281134805245138	2.174814218752286	0.1646358217612678	1.220613953369662	0.937760291116117	2.151437753967556	2.0974602646324003	1.0056918834090531	1.2675697771494254	1.8281367971040638	0.6210553630407506	1.2435548274114734	1.8339261962364806
-80	-1.232581254708161	-0.6316739304806771	-0.25199106272018323	-0.9297137833010443	-0.3630460491551131	-0.6080088600066732	-0.5352228270369064	-0.6879738551889973	0.6022560581260561	-0.07315641623146601	-0.6084379538433279	-0.12358809976369178	0.022783618362839365	-0.1334931102004913	-0.036787014361724914	-0.2719514959144932	0.4511888909869409	0.6955965143761423	0.09581248438009837	0.2401391261713559	0.011871471039780587	0.8141151646086804	1.474450822922267	0.08554658272125625	0.5856472239013267	0.1590728755749421	1.3800572122063033	1.3873565161963581	0.5971962198438481	0.6165715440441976	1.0255048249102388	0.4095561792046938	0.6639090759681389	1.048730489944068
-76	-0.7283900361744502	-0.5806761369349652	-0.6767298562130217	-0.9372171735942949	-0.42445579064015937	-0.761993167860698	-0.7700256685842839	-1.4571896754667628	0.29296258017960636	-0.21142171269920557	-0.7685068826345968	-0.516548870689858	-0.2035691583977423	-0.14021730387572168	-0.3490543654688964	-0.7147337776258601	-0.1455458696982211	0.07778999189763906	-0.08926477260702176	-0.2886306934222022	-0.6262096150800445	0.0680192930769212	0.7379227858032449	0.026487674497248204	0.07109967601229737	-0.37858691715977577	0.5499575124206949	0.6576524360265074	0.31078904788705547	0.10162490580650162	0.28854554818735556	0.22056111637695935	0.21329197233708463	0.32616355932857
-72	-0.31779733219972933	-0.41046577588399213	-1.1544107169569142	-0.6494039876754455	-0.3350922754887359	-0.7037928086631574	-0.7677107433963419	-1.9052168082772534	-0.24920797285103496	-0.2013609851283235	-0.6969246250676745	-0.7115327101862796	-0.22044306937827973	-0.2084242547256638	-0.4790333497350761	-0.8642258622284399	-0.6143848284468437	-0.20501691051219773	-0.1910611982290121	-0.4651880550560581	-0.8690599181168087	-0.5024074303340212	0.22444352450924704	0.06677656603881428	-0.08651805647225581	-0.4571029532335908	-0.06862433982450859	0.1575537916020318	0.33453407799182366	-0.025162842061170476	-0.06817051006033459	0.21543316488710618	0.12399879811689911	-0.024287141798212265
-68	-0.08746127762170317	-0.2125101978181844	-1.488960262354018	-0.19438545356787107	-0.09728060638185437	-0.431121825083397	-0.5187005983608171	-1.9529595325753546	-0.7840020636791544	-0.03348175800334015	-0.41705131425466385	-0.6888020617260604	-0.06836334598685731	-0.27814963389742536	-0.3728395691041418	-0.7023522240072182	-0.880433795613422	-0.18239976419650544	-0.21760727410212186	-0.2381624722428214	-0.7021601182375921	-0.8129289725760002	0.010624847348031312	0.2144176507543094	0.131340115930834	-0.11435662926173426	-0.35268798381451977	-0.04004777585289719	0.6555286629338775	0.24837498304124078	0.030175406409610396	0.4288434673449324	0.39446350832528815	0.07007084024142692
-64	-0.046541686983619254	-0.07518445681424778	-1.543215747751704	0.21518607383281366	0.19134233843654663	-0.06584037823743266	-0.15021677277309048	-1.6995433526045123	-1.0862172814601407	0.19958868572388547	-0.06440978481004862	-0.5409284816436253	0.1301083114438546	-0.26891601017768074	-0.112187422528739	-0.36381861475641886	-0.9676020120986657	-0.03282220280824328	-0.21293379312637242	0.2301766270548157	-0.3106637291217316	-0.9008831955099124	-0.0024097072831051744	0.3935849656658394	0.5256845937808062	0.392034201824311	-0.34855544479106365	-0.031811702916175556	1.0698288652112342	0.7059417349158191	0.40849187867027154	0.7545260171913795	0.8067392090456378	0.43627476582050917
-60	-0.11311436415962318	-0.022634405585601498	-1.2789560524121206	0.4141679395709341	0.412979750782659	0.2353813195246234	0.15516024788782956	-1.3069828715704856	-1.0301641199805676	0.3794230213122516	0.21151004678253968	-0.39121627708844575	0.2552562945597024	-0.11913687705716805	0.1547202165988862	-0.035795256405101436	-0.9405493116474055	0.06694664789225144	-0.22238932493805555	0.6628031117871238	0.04411075253078575	-0.8615070559685195	0.01818365040300904	0.47863164423262655	0.7947900275191049	0.7377462368458659	-0.2073645288477165	0.016522882464535066	1.299014565049161	1.0385067436701367	0.7649849037883558	1.007353422482617	1.0632321807720178	0.7781459669494023
-56	-0.14715079926055238	-0.00405137239863815	-0.7567705492940194	0.38176107310230806	0.5090512024424915	0.3810077001965716	0.26437586479195724	-0.8736125804779035	-0.6341646297656179	0.4446926403739173	0.34347543033665007	-0.3079828016134704	0.2596637600064909	0.16626161294921782	0.308140426096181	0.15850366611993544	-0.8423883893679247	0.06641280634324907	-0.2667502754152349	0.8189248421973977	0.1774715925742738	-0.7727915625134579	-0.035118076861647037	0.3574364474332073	0.7001400572266095	0.7130535822985287	-0.0835144517697371	-0.008800492599739147	1.1463733882571137	1.0226218674590215	0.8492713549152747	1.0245505545497942	0.9603052115036851	0.8517364838076714
-52	-0.024546980795873953	0.06492649002372133	-0.10486410531748083	0.24918469723730893	0.5163968192414199	0.39367210765628097	0.16150705475561736	-0.3802967657978081	-0.044786352551157586	0.4303402889830753	0.3822040548211603	-0.26776429943191604	0.18502034200208392	0.4938756513047348	0.32405117072306344	0.22453206720883734	-0.6697036010999935	0.06066903456629257	-0.335631667720269	0.6181004031788264	0.07771167884518253	-0.6563030464768442	-0.14516086839742767	-0.005969583041795374	0.19672243247432428	0.33222427880331945	-0.0560389755741524	-0.1040751484389033	0.607400296585053	0.6408196671519223	0.5932531341833321	0.7523218374331505	0.500621377157836	0.5929661378194633
-48	0.2797236435503575	0.23671245515187023	0.5218985067542323	0.21287070161003696	0.536819397047829	0.3785426011064971	-0.05843940362480882	0.2524223917310114	0.5305611477807927	0.43820142635336456	0.4490754593001534	-0.1880884016771839	0.12158056317866099	0.7084009629483979	0.276036410826894	0.2720381312654555	-0.3986713876195501	0.19749142179695248	-0.40327358144032815	0.17228122012033723	-0.10744298222356363	-0.49369132394123233	-0.20332044311688374	-0.5444057570063975	-0.5428886399867598	-0.18886372399330348	-0.11279474170340271	-0.17277981297262454	-0.12689730492978296	0.07731931637077794	0.12567952243545155	0.26936772397697056	-0.11842722415826394	0.13007058170380703
-44	0.6534620506954428	0.4897783982308967	0.9875130628449039	0.41065534845622165	0.6671574098909069	0.4426309455186642	-0.25409233505946727	1.0440731022223673	0.9131749249291046	0.5664516077045212	0.6462459547892843	0.0027976885832991833	0.14652800523002793	0.6618136150817058	0.28342094945876256	0.42913061272041286	-0.03118315890008994	0.5434474931347629	-0.451364396863039	-0.2799216203774791	-0.17392156974273687	-0.27188163927099285	-0.10848785164383819	-1.1068752976128182	-1.2144350974892661	-0.5631712660875897	-0.18977023613224248	-0.11408435524508771	-0.7679897527378311	-0.3964758207324695	-0.3234638265549296	-0.25702586705164887	-0.6220781191378693	-0.3116107277155321
-40	0.8925068951961301	0.7399688940439285	1.2166138856688848	0.8375946858239669	0.9383062100562365	0.6250621064617259	-0.3110643319382556	1.8678823662328419	1.0277397606650942	0.8469543435647708	0.9876297687390795	0.3136346630284153	0.28632444071005314	0.3058709196474432	0.4427407670763856	0.7554480414390821	0.383220224605048	1.0086530421540185	-0.4778581845616515	-0.4939993309423315	0.014621069617907698	-0.012312193370072557	0.14200681412129515	-1.5114906988129422	-1.5270903071948827	-0.589676676691904	-0.22498409393251145	0.09118053294049136	-1.0702236863772296	-0.572130261407225	-0.5605463967475982	-0.650820074822444	-0.8065459111831192	-0.5444983826241446
-36	0.8112063983463405	0.8960249401358258	1.2139605253087626	1.3446209396746165	1.2941167321910434	0.8778019525300095	-0.18627354455648368	2.467345708339643	0.9232526994283494	1.2225191562304525	1.3872225249552415	0.6837620121858679	0.5156252967213951	-0.2506785386432206	0.7748907784925024	1.2003521888944508	0.764082608678024	1.3821898663909824	-0.49134656662865556	-0.3379566362908303	0.4473619449764767	0.23526641667094775	0.43321850786504496	-1.6152716834294605	-1.3400961126825615	-0.25543183023812277	-0.19328798304871503	0.3550619474029627	-0.9442781782151394	-0.4087744940927605	-0.5279077278160259	-0.8043416122156011	-0.6388398392760615	-0.5150350915303193
-32	0.363147138632397	0.9238624549428621	1.0577266189573047	1.7178279118082262	1.6200605589972037	1.1051313849203828	0.09344363934051259	2.5785469943748045	0.7339733820503987	1.5748404224689174	1.7092440085172154	1.02295899132902	0.7845508436422158	-0.7603284697409691	1.2136721580380674	1.628099318208475	1.044195172534559	1.4574512206473769	-0.4938879894661722	0.1491504307795898	0.9730856394041568	0.4280347515266617	0.6005055889227119	-1.3709084953028268	-0.725168583946408	0.26855224303153497	-0.10569908443228937	0.5344611988878893	-0.48906010265852196	-0.03861978267813491	-0.31393200079812666	-0.7154726368006303	-0.2576066845111962	-0.31140708844717113
-28	-0.29972508474016935	0.869559941480567	0.8607417323315357	1.7860077574460251	1.7974909498608804	1.2272273271093737	0.46264302613754166	2.083725208743616	0.5965532049376345	1.7794940426721264	1.8420964432937947	1.2636114326998855	1.0439070436824422	-0.9456753110851471	1.6322587687289793	1.8874225568802239	1.2056485384065305	1.1666184634318297	-0.47244050979543784	0.777988849106171	1.3809522355499908	0.5628659710978209	0.535324274142058	-0.850515542267175	0.06740515662102851	0.7248815875825392	0.014219093100589632	0.5209335075577551	0.06361611916454572	0.3172530821896593	-0.08188731947728302	-0.47709330795950244	0.11255965353442153	-0.09252735949043567
-24	-0.8782571532010098	0.8249778726729905	0.7078135591756195	1.4963842592606282	1.751036162723834	1.2206556766208994	0.8464550950613926	1.099640247429669	0.5691915140086388	1.754971618989838	1.7467142299420824	1.3846265042632484	1.2467690674775158	-0.6535599811265616	1.8904209089234352	1.8802206468794862	1.2764611211974115	0.6303870662032255	-0.4103474606644117	1.292984601571038	1.5047683677828563	0.6759539229492947	0.2577624612499234	-0.22677048983540327	0.7178468686099742	0.9013246275080045	0.151849478099817	0.30906492393663554	0.45703995112422224	0.46781512976790074	0.03153825543308795	-0.2307843262090889	0.27858158875702205	0.010705197202953399
-20	-1.0687819692330425	0.8625968076861966	0.6044370516775259	0.9234329438736951	1.4693634472942423	1.114506241845566	1.171669361017344	-0.061063334191647466	0.6022287591988179	1.4858514032996724	1.4578238688855716	1.397342916775393	1.3351498808530087	0.03444196275121532	1.8857890319896338	1.5977846343708277	1.2928206887983194	0.09308195835692866	-0.3082406513061178	1.4834810457922292	1.299723264273751	0.8093664029667696	-0.08975626505601814	0.2873336069481974	0.9741550659380168	0.7308502774859877	0.30666264814199573	0.0025437490484715025	0.5206772671905127	0.343555926409216	-0.011041912222342628	-0.10621561828260878	0.16772441523644105	-0.03527181214129582
-16	-0.727652905534374	0.9806392168081816	0.47224905967690267	0.2174006247992073	0.9982285474369906	0.9510890817471379	1.3624281848841742	-1.0394637558442341	0.5762997851126709	1.0186414692909704	1.047432539202716	1.3103707995709653	1.234843727808833	0.8091193417147994	1.5931400020430768	1.1143704624651105	1.2559363810301152	-0.21878158990936053	-0.19780448029168363	1.2742258278146883	0.8584032037043223	0.9692283248272562	-0.32604941643411334	0.5191411958938843	0.7588388900671482	0.3157918147220352	0.48175117251836014	-0.24586766896161075	0.23669835865341643	0.018686808598545594	-0.1394475545938745	-0.1716693337397791	-0.15108577868939926	-0.1606316115376891
-12	0.03868484487303328	1.1018115254240648	0.20529304392958375	-0.46517711760376945	0.42257708204390476	0.749443529144214	1.3433458771168005	-1.5997738797805392	0.3900287737535838	0.44626012331826304	0.5868657812560383	1.1103402348141531	0.8832687117210717	1.2758227554534787	1.0840959521579403	0.55576544859759	1.1239228220219868	-0.22555334809100158	-0.1306910511531911	0.7626005391894258	0.369812159796676	1.113707301189014	-0.3353638938542916	0.409458904424666	0.20531010575910763	-0.12276847629545473	0.6761659962748701	-0.31732115069382094	-0.2566461258607436	-0.3316104701729722	-0.22110944930518614	-0.40718486802293663	-0.5075811730921075	-0.23710718691089863
-8	0.9230108237804615	1.1292650671104276	-0.23997901319473228	-1.0083872054389913	-0.14937940202191638	0.5027229177180208	1.066124674966375	-1.7161931948247435	0.045798469219210755	-0.10877585383608514	0.13427790965510622	0.7799416760780168	0.28234559226276235	1.171297070407017	0.5184540735506484	0.06303491427480828	0.8513067343199259	-0.028177795860554796	-0.14337576889555645	0.1866661007459833	0.045172236745749494	1.1838172644290563	-0.12693507937331397	0.045181795840631214	-0.39234810968522804	-0.34095650825247936	0.8890503622496874	-0.18227951182597468	-0.7215071898363895	-0.5102360235683453	-0.1286910769074471	-0.7081369739773543	-0.704850075849514	-0.143144234653511
-4	1.5823926885707604	1.0198458407402613	-0.7781335691833203	-1.3432294096412034	-0.5984405264050375	0.20999093300730706	0.5528642521251175	-1.5305973252753227	-0.32362326897930127	-0.5124231563982115	-0.2521376305413159	0.34313741239698226	-0.45687615756079303	0.5321561680709551	0.10240387890710448	-0.23768851100992533	0.45117831116252	0.17067664818587366	-0.21995568219918188	-0.1666019256677037	0.04147644330520179	1.1567245692612529	0.1863369937006869	-0.368512003683473	-0.6989897471899935	-0.1706541921360112	1.13066625309627	0.10288590911876665	-0.9136974788485311	-0.3756867041639395	0.2062901849306749	-0.9183973050772047	-0.5934784397400144	0.18558590067260733
0	1.8213331653387095	0.8275203683941104	-1.1975518434806838	-1.429949876036025	-0.8142954686586706	-0.08635988809716305	-0.07538377474587345	-1.2203011481946706	-0.5122789131582192	-0.6478195174073818	-0.49961680047732787	-0.10066247706032387	-1.118333813704799	-0.28692832516707034	0.017930531829028807	-0.2607561939331761	0.0317629761191947	0.20452490397314146	-0.2796405546757504	-0.08013108352457139	0.4072909046857244	1.0814412804956364	0.47380328058781934	-0.5929575547506373	-0.48232650635060204	0.41484436288045984	1.4253355228677433	0.4492586839777304	-0.6795868260391825	0.10861494364733963	0.7725281099842158	-0.88580590262882	-0.12149745195231214	0.7374034505346281
4	1.6841559367574366	0.682371733849992	-1.2505202261823396	-1.2475714652034564	-0.7292772513096919	-0.29546379968432346	-0.6162576659856028	-0.8710216261807036	-0.3545044949641083	-0.457453696764886	-0.5337002263899632	-0.3921154131526124	-1.4564365111772823	-0.776863811438876	0.34362807783153443	0.011607098363837116	-0.2322619402505014	0.0489056816952487	-0.2072463626397476	0.4922746109454653	1.0618518564117942	1.0615128251931678	0.673804221836253	-0.4653900253943696	0.2753669016561448	1.284670707320178	1.7919338896332115	0.7940458039263184	-0.02510107116024249	0.8590321519144043	1.4843424521163482	-0.5271299468083155	0.6449182017256199	1.4301693403375337
8	1.3975119555475493	0.7115161400950739	-0.793134389305359	-0.8073517063738033	-0.3559160521581153	-0.31982031383829856	-0.8577054121296985	-0.4425463963302638	0.1673819418495875	0.016517050522587548	-0.3223524383512537	-0.3825024356721526	-1.3112206425940272	-0.5472031817925781	1.0020245288345722	0.5064100014298727	-0.18838481557490355	-0.16652417140879053	0.07966221848879075	1.3884322608225483	1.8134198142997289	1.1896311014657694	0.8292407372519189	0.015526433436115095	1.34930967943939	2.187657350738903	2.2114701215222876	1.13024830532816	0.8710566141070983	1.690893288157968	2.2043452207224052	0.12176552384151265	1.532112594550977	2.1321289485506076
12	1.1965393989870852	0.950322983249774	0.10685448321544022	-0.18239998771392277	0.1932206298002889	-0.12353721229834327	-0.6781569702192758	0.15149566492932356	0.8856037236742523	0.6199141725147622	0.07534766178181133	-0.025526279519125682	-0.7031090837846652	0.4370196152620643	1.765970225643893	1.0589853498424933	0.19323772143213508	-0.24700426992996302	0.5629742727371044	2.286964887567033	2.4141108928765136	1.4739179573993204	1.0481233570339188	0.6720578653533879	2.347585195336345	2.831878893378147	2.605098002532257	1.4893953762597798	1.7103698210448905	2.366547578558733	2.7736613680429545	0.8944813586539747	2.2997455538860834	2.6895651749416785
16	1.1532407969922165	1.302136894753192	1.1632035941319798	0.4777315842964682	0.7276576143012994	0.2205280059968702	-0.12171024798420363	0.9142026878163718	1.5110136232373645	1.125640389461498	0.49895503991037987	0.5684478268576538	0.1518802489976046	1.7964011385385588	2.3364446104187935	1.4530616961986205	0.7741292099481301	-0.057708337757323216	1.1014128895608135	2.8322255539912855	2.6415910654131434	1.80927860280048	1.4164591991902027	1.216511842517287	2.8678731845928125	2.9859263821554745	2.8481638359639847	1.8938503217565734	2.1834332887836254	2.6666378907588415	3.0485105437558873	1.5399700364332995	2.7103903225178843	2.9615693017573754
20	1.1255249948695043	1.5774832924115856	1.981838340523988	0.9744755005075203	1.0455758545226503	0.543462096272696	0.5978940710231164	1.6829422669835843	1.7705296233298302	1.3194470372265779	0.7378656249490496	1.157357928215037	0.9281330681255918	2.906309120469892	2.4650716719379133	1.4990141353907682	1.2940586772671787	0.39136660000218976	1.477574583137769	2.7851300169245214	2.3832542836099364	2.0208120295048735	1.9232153843960569	1.3823859656717983	2.6720025471936615	2.569526189038693	2.8249647546016585	2.3173949659966744	2.0970947689515604	2.4700398382766884	2.943979255872831	1.8178658439515898	2.6149144106648214	2.863404028338837
24	0.8606754519667128	1.5964263637291154	2.2407529297521886	1.1308251590788398	1.019056436826849	0.655604360832551	1.1765235632755962	2.1660432760864423	1.5463229378760002	1.095774051760719	0.6279933436750893	1.468783970939199	1.3371969427680062	3.20982550764304	2.0659275002771986	1.1199901075696357	1.4926192722782514	0.9450500583630319	1.49786018947083	2.1311685985164113	1.6883888202001187	1.958441252532218	2.4439663825319706	1.0558449003264965	1.7978188946156066	1.6959023432829554	2.496482127562345	2.6798045567564825	1.4650165997710374	1.8135280563343676	2.4726889071023974	1.6059696633800087	2.022557968755226	2.4059476791672654
28	0.1943307663064277	1.2978289094582824	1.8446026993909825	0.8770543314724792	0.6585277302328241	0.44971987491551557	1.3521203960613217	2.095204824879794	0.9434685087225547	0.5170360194503774	0.14653328024107723	1.3315370049237147	1.2616718975637913	2.512876504275714	1.2634836403418097	0.40424448149662323	1.2439372508113866	1.3864585126204394	1.0977735491693061	1.0959360571848096	0.7639975528501444	1.590047832289226	2.79749464282409	0.3442582181345089	0.55610710242058	0.6451036317750479	1.9427827547613878	2.8820042537404844	0.5192759619953812	0.9032788849913211	1.7616479352342733	0.9719421242970281	1.1232360573066187	1.7136056379922873
32	-0.7826812843589112	0.7902406434134646	0.9704188083943495	0.3019023231990278	0.11688274115616287	-0.028753878476144776	1.0269340250790548	1.4045590126815515	0.24477389393042145	-0.2025027866019193	-0.5545350299185982	0.7657558898665789	0.8019114116449545	1.09741222581359	0.34608405741098125	-0.41364753141871413	0.6268998368648009	1.5457771977498147	0.3922775973906368	0.05519519359839082	-0.09458913630207513	1.0324946615854014	2.8407707142632903	-0.45763713005871914	-0.5931658133789567	-0.2318671339856672	1.345625277936546	2.858499281341943	-0.3721459498546418	0.05770843088958045	1.027187106400132	0.16693635242753288	0.23657122194643151	1.0001014445803942
36	-1.7115548805893228	0.3060325376413436	-0.021938310880704418	-0.3723326017992847	-0.3837125291673274	-0.5976974949051435	0.30932217758283664	0.3150222591552831	-0.22910781146856307	-0.7959778884818346	-1.2136231630201857	-0.028078345510998144	0.20675381965888973	-0.41518977179606115	-0.36381015089688207	-1.0531693670385738	-0.11889625310681731	1.365823503860587	-0.36509054807039193	-0.6288604124404478	-0.6236415489663805	0.48989471669488216	2.541615241309479	-0.9974483226388506	-1.2380397288536202	-0.6525471790050952	0.9050551630057879	2.6099090510278007	-0.8587700106873439	-0.41444936290053064	0.49875882142027467	-0.47292807578846957	-0.3111179165137734	0.4922687994926144
40	-2.1388747638106755	0.08210790136587863	-0.769636331045594	-0.8854678250845075	-0.6635558588440916	-1.0326762173329287	-0.5409918413808615	-0.7403288464928184	-0.2799284153069663	-1.0744391652636813	-1.5908235271343745	-0.7714784721923713	-0.26810845664998023	-1.3759050334524432	-0.6567335708249699	-1.3204033341449397	-0.7231443506103017	0.8997259713345199	-0.8956082440652531	-0.764200685479026	-0.7044126969672564	0.1386377211885171	1.9917510697622665	-1.0251696083888684	-1.1880357235477395	-0.5209190236291114	0.7388319950523531	2.2008683625921455	-0.7580479364329757	-0.34641867788590547	0.32611292518296114	-0.6726383549873899	-0.3265264026027241	0.33683550272775814
44	-1.7812882616846253	0.2335985297027314	-1.0748095485253804	-1.0612295839219101	-0.6759983880141849	-1.1872231930322126	-1.2346950738251385	-1.3227072920782708	0.07173914444215564	-1.0188002560642513	-1.593594427853697	-1.2439105479305947	-0.49316003794136826	-1.4273819887362948	-0.5260804878304048	-1.2030369012976458	-1.023765442170795	0.25865036183857826	-1.0233358118923386	-0.4016822268358102	-0.41326114430993316	0.03125456340170543	1.35868823185254	-0.5028133975685615	-0.5401702509593519	0.03538397318131874	0.8255690315383802	1.7296845869263011	-0.1272429075604793	0.21092843956145102	0.5173920975973665	-0.33980473790207	0.16480557578915953	0.53872370583895
48	-0.7198805790845758	0.6844234449272704	-0.9759265755809136	-0.896376726748402	-0.5330393300903623	-1.0765147181988097	-1.5862162073141588	-1.2196607558928205	0.5973139390169822	-0.788577316200562	-1.3304291929987162	-1.3837695086828314	-0.5196779953233762	-0.6653208119760797	-0.16149106580969674	-0.8800401665403192	-1.041372058146545	-0.4500985134204953	-0.7544730882669525	0.20400452562324375	0.01364725917857432	0.07299821060347036	0.8037531355592193	0.38489451907256156	0.3862164904856973	0.7252119165230504	1.0219458315796859	1.285562631222345	0.7743396739483006	1.0092109416277075	0.9384633278994677	0.39473086495875315	0.9298878884679936	0.9611077880435593
52	0.5989646896498689	1.1968470781626388	-0.6921044570615031	-0.5653070793184338	-0.446636496846747	-0.873713729559832	-1.5916122157920514	-0.5672983512860627	0.973062572406687	-0.6373342259528364	-1.0564483377486789	-1.3000485864241138	-0.5287762866975	0.43961903341880093	0.15206336936705345	-0.6334815605382166	-0.947808799734851	-1.1535477609120348	-0.26358428530901623	0.7260460239199312	0.29047971890543367	0.08801829792688405	0.4150850166331329	1.3270019259327843	1.2137428491465925	1.2305301396773287	1.1498446435507788	0.9198677516601012	1.6201298195942577	1.7222833589939377	1.384989973386171	1.2462106911666697	1.644170637747977	1.3986945116969074
56	1.5756418665205438	1.4839574061120713	-0.4899390029458385	-0.337228178126547	-0.618553994524422	-0.8218170979731765	-1.417341109512073	0.20878456480242133	0.9332304573339136	-0.7826693038253416	-1.0412381861147175	-1.1967893808666419	-0.7127500158434541	1.302291509201349	0.1733819390926253	-0.709134934542309	-0.9542792415367519	-1.8053605510907065	0.20310957678536198	0.9198619700095725	0.21208155101636442	-0.06750150752906467	0.18900269222224644	2.038264507869624	1.6835341411047096	1.353131648462028	1.1018987866237957	0.6438767893747336	2.17887830184139	2.1096525138997135	1.6926760630786988	1.9205342482715395	2.0565326161914212	1.68899404576164
60	1.7677844718169857	1.3424862589320201	-0.5581340179656945	-0.4515111136957832	-1.1441352338514486	-1.1155958147493092	-1.3161100115926079	0.6025730356261713	0.38032236599267444	-1.3063672748007997	-1.4377372228562686	-1.2635875908420355	-1.1665834159007904	1.5107479057316267	-0.19427524457995962	-1.204874274072853	-1.1945420473457045	-2.3683741032886187	0.44926014429152367	0.7184553128223051	-0.2646419101232405	-0.42167448891034987	0.05512465522676753	2.3823046624117725	1.752171869622517	1.0938116284410888	0.8959540702133668	0.4409558761907706	2.41631864891342	2.1347672885402846	1.820264930897742	2.2567481937651492	2.1132056659750935	1.7954550936190723
64	1.1176842422876767	0.7393204551150542	-0.9505958533128668	-1.011003491710157	-1.9758126685802782	-1.8143119766204745	-1.513132687563069	0.2761124663534354	-0.5920374378515626	-2.1323208755063	-2.2209405842974492	-1.5930385549379251	-1.8478724909858155	0.9908614729659971	-0.8839060045814012	-2.0418744035666867	-1.6690531926930892	-2.8088514733923406	0.4094762791785741	0.2297786468426552	-1.023806569375586	-0.8826130010255532	-0.07378104310481269	2.405336135513414	1.5693334301427333	0.6275838001618717	0.6472664459099072	0.2828568809043548	2.48486542074353	1.9741334865319053	1.8590823365004212	2.291923517162668	1.9738463113541025	1.8157205535822503
68	-0.03824548786163225	-0.18767705512346627	-1.6114586551035162	-1.9437943647899618	-2.958159916084831	-2.8244502473092563	-2.111678594979803	-0.780455527719328	-1.7606953338038782	-3.084398500284542	-3.2215020575250586	-2.160838360099217	-2.6169152193755902	-0.01976744453088538	-1.723315711438841	-3.024349205010737	-2.2709290923957277	-3.107433311246282	0.15084578058781709	-0.34872755320241805	-1.866307730731141	-1.3079327311872282	-0.25421217019748565	2.2709708156469652	1.3608572448704401	0.19482083569453368	0.482428847525423	0.14416302704176218	2.6123661928978175	1.9123679351207707	1.9669392059256796	2.215904945500959	1.9120253276234669	1.913339133200289
72	-1.173240777868235	-1.2011567323875978	-2.440879338777558	-3.0427248401114375	-3.9064979454593063	-3.9496397872388114	-3.0531098765537235	-2.2509226742180894	-2.8743741439727613	-3.9808521170245097	-4.223455895251106	-2.8619940208655903	-3.318943968976429	-1.1435748309826852	-2.5271673138709807	-3.944184531744162	-2.8621969150758937	-3.2745339787778844	-0.192322521916242	-0.8412409999588953	-2.6086273127497868	-1.5950709541103452	-0.487037240229242	2.1424012130052636	1.291603561955079	-0.027451634337734742	0.45552655939487363	0.01388303093832356	2.956208221601233	2.180333132007395	2.266402477264334	2.2471446934231847	2.1563503687775403	2.2138047162429557
76	-1.8656920147521658	-2.0659847207360382	-3.3441946422067446	-4.0552472965852155	-4.678538787473713	-4.971367346609881	-4.141269196545033	-3.6492409613981245	-3.7400691414819156	-4.704971301597652	-5.0610852113736	-3.5674269109302466	-3.8508586786320085	-2.065564627200722	-3.1670100608975007	-4.664890277528925	-3.3420286094210754	-3.3450124179309983	-0.5063774572939075	-1.1667940587148948	-3.1477167526881553	-1.7278107361085835	-0.715392766576833	2.0822036213756316	1.3850946391421324	-0.002796221284586581	0.5257838951187513	-0.09191290265957812	3.5062794596838724	2.8258590626896103	2.769435398739049	2.5015997823498393	2.761336319627417	2.7278261115821394
80	-2.0143823572798962	-2.62685155205314	-4.228466500096854	-4.7737126229878175	-5.199398981318581	-5.713513359903379	-5.109768377754593	-4.538972843154453	-4.255478848203703	-5.212900625419014	-5.656643376373866	-4.159115303982886	-4.170512665709482	-2.647972100248107	-3.5839829354398383	-5.137282358550605	-3.6605319884387093	-3.341347447542302	-0.7501093726293188	-1.3379830088213196	-3.4595210464871067	-1.7461694434902106	-0.838184354573241	2.030877823470549	1.5407323798380521	0.17883220269828762	0.6138274058103117	-0.11813096672273644	4.0934820071820415	3.690237035971133	3.3750770006797994	2.932690136180874	3.5815691857511083	3.3493492518739063
84	-1.8426703168122431	-2.83003830195213	-4.961289870133859	-5.0851259103180295	-5.438469873048969	-6.067635044037384	-5.706343159573581	-4.701223361543638	-4.392948139543638	-5.487685189697173	-5.9901637879768765	-4.533032405852556	-4.255644787534338	-2.9166390822205446	-3.7548589611619825	-5.3529000147139865	-3.781607141483854	-3.2340884127026315	-0.9460742449716216	-1.401970382965492	-3.5479240327904	-1.6686263042282856	-0.7357119899294625	1.868754739811572	1.6249546963673545	0.3865779926553473	0.6923980099362808	0.02788237289005204	4.49211548624761	4.496777523131591	3.934266795715735	3.370728961063702	4.356152523486635	3.9222152134097366
88	-1.7022168593345177	-2.696966164455463	-5.346148954245192	-4.972301470600442	-5.370377050192322	-5.987577900074469	-5.768544659355502	-4.181969155243545	-4.166303624124649	-5.486132131076826	-6.0401196327299	-4.590004432533667	-4.058749665503375	-2.9574820920661566	-3.6516346839262606	-5.282565580382286	-3.6401362327223814	-2.9337525293666684	-1.128876802455341	-1.3737370933181463	-3.3912639532298736	-1.4328714572969592	-0.3062700323478515	1.5165148935176644	1.5709899624261487	0.5451203570908054	0.8397895672576343	0.4482312787183309	4.551743495893207	4.995611178183193	4.335223663828782	3.631726732621543	4.848465430416272	4.328325260678475
92	-1.8085107757684218	-2.281668657264243	-5.169970022500059	-4.48500298321381	-4.960794436327737	-5.480098710529315	-5.270406709715963	-3.2200121798280144	-3.61177038234539	-5.129526125354856	-5.752981171388205	-4.245647419700693	-3.505991211622466	-2.8179237771414076	-3.235441914972774	-4.857441889896783	-3.144688359904053	-2.3377559126005414	-1.2948775258750356	-1.2130786149868924	-2.93419718001557	-0.9132599807569843	0.486773221455876	1.0062946055755002	1.4210320675258254	0.6762582642647494	1.2032940357345576	1.1981347769051152	4.27682017200236	5.077190863188405	4.549185741383062	3.623775949865738	4.955033766634029	4.536099899283533
96	-2.080720180980207	-1.638874526654476	-4.317281712122372	-3.709347238712191	-4.195216645139297	-4.608789432333652	-4.331437576802209	-2.11323475304167	-2.7933890749023265	-4.354323852989543	-5.073157297677349	-3.4719817550738106	-2.552081340068455	-2.481377118521502	-2.4941630300492794	-4.014884938593859	-2.2393264713970256	-1.4167066776746853	-1.3933374846565996	-0.8610755183414351	-2.136078590722032	-0.0178236458000552	1.571176286545246	0.4745272684037557	1.286523338884409	0.8605032541483915	1.8824111175694513	2.224182600127887	3.80686091415569	4.791814791978979	4.606499183468585	3.384262553253654	4.721967208384576	4.5778856161885315
100	-2.183667892664869	-0.815501985875168	-2.8825769351660404	-2.7500708033747316	-3.1268196027012425	-3.501973143319012	-3.1803643623164213	-1.0956046553606953	-1.8148807241394853	-3.188216201362149	-4.0119132894314395	-2.3468801915997215	-1.2556525437124115	-1.9169708441972844	-1.4928755722501386	-2.7770814825515315	-0.985492107764252	-0.2788659327142051	-1.3633022273929536	-0.3062590054885959	-1.0399030420751199	1.1976064413351601	2.7515575816302555	0.08063267896083169	1.2580828634923473	1.1502279014157168	2.805957310267934	3.3369131004007877	3.314098349787003	4.2761087309641175	4.525763023394103	3.031454555487182	4.2714342963140535	4.478510368484108
104	-1.7414479211708935	0.13714545930568803	-1.2004147737713071	-1.7237620310177924	-1.9020625304837036	-2.342830890462484	-2.0805225319786307	-0.27499812771985055	-0.8142399171298803	-1.7943475201126524	-2.700175516940647	-1.0698741647411492	0.18312987638967704	-1.160259243896799	-0.39345344801747456	-1.3020715680626829	0.40024730462111024	0.8372752049287774	-1.1915199726539327	0.3678467860471367	0.19163124214904353	2.4821777281081037	3.7457284832797613	-0.09945730094833063	1.323874231810737	1.4959081373593643	3.693274011824061	4.24721144557565	2.8822433875747198	3.6419675258238366	4.2526416671195575	2.6653344563901844	3.6946046259106673	4.191583146002963
108	-0.591252385077208	1.1536102265796018	0.2566076510626382	-0.751964865216492	-0.7359382491604587	-1.328447696192806	-1.2434213130075136	0.36031293778048284	0.0719966141551935	-0.443504719806543	-1.3781160081401593	0.08290381708671613	1.4640780650367735	-0.3513916125962504	0.5826014265609942	0.13769248093173309	1.5954943855057604	1.6560690361172896	-0.9488210654145157	0.9901503299509774	1.3066530194671315	3.458608857005767	4.273421753584427	-0.1375542726620091	1.3489342893875422	1.7380013422001033	4.144153107670564	4.6662406803575465	2.441929095778691	2.9033572600494884	3.659621467887419	2.287787431662857	2.985398761841255	3.5960445313261338
112	1.0814920636528569	2.157277817047904	1.0809612246878275	0.0593629738679814	0.1662571276997098	-0.6014148577764648	-0.7580316643649931	0.8931514002184592	0.7579443435606177	0.5870097264728074	-0.307157038866837	0.860769984933088	2.301450008303777	0.30541902703421947	1.2390552727887394	1.2555452553520867	2.30129384413486	1.9983437010856486	-0.7738593797219131	1.3668287957968308	2.0578131623765428	3.787608137104689	4.164249886489453	-0.2350129330185192	1.1298329801644138	1.6770288901903476	3.8242618941074844	4.426029194147616	1.8021508409776554	1.9874426076302	2.6177527838418593	1.7961264803361272	2.0590047784318837	2.5652911598288046
116	2.813692801047354	3.074059001790749	1.133878466604395	0.6503691656858566	0.7004547101455844	-0.1881499136704368	-0.5679639563525889	1.4192432129313428	1.2375240294683256	1.1359668941427625	0.351735233372513	1.1496314973416002	2.5545899803514276	0.6355947836087479	1.490621443799714	1.8783978176375673	2.384722465216337	1.8776242685596254	-0.8094755390710778	1.3664554323029003	2.309766763577579	3.339566937598067	3.432539454376884	-0.6296738966302885	0.4917629050713605	1.181629535552744	2.645682089801618	3.558092823581987	0.7583751063273219	0.8167405107858289	1.0976186963025707	1.053416726313767	0.8385331013489413	1.0671384307621554
120	4.093520630991758	3.8467388055955354	0.6346069558333793	1.0275708411022273	0.9109312272914893	0.013387905399972783	-0.510846255920015	2.0047872015881794	1.571740742529844	1.230203863852652	0.6180831178318852	1.0277497742453912	2.2976543845340633	0.5850464090835077	1.3962352240596838	2.0251264521014027	1.9493423651116477	1.493459816976752	-1.128745553027877	0.9741120313845977	2.0962290710930285	2.2694387378615266	2.2744107188975575	-1.480621095733837	-0.6278879626633925	0.2673688226148298	0.8332493284168776	2.282226079900775	-0.7863112668212124	-0.599072097219483	-0.7705576996422058	-0.011242677429245602	-0.6538182480517212	-0.7750422934991389
124	4.616184222964396	4.437730777980377	0.06945476663458391	1.2571530310361987	0.963337597798977	0.18211306585585965	-0.4014420797226165	2.6667265824700435	1.8355351640134854	1.064191100294743	0.6805235130294629	0.7305964213045303	1.7836954548624466	0.24943187769856842	1.1189248533608993	1.8897557210894211	1.2883074251073219	1.1152363987422211	-1.69707595873562	0.2867347292813287	1.5955131013641728	0.9468053555425907	0.9797155832350741	-2.7948675085076027	-2.150779718690897	-0.898884711380284	-1.1680409878804479	0.9038491822310922	-2.7536024977780467	-2.124541992545593	-2.7229628494179043	-1.3370958532907224	-2.263831848150951	-2.7054333618522985
128	4.420279968545676	4.823427664976557	-0.046790316582801174	1.4282171690167789	1.0541834804622219	0.4811311650049719	-0.11799146950257243	3.3694813166424136	2.0588457532400244	0.8964672065989425	0.7958140949184054	0.5397569523535227	1.3204143013995506	-0.17886918738027738	0.8351601937189074	1.7366017059350212	0.7421188335755489	0.9244219637419561	-2.3941802918068382	-0.5414854274430003	1.039548513648891	-0.22197385076269766	-0.19720397839824888	-4.431849468485948	-3.8895027539281184	-2.069173092386314	-2.8963339255640466	-0.32621326960218716	-4.907839762694345	-3.539540997151775	-4.465639103105228	-2.743420117127485	-3.7549998665418753	-4.435950268036142
132	3.834823837135017	4.991031634127372	0.5621579871289664	1.6042659242180506	1.3081601825111169	0.9757070516747601	0.35453036337987553	4.034377087897673	2.205107683336447	0.9225897765708312	1.1558544606590184	0.6562032086970975	1.12597059919272	-0.5116935955480026	0.6496226175119296	1.7685072377377071	0.5410771952319644	0.9162875390760616	-3.0803282183123963	-1.364803191553898	0.610774157889401	-0.9785552596181611	-1.1394141883692883	-6.1735162579119045	-5.612606034413516	-3.016020767226588	-4.073838700499458	-1.3125808205843674	-6.943095666521883	-4.634555804949262	-5.796469196943692	-4.01143168390287	-4.911082732199096	-5.766253456816121
136	3.286992064760225	4.953303324591279	1.787949915186483	1.795621986624022	1.7288180546027443	1.6169872243110543	0.9509198641610478	4.565947997963057	2.2098267022606897	1.2015181749526032	1.807412858214431	1.131445166592228	1.2490284411366674	-0.647985039505505	0.5713577256082416	2.050970787592182	0.7263654452104761	0.9300451255205141	-3.6618087199265745	-2.076873774053273	0.39194753667102633	-1.29325759084342	-1.8816504430947483	-7.8088807862537095	-7.09904525871848	-3.600567093341693	-4.6873888851076195	-2.116501087567115	-8.583456017757568	-5.294161306366194	-6.6668290923597695	-4.979919897857819	-5.621921525112653	-6.645174009711806
140	3.0884225290524583	4.773939120637392	3.195722810306209	1.9708352039169417	2.2301528397520958	2.301790708452453	1.6020923812471588	4.891790377664065	2.0570838399449123	1.6726921754567288	2.668854706701731	1.8894069147090762	1.5921614129876251	-0.5922777041740456	0.5623649344551039	2.5313680108055654	1.1893812387955018	0.7918701151882201	-4.114640702349568	-2.594847195749666	0.39059832593529703	-1.3010340896183419	-2.530619614887655	-9.185263610537467	-8.16134736861577	-3.7751562500053897	-4.90894650173574	-2.8594124244975965	-9.647773718317493	-5.518091187850386	-7.146069985467429	-5.5975956775483375	-5.900966152551444	-7.137071591477697
144	3.318749180997795	4.580809104798094	4.255993355496105	2.097494835326283	2.7228002479473674	2.966725818773165	2.3073761404909634	4.996644961139567	1.836087103022712	2.2406926098518283	3.6222710517982484	2.811882011943649	2.0101568648131476	-0.41817575587551264	0.6175401195193523	3.1267948071690785	1.7895547106383638	0.47287365674792703	-4.457036960792962	-2.8250899243553707	0.6050626620275089	-1.149185296971938	-3.1492521683336925	-10.209571812602215	-8.64987943372756	-3.538818588858921	-4.920900332424554	-3.5965182690416126	-10.062520001755225	-5.3766345842036225	-7.32101295530162	-5.90573070942418	-5.832157120284984	-7.323938828096967
148	3.852073421289464	4.547999847373605	4.628888595338326	2.186543459140153	3.1977195659011435	3.654376259160428	3.153842441225546	4.933996188104381	1.7331137613408611	2.8671212123962246	4.616235244540195	3.8277962111151624	2.4165363250755902	-0.2007960076030852	0.8174341896399735	3.816149225136878	2.468796723808391	0.15475866159466928	-4.689451205811641	-2.648741000163768	1.0775964232894624	-0.8619024731809611	-3.680132618195741	-10.81181523454361	-8.458888986211718	-2.88874410853609	-4.762487876312056	-4.24294327618335	-9.83372304340954	-4.935693251546141	-7.200395565927194	-5.966682895854763	-5.486006722904536	-7.211830120952036
152	4.481276977669017	4.837200629419322	4.344507683275557	2.307476991549669	3.7485504055748824	4.5009899025765225	4.261030186385487	4.805219161299385	1.9471104095890237	3.6046073345729472	5.705065235992824	4.943261134064875	2.8265297341509297	0.033545602028314	1.3079389300702693	4.66750191463781	3.282381764707778	0.1481427546575612	-4.751150119230085	-1.9554352710944947	1.8868464183852796	-0.31694677392093196	-3.9628837008558864	-10.91578194723278	-7.553402881625292	-1.8136296226488087	-4.301682938205457	-4.605912196928318	-9.014680839666877	-4.210624207356257	-6.696342928192236	-5.796247467665687	-4.868497836218967	-6.712839109638624
156	5.048292624125624	5.518315778151332	3.7806987666997705	2.55662679026755	4.512257564596414	5.644626126343171	5.677584156960644	4.711027610328699	2.5699820453607845	4.5483999137483275	6.994008046611847	6.193756087877894	3.3099718010303314	0.3100492052356489	2.2102327290998747	5.777068600374021	4.325974453494468	0.697345791486594	-4.532340515137751	-0.7161549311676516	3.076700918059103	0.647889552864816	-3.84197567923427	-10.452931377722654	-6.01069210442285	-0.3386678389104946	-3.350845328453991	-4.51000975423832	-7.696155528664779	-3.1833827415202265	-5.702000126747633	-5.351409898598364	-3.9396974940967993	-5.7217106674693525
160	5.502293572839001	6.512082083473124	3.45347260556915	2.9958205147446297	5.565177426592588	7.109494668176961	7.297372322731912	4.703700530574249	3.507772675241015	5.741254315186123	8.52851579420243	7.559367160785038	3.8948867222677968	0.677034733970278	3.5177762419577023	7.163007718121198	5.614532456527793	1.7884203150418627	-3.9386334319809553	0.9535775160555829	4.572287071128204	2.07332586718662	-3.295754185938664	-9.412868475990651	-4.040185918144238	1.416342374086738	-1.8447927189980469	-3.9362428088943395	-6.0122594681579065	-1.8646620464930477	-4.211209763385051	-4.578245151404909	-2.6839380196519307	-4.23397778395745
164	5.870680317361795	7.594964961903658	3.73727964411347	3.6002705006300393	6.843093854793161	8.743476845600624	8.856971718360953	4.770452964182571	4.49828099068761	7.099883061603327	10.206862423876146	8.911286331566107	4.496557701202215	1.1646547288100177	5.051165091159388	8.69194791506666	7.004569989639379	3.0981104295712116	-2.97297476971564	2.791734688386118	6.150523170201402	3.778721561428273	-2.496691220655689	-7.897150496571621	-1.9503444383970816	3.221181622955555	0.0442595629766724	-3.079396001670463	-4.140755166089788	-0.35018220455448884	-2.393020623841016	-3.4853622825363657	-1.1769316166726984	-2.419560664743858
168	6.188099368684412	8.48110673670494	4.66911314739131	4.254460324036352	8.143580416145978	10.25977704318835	10.034559224543104	4.863696086047985	5.233922468322481	8.422382333471857	11.78628155593586	10.041592572608842	4.932109820311291	1.765824790311008	6.514615042451104	10.101951573616118	8.22804925748545	4.129755009714972	-1.7761890843369648	4.473001945646453	7.50583980572609	5.406084047019895	-1.7520527795425564	-6.127324565676233	-0.05494202659563683	4.79624651651613	1.943984861234183	-2.275232309319067	-2.2754566612014355	1.18076252639203	-0.5577130899653534	-2.1847584192429266	0.40670642154053255	-0.5889908060462054
172	6.445644362388422	8.947993255911907	5.942200168865795	4.804965483931861	9.215841270067198	11.368468255904311	10.60619256202809	4.958636271355158	5.523960576415889	9.480154013540497	12.990665402992738	10.768135997288168	5.021920191483468	2.444348805931884	7.631699065967408	11.12132546478024	9.028790451142484	4.468019474192968	-0.5937824830322459	5.744568810264425	8.387984254640246	6.594424231092378	-1.3492971624640187	-4.386898029695631	1.444638367820229	5.930611118602085	3.459456673470912	-1.8303590966742587	-0.5725741371957467	2.534641497888365	0.9786281560985374	-0.8644390084376185	1.859445924832633	0.9412074661333536
176	6.601249201320509	8.943358398745874	7.083623868223968	5.14236496580706	9.890573476615616	11.92641159861185	10.57364270401701	5.094200121415724	5.403838144010429	10.143070195338476	13.660583461604093	11.052307101001857	4.716509807122719	3.1515316883627276	8.286635377943004	11.618865937462058	9.321659064599839	4.011857022646914	0.321196436071076	6.543343050648836	8.73794744192806	7.184047203999476	-1.3950148785656336	-2.9200398848242632	2.539079898145714	6.591913683460778	4.386719692598914	-1.8523004008257105	0.9002796388784406	3.600290527790633	2.053074831547441	0.29399010464829506	3.041508428523932	2.006867880522745
180	6.640381796283964	8.618997552091662	7.711591224274001	5.267827497533754	10.177104924256453	12.020607917954106	10.188511822726188	5.36293266849725	5.127470957208189	10.464091274545064	13.856449092213095	11.052564593066636	4.165725220653209	3.8355858229119018	8.590634324319034	11.695837945019187	9.272473311855368	3.045902721344259	0.824527917210717	7.0278920949882115	8.7399053352947	7.322941761601681	-1.7467018321760004	-1.8344268752513297	3.4056372556533017	6.9573592963992	4.827918994158333	-2.183673853129332	2.1800198499952463	4.409378040625203	2.7375369002844288	1.205413934525287	3.9509470363047248	2.678197853955974
184	6.625207884273935	8.263145425914907	7.724539737272314	5.29794071767257	10.263019535855944	11.927127808021663	9.8438644160646	5.8450941891915305	5.033180700946005	10.661804172300283	13.840572322233648	11.064119311055041	3.6696858313416234	4.433013427986184	8.824517227781271	11.651213616518572	9.23366830401877	2.099281544153559	0.9488382315521676	7.494359951171333	8.742866494039665	7.396180611056663	-2.0876121468288953	-1.0676307651267571	4.306878555868121	7.329762917132555	5.126389013698958	-2.488361590778648	3.368086567958191	5.11090181967678	3.281804791747809	1.9162137460012587	4.709639060527517	3.204212180630845
188	6.685746176052242	8.161283472436732	7.317639809253007	5.400032029823261	10.412804577286856	11.96384331543629	9.883768056710924	6.525823099826371	5.356896863763954	11.003857584827793	13.93919464406717	11.367858858017666	3.527101746237136	4.860469329006571	9.283840156003917	11.82894894474415	9.56067559689433	1.6687489705869236	0.8861865974940393	8.215261438609044	9.083865142775894	7.809598426174993	-2.106643909857627	-0.4360688913779748	5.441768155663932	7.974253157509769	5.654903874425132	-2.444235557107097	4.552765834757813	5.86830233045984	3.9467837710869644	2.55934881517828	5.4694800238801	3.8475305936947324
192	6.945064050305975	8.45441530000475	6.829545003814185	5.691857323581102	10.819074603421766	12.317406623259448	10.431089374909147	7.2543649490306805	6.094998344291784	11.652662247801535	14.359441720948043	12.071130722086801	3.864430417794521	5.026952254001281	10.108837102163186	12.42804524144935	10.410257313194165	1.9638718317039927	0.8891971684893984	9.284476256771352	9.904498075274308	8.750256516298839	-1.679489608339042	0.2576138072662289	6.826231462410198	8.962717987320042	6.582350714277158	-1.9314106654041134	5.736588940442043	6.739915353924512	4.828579413620776	3.2545480645979974	6.296057685214822	4.708841788801014
196	7.4273109248513585	9.069083190908918	6.526168806765195	6.163169368442179	11.490374536114105	12.941695180643231	11.324717493075317	7.786893348107318	6.99763534686514	12.561808554405088	15.066310844529582	13.034224477284617	4.54730318828723	4.872889983272087	11.194768877375575	13.382447208949385	11.638279885472125	2.814008944082444	1.1439619035448794	10.553712818203069	11.062600107872843	10.064943288187093	-0.9433503723169082	1.1161118717624716	8.2692832737998	10.116393063752996	7.761397818996883	-1.1047440739396102	6.813294393503652	7.61969516737711	5.784577355085288	4.016353120200259	7.106041413485972	5.651432976759335
200	8.009359339519522	9.752973531894664	6.449750407147342	6.665854437210863	12.235019652947436	13.58113762287645	12.199249236777982	7.903570155216302	7.697078208563572	13.481206859884123	15.790151556203035	13.928275073171887	5.234830366269408	4.42080067472112	12.23196789514264	14.379648172313042	12.858816114385196	3.78531979558825	1.6799623923802067	11.695366829908073	12.190430610396438	11.330758066180184	-0.21814569775817977	2.094618315176685	9.457285857165129	11.084559412626971	8.808080650979507	-0.3051338486120116	7.610366325237576	8.28057668502617	6.512629015692202	4.7282748102973615	7.702391128166857	6.377375586620842
204	8.45803544770069	10.198545430183765	6.421978457449393	6.9836325469127	12.751827207794966	13.906204188523022	12.665860144108203	7.54063365939801	7.89812801274347	14.072518313164155	16.16443629952075	14.397250139126513	5.55319403200004	3.801742067275303	12.856286016430158	15.01309867883141	13.635831798458577	4.433059204353255	2.3626727998209573	12.361074416423124	12.873791662137913	12.0805730514697	0.18256427301567016	3.0266110820649623	10.102766011480272	11.522713632101793	9.328030562691662	0.14050617778589627	7.975182989965917	8.500919320578257	6.738839609298322	5.201618181447254	7.890518645392076	6.612692339414176
208	8.544249513034778	10.195433590897188	6.197644218056066	6.947024327858399	12.783251730115529	13.688478435288546	12.499861685665005	6.854742986538652	7.529947738709657	14.078568423012161	15.921645124291457	14.239116632750859	5.296782480218218	3.2317027964061644	12.834022489569865	14.99149223357346	13.704901660649915	4.5397972945989045	2.9740478917374666	12.357156722341218	12.86258789629706	12.058202713086239	0.14145296776344055	3.7124779130664693	10.084259961417132	11.278209657804554	9.156522727736494	0.11444640875770053	7.860446433248763	8.20370195224907	6.401510699322358	5.28956316566125	7.608561496598334	6.290651782365922
212	8.168006876350422	9.728669142002413	5.659799561516044	6.529321177210117	12.247609107566529	12.917041745952059	11.7369193734433	6.168709262532196	6.776431066570355	13.455608333947776	15.037812195004365	13.505449260945964	4.544451225251217	2.9381532594886144	12.182161300419757	14.291563951649204	13.10270115405265	4.209042061669333	3.3293998157365294	11.744646042735315	12.201013534258879	11.357779474193016	-0.1857117260774105	4.016248216025719	9.504061674918125	10.48108193612326	8.46717069395448	-0.21691720132897704	7.358376961249765	7.522190551839594	5.714794621344236	4.98348711662933	6.988810998437712	5.617370114449096
216	7.4237913897955465	8.976034141766403	4.930121886203762	5.87059210248775	11.284024210097003	11.79856011272859	10.633408519600978	5.81665991268251	5.972212776364484	12.401615111511198	13.74886032447936	12.467247931474885	3.6231560615616387	3.062327377217097	11.164136858409943	13.174190487978601	12.136559455747292	3.7694115543564415	3.3663642321471094	10.814146014567022	11.210007639238956	10.37113759283395	-0.45212641244224605	3.919397105811871	8.637814499981166	9.489323592069592	7.683883170755089	-0.49250256890883326	6.663900835378637	6.7478761502606135	5.066216456020068	4.43086241557096	6.306475146583784	4.97319649394413
220	6.565278036707958	8.212101915606768	4.320680130540306	5.214627252764507	10.19096181203885	10.650346729091904	9.52608678319992	5.965896591382871	5.428298936490175	11.269144029775685	12.435466734960887	11.473616571068524	2.940045587746166	3.589167347429312	10.167629216272564	12.058876007151921	11.219456644342053	3.5638973622941386	3.162847034098319	9.951575254110528	10.333407375949228	9.579356169356931	-0.31295126597546846	3.51291727132788	7.8065657418564784	8.717927910728605	7.249939423376571	-0.35781007914803853	5.988477691789727	6.186968787785167	4.8062043068657445	3.8624830148453357	5.841646179709269	4.705792892019161
224	5.88329647486168	7.674246768649292	4.146408547423171	4.791360366168359	9.293437934299996	9.750014280498327	8.672819115676479	6.518406374686405	5.283844457637358	10.409105274622856	11.442519159037662	10.78382584710207	2.773920052200627	4.342492569450078	9.528861975453655	11.324368448276394	10.665163013234185	3.755742063576745	2.87589978445658	9.462985014865584	9.92774388667802	9.307752585753114	0.3814679970646874	2.9379882738322927	7.236480217783111	8.44127080693491	7.388674240531182	0.33740082297970303	5.468698487779777	6.00354765329953	5.052661882995208	3.468763819519801	5.730940327480229	4.936095702106648
228	5.569944367651109	7.45991323494971	4.514804828689104	4.707120883501404	8.805603958786053	9.222700095733476	8.157783487704357	7.154266339359089	5.459782109781049	10.023320172752632	10.930184336722785	10.463375065135251	3.1378784100463686	5.0505785814562785	9.391708350311653	11.138690920363837	10.55421158986929	4.254716862426818	2.6421060495427025	9.444022154806039	10.101628278023671	9.578337645189581	1.4979474506705608	2.3138742388479705	6.972952825107389	8.670301415487524	7.9920210636538735	1.4534462653657403	5.1149396767222495	6.13609169364482	5.624248490438809	3.29680680396274	5.892765030288214	5.48991344973183
232	5.642509923040409	7.504847507602374	5.2303042279751715	4.902136790296634	8.756633736436546	9.020618415945831	7.904487113069211	7.4990348626585535	5.731314167811317	10.097373936908925	10.832038852046262	10.39670369384362	3.7908670806542	5.453759656488149	9.66777417603067	11.404405565078713	10.739205333298711	4.799020278258395	2.5017397340554184	9.755579923794821	10.684506389345016	10.13672444645313	2.6891112259682153	1.6944249825612825	6.885790807505186	9.16688249180946	8.700466134039294	2.6366226606557897	4.824724662043595	6.336905940269161	6.146101936081705	3.2305343069529378	6.073266490861545	5.999706729999902
236	5.959450706694556	7.645476798781743	5.883373245643957	5.194190012215521	9.007115341333927	8.990492798040934	7.770030955724354	7.3266711050065725	5.867455944506166	10.437102291458908	10.929799052299929	10.39387223480536	4.38232182349991	5.404334531490865	10.106182072873015	11.83691307894035	10.969254466018674	5.126956449915787	2.385403388676532	10.108727429617076	11.331238718034438	10.623054477573897	3.575403204473951	1.0672688457245947	6.752232057689802	9.579717611921936	9.119475341660596	3.5084810168377376	4.447922218536922	6.310452922147472	6.2654433092240005	3.0654222887846005	5.986612781668703	6.1164350355218415
240	6.316027148512793	7.725695113703724	6.077802642736078	5.385361181013866	9.339734053873052	8.98124215719515	7.6565599248218765	6.689248544970401	5.759221539261854	10.783837291193839	10.995335551157904	10.322895977660338	4.64770554322783	4.916482913002113	10.43201730001667	12.129116027726536	11.054632158979386	5.1279086937183145	2.169215673691958	10.214425061186153	11.705444306384095	10.783041926815963	3.9364859958444094	0.39065080782488926	6.375249369737783	9.628993963726236	9.044918991140825	3.859966745167851	3.871841659307181	5.876469120447766	5.853008732323404	2.637645476357553	5.474806771760938	5.709437832722506
244	6.557564242019181	7.683954219491482	5.6649007654216215	5.371280656604836	9.570686316168372	8.925706840868077	7.570910434681675	5.898610576995868	5.46612070610904	10.944093676592452	10.915226908782033	10.187612507848087	4.546621787989878	4.149205197348971	10.478578541049016	12.110616653383593	10.974624606080798	4.888041483935737	1.763141389209995	9.922039006931682	11.644747704669662	10.598854038181873	3.80982612601649	-0.36015951542521835	5.680395112001154	9.24307248642911	8.568800904574353	3.7458646202880845	3.085045806725168	5.0699615350511404	5.075685965120916	1.9332264612979664	4.600144851514413	4.9404101247031775
248	6.641627771775203	7.574380855510316	4.844315039801751	5.190791116960431	9.622024511839536	8.852990128100009	7.59949348438368	5.369415269646654	5.1609892714851355	10.866270037872923	10.729756328195615	10.10652921032331	4.2663836371471175	3.335305443925965	10.24697396552292	11.816825836864602	10.868068667629124	4.616110790042218	1.175286051643894	9.279052710947644	11.222920389450495	10.269425366223071	3.446982136606655	-1.166096445954205	4.747560012275038	8.577409722606818	8.006514529040865	3.43129896251295	2.188084358412996	4.123119820675329	4.298486221904934	1.110675212916945	3.617822399542024	4.168845643008612
252	6.624838812314417	7.515031795601564	4.062238206143981	4.993166910916415	9.526371931819805	8.836722351651822	7.825196723254752	5.409130082778806	5.0149922244294265	10.635326358646429	10.576795551299089	10.215860341028721	4.09902953066657	2.692738049384351	9.87529275308242	11.442763299662046	10.924377413824848	4.510564792689067	0.5174627887058917	8.49332807303883	10.688591930106185	10.067220662448921	3.1656052986329812	-1.9652731368991243	3.7731737995251655	7.918041686094072	7.700224380125452	3.232933274689801	1.3532012666869497	3.345848790304375	3.878990163546335	0.4247938979867942	2.848745100458367	3.7499239350056186
256	6.5953187775989095	7.597483138929771	3.7616495991148082	4.943140494264155	9.371978736103653	8.919323898684485	8.244158723997511	6.068166717467438	5.094532476914154	10.397800419304717	10.581742259965798	10.560247394602587	4.263638008797116	2.3567330777747966	9.543890928967956	11.214185686408582	11.24524399779257	4.649174678508544	-0.04848074528255661	7.823809127127884	10.319274876290086	10.162654851050748	3.1808555045881306	-2.6741657189563885	2.9855446740112965	7.526398162912955	7.8169979851773075	3.3456659232546655	0.7537389974637522	2.9712891503656476	3.972407569392632	0.09471784508156203	2.521523469280738	3.840900649863815
260	6.6014637780411585	7.8164267342632225	4.1280898943627315	5.116631494955282	9.226824737141518	9.06361672974108	8.735042549967622	7.122803670065966	5.327847944159561	10.263918850734045	10.762613269335803	11.03906819417493	4.77447174774176	2.352525705120014	9.371757483662806	11.250189752784966	11.760230988374678	4.960971342912984	-0.391427575553641	7.455655079137706	10.269381497204629	10.517767879634153	3.503244868016729	-3.21704768322295	2.5503084595187318	7.505922298554251	8.254446962496926	3.7459208870726104	0.49021422739239395	3.0431082171856647	4.450954902855437	0.18354535056503493	2.6617464952023435	4.319130886617216
264	6.624906523190711	8.062186220794839	4.984540449909142	5.449277387212356	9.090835548336909	9.162552810423907	9.100938774019408	8.189273813552587	5.553833947464733	10.243397686845427	11.006893130169251	11.441624612531132	5.42797087252616	2.6100823813343697	9.360018706531799	11.493346185276524	12.245917289333496	5.284618841180325	-0.4699206340369531	7.421256523468939	10.491934749816563	10.906885119557488	3.950867881336663	-3.5479888826437516	2.506404631962342	7.757774333440846	8.703762986142786	4.217568386873636	0.5459591136499671	3.400969496723436	4.978070246525819	0.5568521604783913	3.0843262594552563	4.853167521621441
268	6.610209925174838	8.180099466651921	5.898516640075939	5.767767414789594	8.90426538126645	9.099084831152997	9.161022163149939	8.907048202914696	5.623046383966014	10.249361966005173	11.131354303866248	11.552103013436282	5.9121560901147445	3.006905071296234	9.409459090318107	11.743177384291757	12.438284842558751	5.468769059679014	-0.33685636435337685	7.603188972350424	10.772037478906736	11.048091860533983	4.260332096787641	-3.6567971614065127	2.758329861352537	8.043457010942223	8.829182602525352	4.479210365430583	0.792829451943458	3.7680451774830606	5.191762434249237	0.9462606883000083	3.4901380450822916	5.083084570448916
272	6.518571837179883	8.057966211955396	6.432605727167435	5.883777603553093	8.600767113905267	8.815299011862162	8.836601235013946	9.090097404417874	5.486543641543316	10.16051099119288	10.984790774268022	11.261211366831846	5.9712095109861565	3.413355341876491	9.392314887175356	11.767634362074247	12.170948951510077	5.4460921150036015	-0.09648024266441176	7.807585696535299	10.846466990742744	10.762566539294417	4.226278771220541	-3.566228857573286	3.12149190114609	8.112589815638286	8.454990365616093	4.334756363414923	1.0411678526340602	3.8870279690832925	4.889709937148077	1.0795278521938878	3.609700432246856	4.804300772935004
276	6.368299945011676	7.692909221299928	6.388448699080678	5.700179085645052	8.17013166272201	8.349717119116745	8.187298754048296	8.776458718075947	5.223584638758738	9.902913068564443	10.533685657609102	10.623310062290049	5.5386147359247895	3.726526489385981	9.234231925538344	11.429110498182844	11.464005441332047	5.251177297685655	0.1566466387131631	7.8671331207013635	10.543748828970413	10.072564099630256	3.799448480550137	-3.3229350959805126	3.4016067895837656	7.828764895700577	7.657378177383287	3.7703688049491175	1.117347952882703	3.6370496658051255	4.120714177218267	0.8129008391837371	3.3238923465731887	4.05998181271706
280	6.230388625627203	7.198531609480484	5.90268133580517	5.26962708096427	7.687289695404692	7.819865207002343	7.3811940960493345	8.171397188536686	4.995895849965922	9.502172446102094	9.882246946180096	9.829290365198077	4.770225989695839	3.8876106640891455	8.959242798119833	10.756908389589464	10.517417881160917	4.9869556301093425	0.3793541183430652	7.721242408331665	9.871907209267725	9.188736892389048	3.1043445985618194	-2.9840857907294573	3.4757678421003844	7.232032280782621	6.718365652288246	2.9578103944487504	0.9389826631680845	3.0788087767116186	3.1451027313934854	0.20090557584106694	2.707768910247281	3.104110233099154
284	6.177749141354587	6.746224386348769	5.3366722925869885	4.770975100869485	7.284101944652623	7.360624771607859	6.618966562725972	7.530518035949428	4.952124583139177	9.07259461973306	9.215907073594865	9.111763931157606	3.962853898533574	3.8816232583272847	8.670413949056575	9.92754361507208	9.61374661879403	4.765176761040374	0.5760291800260738	7.4326681903102445	9.008938766622292	8.397354104775282	2.3765692650873858	-2.605664008237615	3.3375313197748375	6.509061796920691	5.97300146502216	2.1706876699956146	0.5508877621093557	2.4099028049659954	2.2944691123253085	-0.534715174278636	1.9797606418216531	2.2639498653473087
288	6.228759273061736	6.474801047190296	5.032661902119189	4.414934624015715	7.076770764603575	7.055110913584041	6.054746612520852	7.048119050350962	5.1355795730629605	8.748421646918706	8.701584794009614	8.635985352646916	3.4076330575739218	3.725981702934109	8.478195169024302	9.166340804799109	8.984086013999493	4.659369933762345	0.759276864995852	7.1358289538465565	8.204881647375485	7.913435439157459	1.8576260758229455	-2.2330324593432143	3.0860814970301704	5.8919100612657145	5.637968525957148	1.6618225532536421	0.10310084346728404	1.8591984463481503	1.810924048619995	-1.117921111145416	1.3882429564712198	1.780739422116919
292	6.325461848501179	6.422640784260465	5.09665917063437	4.332848537949769	7.093594056339664	6.899589997991587	5.751457676671592	6.802488309851735	5.4494757514696675	8.600165345413135	8.404068925620145	8.434208848639752	3.257898799300231	3.457108488891269	8.423216798496606	8.629608132509208	8.708495118088846	4.689832198700083	0.9094504095004282	6.9520273033096345	7.653723697412045	7.781524638556664	1.7003476576790808	-1.8949966382819996	2.8681380676335255	5.543786511729603	5.715887532108078	1.5643386801324557	-0.21936283950258145	1.5793169696988263	1.7509037212034775	-1.3505861725086767	1.0972816916418615	1.7133462385788796
296	6.368546946659002	6.52059839509713	5.3441281183738285	4.509785163937373	7.249767762000051	6.820696336691751	5.684387669516709	6.767971975405189	5.701680169015286	8.587800957932144	8.264601686592382	8.413153627135294	3.476243964001648	3.121272794472449	8.441942193651965	8.333479860246607	8.698925950022186	4.83460139007652	0.9665222739612856	6.920702916792042	7.404910545727006	7.873678187518334	1.9228798102468188	-1.6034333665419298	2.8009202409599725	5.4897312979378565	6.0194530335083964	1.8575435829947846	-0.28396710681746057	1.5882924755050227	1.992822165226176	-1.1974253624247897	1.125353571911563	1.9444770763894954
300	6.284375174868341	6.643929464732039	5.436836705786246	4.797328460025361	7.388592224540178	6.730841142826816	5.778894886685328	6.863923055485202	5.7048711632699245	8.580800988467397	8.150189379141988	8.422471025183059	3.877814283117175	2.76880597369181	8.398041703955675	8.165853479749412	8.766558625022329	5.045145975726586	0.8618341066535763	6.982252103343188	7.358396988410359	7.977814654235396	2.418869966121944	-1.3614484037358299	2.911814682284605	5.622433171382113	6.291287406296202	2.398824685716011	-0.07624758760751929	1.7811071827742548	2.327982658230685	-0.7883839587333988	1.3587167228726706	2.2698228301914893
304	6.078511222751379	6.68997667530914	5.119679438062821	4.995452391409912	7.365753155231386	6.584003908700474	5.950673565145671	7.000820619073894	5.3761358125374015	8.433041551279418	7.938816527350214	8.337758996893518	4.234031189719034	2.449003928677089	8.161193827051216	7.966666201504753	8.727993943112859	5.257016168673111	0.5687180147117386	7.017184239790637	7.337161999297712	7.9187998571737	3.0088848991720947	-1.1756523817897586	3.1233866135894264	5.771481499405461	6.343954070286767	2.9944417401051666	0.2890072755669424	1.9959315011176788	2.5738038951741333	-0.34346014174530376	1.6229265887293476	2.5100130971479335
308	5.84161423161975	6.631087763256892	4.40205143770791	4.95799397170468	7.128743153693549	6.397769434988542	6.129666312954256	7.100676041795417	4.783520209632978	8.070259073862836	7.58987186422975	8.11429117061446	4.380401123431517	2.2035713140165956	7.689182738917979	7.6275486753528865	8.493334748759027	5.3978419167611635	0.13830244506250203	6.9178256813867085	7.192897301633381	7.6466331288874665	3.508317938530044	-1.0618898841750648	3.292985907823705	5.795472130448406	6.146067603806402	3.4742283733390122	0.6197088345140294	2.0964872784135435	2.6500072412341797	-0.0636818556369864	1.7715942814921202	2.586262696412209
312	5.695770726128594	6.512907965429046	3.5674974828294825	4.665624129913547	6.744619829315466	6.2302555880604	6.262517436428654	7.098534089286177	4.115660180191233	7.539293746986842	7.160597783129725	7.788661937122629	4.276654232671724	2.0568842835947083	7.065299016280487	7.153530579625839	8.094959238595395	5.402793393799444	-0.3069126896261972	6.651616556540023	6.885692579050844	7.249233704384212	3.788310995074106	-1.0377739641691182	3.288363686842333	5.649524674457025	5.8168735357288455	3.7425088787957024	0.7385605555007313	2.030715222000012	2.5886814528910875	-0.04430577892799843	1.7491873458568588	2.5306208069805476
316	5.7135233734836754	6.403800948187426	3.00623034671908	4.225589741528677	6.354505999734003	6.1259946668453615	6.299750788995781	6.941530210135454	3.5869798569715785	6.985205632693641	6.758411390407355	7.433052997895943	3.9933371443062207	2.0053186365996547	6.463180048837068	6.649324877163484	7.645724754103383	5.2388086186702525	-0.6253696664279903	6.276700003989282	6.490996344390618	6.885313016673873	3.8085570239231363	-1.1042622299924625	3.055615894232333	5.390607343415171	5.537383542385418	3.789166202515184	0.5661006555569698	1.8362640096079585	2.4817004141139476	-0.25149220164699515	1.5968394239163661	2.4337925849502353
320	5.863531574704062	6.333853705627209	2.9765598698805387	3.804801692893189	6.085310920610188	6.071792110372103	6.192117198569288	6.599903566863457	3.3306486522507104	6.571302397349486	6.4653005436742434	7.101192456436447	3.6489994433781043	2.017813439043084	6.058664783439914	6.246026023353835	7.262757759831024	4.927229392009404	-0.7247370463193238	5.905121311537535	6.138673766849972	6.6845598052056285	3.616529694009399	-1.2291986911256976	2.6453158788650426	5.126632677486184	5.437589631657148	3.6687271502374763	0.1538753207613282	1.599483605161216	2.4078712402586	-0.5649250731510328	1.4080072605823915	2.3727781712706637
324	6.015851482461581	6.26841495838642	3.4471118363133586	3.5407543092977596	5.9756297914315395	5.996008381010216	5.90777729450202	6.092918857450111	3.3399889384820116	6.390978797035716	6.285245402679865	6.803118688573288	3.344085446497792	2.0499644227723355	5.939751133227447	6.018252357547072	7.006293279124775	4.548749912221565	-0.6048473104464791	5.640259728496529	5.927892669970033	6.67584512932431	3.3211765205454995	-1.344886061133908	2.1875245515906787	4.946438776879118	5.526416287774435	3.4679055126372025	-0.3448654106493028	1.3999001944483798	2.3868222176371834	-0.8520945885125779	1.2673007217835885	2.3653762280825643
328	6.009623035516857	6.133215411913802	4.115487565140398	3.4780657203599636	5.958286747194321	5.811663612951471	5.458856092022157	5.50809858838831	3.4870257289585576	6.419315321927552	6.1437105977393545	6.518023951286492	3.125891200756565	2.067231411483013	6.062574848127308	5.939138397480703	6.861901265939525	4.220907200646945	-0.35350277930654217	5.522220120792842	5.866554722279438	6.777433378274368	3.051088087008047	-1.3717029060063877	1.8263374520921272	4.868416773902277	5.695003018305826	3.274896375017204	-0.7529113869731354	1.2689623800664416	2.378322595313672	-1.0344651911367007	1.2042745321386372	2.3698959290751818
332	5.739932522586921	5.874730095336189	4.585529315815229	3.5607030301794005	5.9096703380153075	5.475655541900396	4.916179644570262	4.986015784072897	3.606190195515606	6.530925257406262	5.936661228450092	6.228451713095472	2.9930908604393878	2.0661861844348706	6.277399047261443	5.898024544129916	6.767665845950396	4.0497484104907	-0.09528396254562878	5.5117397169191555	5.869521603070287	6.849299413554349	2.9105057642886423	-1.257693764372236	1.650764580373541	4.836037623593401	5.78490589588646	3.1581196705238286	-0.9515266990479739	1.1858307093244858	2.32121252427561	-1.1102548809630501	1.1877286404186318	2.3240926207038854
336	5.209037290773006	5.512138829619564	4.5862502935966125	3.6761646177937717	5.73192070467502	5.02310370130714	4.395266998638125	4.666985976833937	3.5917546658431903	6.569722635848348	5.59485577124422	5.946118339784857	2.9228424952145264	2.077835077761783	6.406543238677328	5.764877304781021	6.660536749236007	4.079498757553039	0.07607933114632376	5.516751275439217	5.810119614237108	6.771499139855512	2.946198932838662	-1.013558504406648	1.656773563016756	4.756428706558067	5.676280484173408	3.1542203346724675	-0.9268807745420227	1.10552751738856	2.1811497156387563	-1.1301420898514385	1.1572267979968622	2.192589754290903
340	4.521463382749442	5.14060734404636	4.102774609697642	3.7211904431805807	5.414813028015923	4.553235996194614	4.0132589238884915	4.624498832470992	3.4519243153203734	6.42855118082147	5.123577104984133	5.7081084107287925	2.897412531213179	2.1459948962389883	6.329349501842194	5.4608020644598705	6.5093874766989215	4.270293701834512	0.14041763508630598	5.442114816277071	5.5904989101407185	6.502695067200437	3.137114040083699	-0.7199414950313825	1.7576016143292672	4.555102336827109	5.345989213797597	3.2639799035634423	-0.7616595606647325	0.9959647630341367	1.9757218311018698	-1.1509500712899923	1.0670287582160456	1.991576666572094
344	3.8243310354952493	4.87889288624155	3.34908961404192	3.64950703653173	5.03794382730727	4.173015107109413	3.836856832353883	4.823305594664365	3.2912881291262095	6.093717082850928	4.594737994991198	5.546312318150227	2.911485187809119	2.2926213683419365	6.029458030736555	4.994023310450385	6.317495806956351	4.516792285959477	0.14736103974330558	5.234661089078673	5.189712511311298	6.089322551612023	3.4102427873341785	-0.49440222853767357	1.8354774667174885	4.215224255409828	4.868313777076365	3.4556422146334964	-0.5793459400808713	0.8613397457310574	1.76454054863792	-1.1954945295668105	0.9166169143422589	1.7787567332181164
348	3.2333528913879603	4.792687880813444	2.6135921412284624	3.477362623971968	4.711924064183858	3.932253589238884	3.8486096761810216	5.127768980431314	3.2341961779001136	5.632221684540993	4.098813523434449	5.451891885344183	2.9569265767782524	2.4927921232229067	5.581479058478921	4.442795265424866	6.097871764999861	4.696264731948003	0.17282459096189898	4.89866541579368	4.662178981454227	5.6240310526952175	3.670332660945093	-0.4310622204387721	1.8019595100684096	3.777310600280712	4.361604679539765	3.6708094981020922	-0.47905579088377737	0.7342894654808446	1.608922715893305	-1.2453381983786505	0.7463308553926122	1.6136841733245209
352	2.797166340441496	4.846570956391514	2.090432400193967	3.255484095937187	4.501701343614766	3.795555820418974	3.953838815243347	5.36468695239785	3.338509551202421	5.140040861503845	3.6928894426569414	5.364986406132446	3.004308692976373	2.67651247302456	5.09535931254439	3.904239644683758	5.846721634408369	4.7195377230696645	0.2657684975112958	4.480972755562852	4.095883835941846	5.184578882479045	3.8301613234138787	-0.5451818094794137	1.6353474814134419	3.3055839455116245	3.9176664253505424	3.834140291070459	-0.495682774722795	0.6447425468379103	1.528387065843342	-1.2657330004206644	0.6041262730604516	1.5156850776551967
356	2.5087394651015886	4.915869223581055	1.8031535103095355	3.0294017715263006	4.381158340836832	3.667053928653566	4.025226106017701	5.4060706955794995	3.5516970067951563	4.686231601327583	3.3753809843673865	5.200839029532718	2.999117128429544	2.7577526499739893	4.654842364956637	3.4421265038369318	5.537192807522618	4.557936180051155	0.41643667115929184	4.03930519991526	3.559723606658924	4.790501582448603	3.8309519194201833	-0.7579482774671629	1.3772191966571332	2.8447015213670133	3.55500482615326	3.869006147153085	-0.6035245641729633	0.5876004085010402	1.4816884957097798	-1.242353078566546	0.5061064349747981	1.446394439860168
360	2.342939132497123	4.854499327800941	1.657344337093684	2.813847057867643	4.25013684153384	3.452599516734684	3.9610359568725144	5.223052488491527	3.736667385203883	4.2875356565944465	3.101354591168856	4.898716437369479	2.879472963692554	2.679954045205202	4.287193287515721	3.065472595104664	5.139210211176353	4.23204087142572	0.5628913030717865	3.6163284687291455	3.0746536177255273	4.4024767764519535	3.6488723662757643	-0.9363722777567368	1.0956935854904755	2.3969647823851354	3.2213148989409364	3.7177128697945854	-0.7531533818303126	0.5137078749084566	1.3861210311225731	-1.2036763399251817	0.4184214164183342	1.329347726326642
364	2.2929422797485968	4.584041583885392	1.5620412787100335	2.5999758177917713	4.008062352551514	3.1249999921101335	3.73212169658621	4.889750468306422	3.7576413059730727	3.929558267208946	2.8293402123542832	4.468466270609077	2.610341542329199	2.4539995131523913	3.9824614424293823	2.751250498501148	4.656210887597225	3.783149471268168	0.6338846071451701	3.2398955740191466	2.629499905623114	3.966687192438691	3.294819823529524	-0.963789520214523	0.8483082630674256	1.940726513731118	2.8458673882158765	3.3652231608304106	-0.9056604481719538	0.3598684063408703	1.1708660096170898	-1.2058994739604014	0.28049403358213437	1.101631757815876
368	2.3738563000826387	4.144941319491084	1.5178805551353103	2.381634229369032	3.631216755282132	2.745195381862993	3.389194956805654	4.531945693971755	3.5689549355998507	3.609789600795215	2.561145060748696	3.9988946813710466	2.2077736798812295	2.158403629575579	3.738590469458061	2.4859356817424145	4.147313107509998	3.251590243713131	0.5970713481133588	2.94052004071738	2.2220525685475714	3.4708795459854067	2.811863415294526	-0.8028530458207387	0.6650855524437452	1.4732376299855716	2.4047830044112946	2.8553137707146097	-1.043628213154887	0.09943333988119143	0.8324732759438613	-1.2916825977138515	0.054522316765220284	0.7659502010080562
372	2.5864739352727595	3.6789696123698197	1.6089105565458015	2.1801884119302457	3.203111163635334	2.425623410776524	3.0289795322237776	4.254377831208191	3.2552471078701584	3.368802538949425	2.347954982551598	3.620462170043172	1.7403755144048023	1.9034897040946022	3.598150244211442	2.2955470027187053	3.7180740739410125	2.678667061718461	0.48602640506104827	2.7701902319585785	1.8953214835952055	2.9792385026099817	2.2760479392761144	-0.510518430374578	0.5614854679236635	1.050203559131328	1.9619054744778173	2.292277091914583	-1.1520417899609419	-0.21515478139438557	0.46201008441626984	-1.4459631406516622	-0.226363658333516	0.41431823268235585
376	2.8792025970245354	3.353822938080873	1.9093930673075419	2.0501530118679288	2.8790881561068558	2.2617828788873253	2.742246144046953	4.0931835071217595	2.998666278897601	3.287880412383714	2.2620029392352805	3.4442849072280888	1.307218309916754	1.7811661913724335	3.6500484851235027	2.24538635640675	3.4833168895514177	2.1304366534804173	0.39116987487260524	2.805896751948995	1.7432057813501713	2.625658982323485	1.794608350037531	-0.19069608997836227	0.5691770896846395	0.793802259348381	1.6614174800887713	1.8217335893412996	-1.1856917112932204	-0.44616818315392914	0.22564095201743906	-1.575809951618386	-0.44254478700485894	0.20709079451727663
380	3.1420085350817173	3.2737388528185885	2.3846094548101284	2.058019871284102	2.8028783727451896	2.2741787376206775	2.5718316966927843	4.018216122972655	2.983722440815824	3.449588528506813	2.352051728985957	3.5095689208114313	0.9995817516839097	1.825573320548036	3.9879147905754038	2.406966918590351	3.518382778821405	1.7119461254766406	0.4161523272021087	3.1246347348478722	1.8738663149253145	2.5626656944423667	1.4878044090854519	0.08202323296818895	0.751442847738867	0.8517470934344147	1.6683474737007304	1.5871666629773475	-1.0587024661991036	-0.41757908358049506	0.2979380480873478	-1.5368289908708563	-0.4266374398427201	0.307956337151257
384	3.2434759058124754	3.428632250712432	2.871055834197204	2.2454810085824146	3.023100368496556	2.3948869644735113	2.49831032122228	3.977796544522459	3.292535773547498	3.882530679437054	2.6091787749218565	3.765722980528474	0.8646845795734731	2.008288855250603	4.645795333576891	2.810060970841069	3.822637786750745	1.5454645117841124	0.6230258925920499	3.756629219107342	2.3463945329553177	2.888104669908554	1.4509419166171804	0.3165295116062353	1.180030462146747	1.3205710616149142	2.0833458847852233	1.673841829842254	-0.6768838746147324	-0.0010549545959942824	0.7747880796898137	-1.2014974325362737	-0.046275969477881436	0.8013350347314316
388	3.1015629690064643	3.7100243474751298	3.159470311771029	2.5982713633740775	3.4614679725991344	2.508860343320888	2.4599511561274774	3.9519493480087373	3.852220763970977	4.526500690475981	2.9659533425788265	4.101423253194707	0.8934032298419994	2.2676167430846323	5.5517396786711934	3.4112920674981555	4.318032730644646	1.7175204710512508	0.9958360766063916	4.644024360375796	3.1193900029580375	3.589709272858242	1.7128018097548758	0.5990346058980139	1.881446952837999	2.1756102983858963	2.878936998728087	2.0679993577243603	-0.0005970439509315892	0.8039150813786653	1.6126022298152896	-0.5359674678622053	0.7126622778065662	1.6368612009683359
392	2.739157192943912	3.980018844092654	3.128319255560005	3.040110580398189	3.9498629470282873	2.5221218999127717	2.3923239647546404	3.97805379816866	4.462037552058413	5.239778028610432	3.326958647911272	4.401528347346682	1.0343239281289396	2.5479891235870875	6.528616888729229	4.097667206909024	4.881802069736402	2.2165553513831058	1.4415609800182454	5.630833611576969	4.042984475418666	4.535253036492702	2.2099721375935744	1.02582561710761	2.783783667211734	3.248927346609869	3.891337384889673	2.651738160114087	0.8987042881210044	1.8405692530892155	2.627128832859935	0.35747393875467637	1.7093802647348277	2.6315584116298796
396	2.2807989062898764	4.144325245884241	2.8291258740522123	3.4531512173253325	4.30865668162657	2.407939904809208	2.260116333023613	4.1260046854751735	4.884502398556489	5.842185482533835	3.6044499783111377	4.593854892576436	1.219259139797338	2.8272452283050074	7.34296081596398	4.718572127826741	5.389622197848811	2.9044406340701907	1.8269110871919974	6.4939570262984265	4.899255740194045	5.509372697271812	2.7963666845292083	1.6137846667553584	3.6998948957489954	4.271244991962725	4.8719782706279045	3.241303197306608	1.826879019893189	2.8356699871948696	3.5552241712454795	1.257224675819038	2.6820335320468756	3.5308990389368993
400	1.8910683345733508	4.1872105492732805	2.4525785384245338	3.7166826631168886	4.423087585726088	2.2063441220845457	2.0673611111897165	4.436201084380723	4.953671919713639	6.1755099140653185	3.741604795546032	4.664705741549166	1.3877700532207657	3.108926526803425	7.784899215116748	5.1337995399558825	5.7504663322221905	3.5532805829935508	2.0347320982105734	7.011455518186448	5.478132710931007	6.283987983096858	3.294190875319442	2.247994894074114	4.3729681858282134	4.9675149792184845	5.5785097935022865	3.6576425936858725	2.5211157735115037	3.5000889212931297	4.156162728306747	1.8970807742859541	3.3449757014699095	4.105454911357135
404	1.6910282330733986	4.156663407321596	2.1972541753606696	3.7529373074192756	4.284111012132878	1.9881305644384606	1.850829954242814	4.8684654112922905	4.650079238595372	6.159847720806522	3.722228040834211	4.647054183671369	1.504640337006202	3.394183150305023	7.7501740259954355	5.263476358476137	5.926799282369034	3.943549861488196	2.018998379378227	7.048734170283491	5.661050305378852	6.698178751246683	3.568735590507631	2.7152216365926005	4.580011833071591	5.16986654883699	5.867659553972205	3.801027049958383	2.757475130748616	3.6491866019622266	4.308036793322471	2.07337355090232	3.5101475627014502	4.241627205630032
408	1.7052302317481742	4.119358529180919	2.1343765204901235	3.560040941786907	3.978227605312386	1.8114308073085958	1.6644377666412045	5.297873960470589	4.107462872625258	5.823029980262862	3.5694885163785326	4.59491251739066	1.565684076170929	3.658741464914177	7.28761432715108	5.119805323072269	5.9370536654303026	3.9751496214639563	1.8300732327986378	6.624682886564078	5.473378644475725	6.714138490891448	3.5899901299437147	2.812697403482118	4.245162476312024	4.893736350101779	5.74682758787713	3.693325510237017	2.4619893965550705	3.285959473896743	4.053461541432253	1.7380654767977195	3.1741688171355302	3.9836473364388394
412	1.8723946762495256	4.123232831081537	2.1677722876177214	3.2185718931952985	3.642634859425057	1.704681749808336	1.5659953316251602	5.564472661274543	3.5529775529802774	5.296030508021631	3.3451208983842156	4.564125049511849	1.5939807851601557	3.8555123708657426	6.593204958481931	4.812079894314289	5.846601948281962	3.7235495950148345	1.5967161615112817	5.925858005821118	5.082541452927094	6.4272446470112925	3.442535630117637	2.471458905655918	3.5020487220083965	4.338963020813971	5.360441671189086	3.4613926323283284	1.7644569829261558	2.604848378280568	3.5716390519565993	1.0310857269957578	2.5258748467569343	3.505949488371229
416	2.106053108620105	4.187935818589076	2.126426452990054	2.867257587823126	3.4132947835575522	1.6833977656778076	1.608093853705151	5.550418362909149	3.210501185894508	4.77657412276697	3.148742667831439	4.60645388393867	1.629909749684312	3.9437601466744323	5.950059875724613	4.52072619250472	5.751386151098043	3.4035799417394283	1.4696707688419282	5.253686414805785	4.739566314175103	6.026431068463923	3.2742032922095055	1.8183182432042928	2.662382357551202	3.811402311238951	4.918802725770914	3.267092219687176	0.9585841869947856	1.9109265756044513	3.0905642431431204	0.23088154138447212	1.8662148666948155	3.0295336170002107
420	2.363013261551055	4.320374954759826	1.9243787478498457	2.6524283818988432	3.383624068300432	1.775233383465049	1.8237746907918349	5.241753564951879	3.2095875659016975	4.4675435907102825	3.10237883738209	4.765024649987292	1.7137227015143306	3.9176320930752384	5.62989901074925	4.440104473347919	5.751582131169569	3.248997441671948	1.5474441012413946	4.914658534039434	4.682153689960925	5.71852968679501	3.2079853930541797	1.128131386769662	2.0915698952319888	3.59532689140485	4.603398311436618	3.218485347251303	0.3792251636944192	1.4893728457041115	2.7834236551581997	-0.358432590056501	1.4759010039259908	2.7233800819302787
424	2.671153061798467	4.5357818488998145	1.671492095541851	2.668471568046082	3.5822615533030713	2.0244750925449417	2.2069528047154554	4.738195884185887	3.540454617144585	4.507513511721429	3.313053837994596	5.062346922491019	1.8651965809460438	3.815362443827829	5.790970310849176	4.705823886434366	5.918267235118846	3.3718936358196725	1.8228152944319524	5.09545944834736	5.0376472345956165	5.646649346400319	3.265357009272856	0.6864172202899733	2.045750374397355	3.833255758144225	4.493295181374026	3.309328309286961	0.2532391839786287	1.4856210909528416	2.700115435458865	-0.5337902294033469	1.493609186216182	2.638696663870158
428	3.0930652540315813	4.856605040686249	1.6417581993614287	2.9142439291809374	3.9674634833302855	2.4598147807005755	2.6909589699515872	4.203373421546926	4.066073884234883	4.915117251384467	3.8180961512489056	5.476545320035357	2.0668671078950656	3.6969303991439313	6.410470469502374	5.330362306488418	6.258272155219889	3.688096275554785	2.179075712424388	5.775755867680802	5.764758572328929	5.833959564738441	3.3487977897018366	0.6375922544594177	2.549238198519847	4.466772545027415	4.5449705009151895	3.422190895977108	0.5972448572338619	1.851236934756313	2.7652888228217836	-0.27689671446508757	1.8625270081225835	2.7057146957749283
432	3.6492056754485067	5.282482133879811	2.0995309299866696	3.287494651123702	4.43295048548146	3.0408313197609935	3.1411480824319122	3.789674272505967	4.5809965018007945	5.568477139719023	4.5373000984077	5.918411716777418	2.2594890537435806	3.600762596576063	7.28026817391035	6.174963458683398	6.692122442515636	3.95499514534907	2.439808124104359	6.7201299497691425	6.659243566866225	6.17614839901854	3.299516431107388	0.9050500966109948	3.3743746195475395	5.26379679304564	4.63187693380124	3.397570363049767	1.2130494087110264	2.3784997403174972	2.8391473221622863	0.24292305050552895	2.3687887131966296	2.7902624536638827
436	4.257139672021531	5.758441433673003	3.0899393480488726	3.6248767284426706	4.830014693463344	3.6293902305522465	3.384249678650415	3.5821807294049597	4.894256102602908	6.237257941710934	5.270547853514435	6.237016185272335	2.3578650891855126	3.513419142435622	8.076378801935764	6.982001763835763	7.065494519514857	3.9096279045578495	2.4517886576739643	7.562487583140441	7.426828365648475	6.487108214212446	2.999064199505117	1.234682437640478	4.139259804765438	5.920117840125161	4.619212615748498	3.13090705081104	1.7842607453120691	2.8046281266927986	2.8035247255115023	0.7495125513226896	2.7504379679856212	2.77558326020424
440	4.739781844570066	6.170485004104861	4.340980995662391	3.7761061096221322	5.011831270915678	4.022212495185466	3.274943581895747	3.5871364979776525	4.901525485061361	6.666245920516759	5.761609062906949	6.268620475201087	2.286173576304993	3.3762433443658195	8.482609727423801	7.467668037633988	7.201018792091392	3.432444563782641	2.1601300185024948	7.953384856170854	7.797790507656222	6.578245623192552	2.4545943675057478	1.339352842764089	4.478485096114787	6.188580497375825	4.432007778422072	2.640901320465544	2.0251977392563743	2.932683460460676	2.6233146124410984	0.9863873695265181	2.82077097180585	2.6219222479426607
444	4.909020411495075	6.382808192350534	5.362655149271877	3.6776919272076403	4.888327586229937	4.039701928429883	2.771119825996149	3.75995062832442	4.617922294401658	6.679065687482684	5.807663902878562	5.912599548670754	2.0193209597149373	3.128754846302924	8.319111803031907	7.43973062544256	6.9731511893647005	2.634930127167021	1.636129732769499	7.706758002850656	7.635112266337209	6.336706622337536	1.812624807549722	1.0605467531130872	4.203704823371041	5.976893409897587	4.081338872141899	2.066471333054756	1.8073313190605842	2.7110457351901798	2.350603097702993	0.8293263891262449	2.5452041561716334	2.3727962910826297
448	4.674781310676559	6.307283862402055	5.702406392005396	3.3860852632862835	4.46980522934593	3.6283111480659573	1.9789073417292031	4.045233716288232	4.163214196184451	6.25632236808492	5.363586889076653	5.197283254852975	1.6054727990624156	2.7667696406128446	7.619329433277691	6.88701532532436	6.372094138269919	1.8142331792802804	1.0408649418300764	6.878298265257257	6.9885616126046015	5.767845139246185	1.2837438550962608	0.45034667735839107	3.3759717856049085	5.371471391467635	3.637638321275441	1.5874352415060273	1.20012509519843	2.234808200915879	2.0717518277313656	0.3292697957785522	2.0350210615277153	2.1068539566252853
452	4.1165175333995165	5.967044338419769	5.210521208005587	3.0533201617399603	3.879494180421283	2.9170055315756986	1.1375343770871083	4.3984584697299205	3.7094061281010804	5.552333340931657	4.586180675371691	4.298895825022797	1.157841321882945	2.37149643299265	6.621452314825409	5.998951896780372	5.5272602895423235	1.2994266715620975	0.5455785975986817	5.742726311489779	6.075713619151265	4.990482317722509	1.0223773692067701	-0.26885422996352704	2.2647616806070996	4.58756159577836	3.177675239169524	1.3176908459773495	0.4187562753118369	1.6820312695951372	1.8394932700444466	-0.32474842585588554	1.4748985730126893	1.874192948377859
456	3.4612917812696233	5.507748589915073	4.146951188107836	2.851639502001352	3.314035884119436	2.1789748613656825	0.5321181403076845	4.774836051329707	3.4093160543195506	4.832144248206503	3.7797315025267975	3.486701956528955	0.8117476681241792	2.080217356198151	5.670613274562473	5.094157682908752	4.667495238917612	1.270463821064543	0.25146046217373236	4.676019656773287	5.193907724618577	4.187109459795996	1.0310085985856132	-0.840794382356721	1.2182402580021199	3.871515741110372	2.7384242942336043	1.2329164712295313	-0.28900438474167806	1.2208698957136814	1.632613654783076	-0.9033939815600919	1.0252978775841013	1.6572000938536917
460	2.979515783416777	5.141965376269495	3.0532886904875984	2.887096636158658	2.964326374199145	1.71008705661079	0.37094393278881366	5.108789431071274	3.339937201650477	4.357120502915344	3.26462864051554	3.0155455989996383	0.6664398891789123	2.015446896232897	5.076870428618902	4.48986862956383	4.034835328405549	1.6595516162934334	0.15417392512973782	3.999528636371277	4.605707156950809	3.5372774511674994	1.1512142390749698	-1.124392029784474	0.5149239884727386	3.4066650781452132	2.3101887644615235	1.180930373071294	-0.7536491732643025	0.9387606954715013	1.371933575981086	-1.2446714608238763	0.7542375903160395	1.3839759791718123
464	2.8551921772395747	5.04999350226464	2.459621900070569	3.147620431582441	2.933563701852497	1.6858789878242533	0.6870618445215917	5.311771856248489	3.4819984348123145	4.274090279278539	3.233398190917875	3.017455570231999	0.7421368341782255	2.2152519170144482	4.9942016475471025	4.374191273135916	3.7921507262808425	2.194964641751338	0.1722100819769774	3.8598339460196267	4.450320232599471	3.166100970857682	1.156092760028229	-1.1620467871890998	0.2699697010853598	3.265316001277354	1.8741284561523748	0.9770129298338471	-0.9351433491938607	0.8289720395139498	0.9861937736407763	-1.3137351241321733	0.6332529171214354	0.9896790360259283
468	3.0960807722124444	5.289349542614914	2.5941340857813735	3.513790598580924	3.193544618173037	2.0747539944718327	1.317090269578109	5.30363415332714	3.7410659695586226	4.560715187002147	3.6668362524913958	3.4458231838965685	0.9733589863044066	2.608141177268226	5.373873697064598	4.739865291072541	3.9656896491062485	2.5612115795320975	0.21702103261991362	4.194438446899075	4.714570033568046	3.123099557620913	0.8919202662837318	-1.128696915637863	0.428789346327613	3.4168152722876775	1.4543436728952128	0.529683290574757	-0.9005699731024085	0.8293714502375813	0.4839962112604794	-1.1926240890909645	0.5878803715168434	0.4848603593982513
472	3.5409190565355027	5.764420971621774	3.270167819349821	3.828790416587506	3.6056842712920303	2.660157673795222	1.9756411264130476	5.069985853746147	4.001441468626579	5.054750906580022	4.3563465962095345	4.103844632277949	1.2442841498431036	3.0520415229034668	6.012077316363933	5.410433755566042	4.4496045000268145	2.58477520290095	0.2583628588352301	4.792185294449967	5.2698941097721885	3.392077199001136	0.3868847777612317	-1.2001506059863294	0.8345643260865921	3.7755477333112863	1.1462758750585074	-0.07845760862092145	-0.7542342524559406	0.8822884537355705	-0.017077442215480024	-1.0127937768161104	0.5649703726809477	-0.016014443670013773
476	3.951293458499285	6.272111876864635	4.017879952776971	3.983209123091557	3.9929363626757626	3.1582174221410138	2.390072816536447	4.701572883179718	4.17966412442661	5.5446333745204335	5.015521990510853	4.7398066401022305	1.4434387647425082	3.4123585137997843	6.658081037877461	6.136225684885938	5.062832819554002	2.328629726252733	0.3405689290508059	5.406350598990658	5.944457515967029	3.9123089214730773	-0.14585563503633672	-1.4294445478588949	1.3179131713018006	4.2511896979764945	1.0903251143583998	-0.6121157392306183	-0.5716641530862583	0.9721562837851654	-0.33221849715279084	-0.8755786992855006	0.5695815668030642	-0.33354288255403386
480	4.127182950090119	6.599357588318693	4.376668442166527	3.9655320544258603	4.221326340507947	3.3630437766043455	2.426441186500778	4.37650584069599	4.25027512430937	5.867240414111203	5.416474328670908	5.156795488689327	1.5075525007332855	3.6308288482549136	7.121757012506353	6.703890783550377	5.624041066275515	2.03827619037997	0.5386655317057961	5.857063755506525	6.5873923135381105	4.59177588257192	-0.4215369809952002	-1.7114448504153452	1.7564910605906159	4.770815837259047	1.3944216931423266	-0.8044018129066722	-0.3774121096142189	1.1171183557916078	-0.30651315969327647	-0.8072981814029301	0.6479400379988133	-0.31639385143506904
484	3.9840903181576914	6.618367178419624	4.163030613879006	3.849536170777071	4.245927799949008	3.2367417730627537	2.1410045569724128	4.280264843624522	4.2342133415130085	5.9604225008205205	5.476756082058751	5.280402170200981	1.4329608642638965	3.7402169610005855	7.327738743401094	7.003011208973149	6.006209835147057	1.97680234409963	0.8832691289535841	6.075546249309157	7.096385937893895	5.309022413201231	-0.2514513128607824	-1.8579215956509958	2.0834178871959304	5.269266592073578	2.0490329213861376	-0.5128172623084714	-0.1714525665484395	1.3258624043368454	0.08697581269239449	-0.7700577954877368	0.8320881703349399	0.06323315187225013
488	3.554596891965447	6.33965824433936	3.5568208604656912	3.7354922200304586	4.108366479037772	2.9060001299921567	1.7386022762272115	4.503803241802818	4.1671581163099916	5.857077583784078	5.2654080257991405	5.161972986540025	1.2591029373804579	3.8200502299182886	7.305312615070263	7.032811147099816	6.15787599916233	2.2535729351366913	1.3115974631573457	6.087434276470305	7.414266567584487	5.921342834781492	0.33525445972676027	-1.7285801128614018	2.2644610347796115	5.6732210969741015	2.894222490632854	0.18322873069278744	0.028826607318458024	1.5586932858214526	0.7117740493923659	-0.7110386472869838	1.091309783087603	0.673796890464964
492	2.931482784499352	5.897837147127215	2.9655530377855253	3.68546556495962	3.89725231140367	2.576179021053146	1.4622892104422909	4.978541838474091	4.071118821355935	5.637626156878423	4.938407408643781	4.9265618199896055	1.0417215797826256	3.9255571266245655	7.135385972127705	6.862508756477542	6.094198688379497	2.754002564152769	1.6828324752281851	5.961432918756202	7.5145110894261204	6.292770846691627	1.0916591855143944	-1.3330005373678346	2.27674936673406	5.9037418216423365	3.669111957823175	1.005654094064361	0.1688067312747012	1.72609829466851	1.3217855658537911	-0.6143912657484633	1.327761527523884	1.275163885711795
496	2.2011480275847255	5.481122956742549	2.7589080264053987	3.6948258783515153	3.702067365836284	2.41883730277669	1.4771939478771943	5.4977826933337886	3.9515969653497147	5.380515084987283	4.651653278050627	4.704551208062336	0.8354709723359816	4.043609608931492	6.89768264936359	6.583046896526377	5.876604542200353	3.2159869589672057	1.8547986699005186	5.764717564333426	7.399596195612249	6.343148215491438	1.6809384780405843	-0.8345081189067108	2.1143300479912974	5.908279404028341	4.129377831523786	1.6156682927347945	0.1806233371704271	1.7346212820127143	1.681513901279793	-0.5174791203785188	1.426681038115506	1.6350929695808936
500	1.420381542434389	5.250961767290692	3.0438125056665526	3.7198541070480906	3.59314989136457	2.5025570329425153	1.810430164534633	5.8257799001472765	3.824897756456343	5.147412287113896	4.507353771273834	4.58835934434202	0.697027502684297	4.111554135432312	6.654454691298482	6.286158068998361	5.600110039877195	3.407868376710901	1.7794707968607226	5.554142937942469	7.122140866417737	6.1015152777164925	1.866069908199088	-0.44908341652021083	1.8193218662104869	5.710287079699122	4.177142132703241	1.7971079304145208	0.041141137376864395	1.5584695299855307	1.6927114682376059	-0.4775690722328984	1.3366104330648971	1.6540298420153823
504	0.6497524960325674	5.28419064141334	3.6156079677849196	3.73300837527965	3.6250431446104634	2.792933456998814	2.365608209359445	5.83188293891971	3.7465011978926785	4.997649180192207	4.548263538321426	4.624097812421955	0.6931158882761431	4.077323903279965	6.464839442143425	6.06804560082956	5.383639798877098	3.2871808922743964	1.548992391490171	5.391896711087697	6.804403287874244	5.724958882182831	1.6478149849296329	-0.3096232108405147	1.5038273296535183	5.4360027175986545	3.925602187735902	1.5777072866660862	-0.18195940508201663	1.2856541839564888	1.4523119889785283	-0.5162513243038905	1.1241780491102706	1.4241162502572964
508	0.003192449446157989	5.555513367931685	4.104916562206883	3.7613825703068886	3.8395140074112617	3.201023570561991	2.989636890492664	5.570274338963753	3.8105075263138417	5.002047526128369	4.778909194324795	4.82416771624422	0.8935604072898753	3.9563727278956407	6.401238902142869	6.031908496886373	5.350179181896149	3.0347196979197344	1.355827447329123	5.357074724023515	6.6246619057291705	5.455320821340164	1.266055342338796	-0.38163736366238904	1.3316043581721408	5.286690698627487	3.6527736094757532	1.2138887613166343	-0.33477401648876126	1.1005399199356372	1.2040561407207315	-0.5806096181515638	0.9620616411714917	1.1839030951173164
512	-0.34373894247053677	5.960991367548821	4.22218226320476	3.8763155839327266	4.252508152715597	3.640416612970697	3.5492725282703934	5.257419572907932	4.109819401855149	5.2305650579000496	5.185237871430017	5.180803285869924	1.342340704389846	3.8448915384493203	6.541437132532311	6.269252761271268	5.592742905801557	2.9426324293228867	1.3847272361126644	5.531938538889643	6.761345369434371	5.523175225618312	1.0645295354669233	-0.48540213581556935	1.456243988175144	5.459408746287119	3.663211336423888	1.0478135320911584	-0.24009206830442456	1.2036714523443226	1.2091795175541098	-0.5523801432014741	1.0499701473429768	1.1922501295505878
516	-0.21065443701011033	6.365034087323388	3.94194268185053	4.136444558190514	4.8221940872513995	4.053159703511873	3.973471154671319	5.1538386214787755	4.6708869816153475	5.706624970333368	5.729509816009232	5.664268002514284	2.0168836065869353	3.867927541503953	6.927210790310767	6.814197046241851	6.131115421074377	3.2198326506384043	1.6990516142863568	5.959389194701303	7.309786778114387	6.037501319900818	1.290850993712045	-0.4128170599051553	1.941541070804562	6.048150524128081	4.125887383534551	1.3121296134245568	0.20787019975155302	1.7045875744698287	1.6032116372639251	-0.30910161059540214	1.5054691991943558	1.5863047798160714
520	0.479056327325579	6.6470455955530285	3.51472400731575	4.523112762475502	5.4230189186507225	4.396143425332689	4.245364178429435	5.412915216131066	5.401063905431007	6.355741484807788	6.328003867385142	6.208792670786708	2.8015308309395097	4.092066754500068	7.5137033272821645	7.59589908589422	6.880753976615804	3.8393847845417146	2.191982025334308	6.596400244270983	8.213935831312586	6.917543870626922	1.947937602847128	-0.06574646366924555	2.7092595032000606	6.977440339591909	4.97497938807415	1.99265467617478	0.9690153574320114	2.545627587567049	2.31600999247417	0.1931551242958461	2.284183734848835	2.300101512823783
524	1.5994350869804914	6.735939485709452	3.3096043980008636	4.920527922604937	5.864505753015812	4.618340480588346	4.369320858414326	5.9898934213088575	6.094176277033117	6.997741204713994	6.847028715012719	6.711093408806851	3.5048541934216018	4.469090927284745	8.155590990456476	8.433612802193503	7.66395805331272	4.534268367763499	2.6406218938915424	7.304470043813845	9.262683845022174	7.912502745678369	2.7840244699760186	0.4739637362911496	3.555598488413724	8.013948420318483	5.932389721197693	2.828493587982031	1.8530709696714212	3.506764164653962	3.101697913921895	0.8689734913821027	3.1809840122019417	3.0915396135477624
528	2.8163263726654604	6.629182321977523	3.5906171708051686	5.168761717144223	5.969564899631667	4.665834891936941	4.351820934752454	6.6696023772648765	6.507926447649876	7.410921554928137	7.144632798276233	7.061575871758637	3.928817023848391	4.854769694468959	8.656807877618759	9.098499275124201	8.274317720503399	4.949594962021297	2.838375799642262	7.897563437549583	10.16815564449389	8.709908463422193	3.4275863084085545	0.9892216299830768	4.238124836711873	8.860609032194542	6.644569857033888	3.4504566105511296	2.597022288441318	4.297093857406496	3.6632873919504294	1.52343594643293	3.917783727291164	3.6643035319319948
532	3.698196401795764	6.391711218908867	4.36284636349659	5.159524904575991	5.677847371071308	4.518764007603669	4.2075815094574445	7.1892604646369485	6.4781002834795745	7.443081360144793	7.143562775695927	7.193909150080533	3.9556324382093995	5.094390379441368	8.863695122274642	9.416986441678496	8.564715363813184	4.858338820589098	2.722070210260002	8.224743822313132	10.689475032520948	9.07755563351448	3.5883223919871097	1.2548494307307356	4.585042465077933	9.28526017705746	6.857210141988967	3.5771989732072105	2.9827935620339896	4.684059608077451	3.799692382755942	1.9339201401521111	4.269154537866441	3.814111938383599
