time	FP1	FPZ	FP2	F7	F3	FZ	F4	F8	FT7	FC3	FCZ	FC4	FT8	T7	C3	CZ	C4	T8	TP7	CP3	CPZ	CP4	TP8	P7	P3	PZ	P4	P8	PO3	POZ	PO4	O1	OZ	O2
-200	-0.7372152190669027	-2.211273664613604	0.6683575494104292	-2.3553860128062736	-4.867036807169921	-5.100949274535892	-5.416959748896733	-3.3892123613618845	-0.9847403739862427	-4.390535820366378	-5.075121866764186	-7.926896552099548	-2.2804586829783573	-2.9161684439465865	-4.193015087985432	-5.462661729372168	-6.079965576080227	-2.485335582180331	-0.04916485386594865	-2.737614386322441	-4.890092360547991	-4.663559901860897	-0.517268239145836	-0.7890081981765554	-1.9164805363906	-3.6361551192985946	-2.7580580641730474	-1.2789821592464663	-1.1927849024221624	-2.689737074736777	-1.560542698734874	-1.0474666330594415	-1.315194722669748	-0.22473214509968198
-196	1.909624094910108	-2.4555895266524055	-0.33382770334837397	-1.7179845528143003	-3.5479082971642186	-3.6371276286802945	-4.351326931457804	-2.3469369352214042	-2.1620750372658946	-3.5898718743287787	-4.250029076336358	-6.631068212933455	-1.8002903416003337	-3.1694588581172702	-3.9060585400191314	-4.946269499688384	-5.387492166268495	-3.6665482428485685	-1.412866469630792	-2.678326361569785	-4.766565787678713	-4.48359345257772	-2.4314846931103586	-0.866684255795994	-1.9094417046975558	-3.93671153981967	-3.069862357971999	-1.431478496752075	-1.1762952774866828	-3.07954262909624	-2.3826181828424997	-0.5002053963429988	-1.0598003837530943	-0.64419120387513
-192	3.5437760263616633	-2.0908734745641917	-1.2034537761821524	-1.0405120823338971	-1.7311187938852657	-1.6075866181793932	-2.717346422964189	-1.2363414733189675	-2.6895127228544085	-2.1044037288940447	-2.7049732139957943	-4.0174317258493915	-1.7941875412464792	-2.502924435971983	-2.8468680309898393	-3.5941839127395228	-3.831546296936383	-4.2624244582325534	-2.7032241753039212	-2.0496199079264033	-3.80096553796513	-3.5844225792985918	-3.9701173205275646	-0.8391654470237669	-1.4890330992297496	-3.459265938608112	-2.765436403921875	-1.2490731446201362	-0.9490511989474124	-2.8397998738116397	-2.681167595769765	0.2590866976395549	-0.41452163353213833	-0.7298469525030167
-188	3.6572234538248702	-0.9983117555208869	-1.5513856371811503	-0.5161042796456009	-0.1648514713655207	0.29876407905488206	-0.9383661127240845	-0.3444869807605793	-2.3971290527857216	-0.5734982476060112	-0.9422785019926185	-1.1891438931006055	-2.173960441822679	-1.2530013291194957	-1.5583826264136678	-1.8812307071872998	-2.0833182282301173	-3.932689179981803	-3.4855453880046534	-1.2520879475452638	-2.3842339455489916	-2.3976857601665182	-4.472435939941095	-0.8930112100943014	-1.0152467463610038	-2.5367772515145646	-2.1197605079537833	-0.8877592660424674	-0.8311855175967403	-2.266799205778957	-2.6219525271021302	0.7241930347278323	0.13913199270406912	-0.6524310691573658
-184	2.324422592016529	0.5325290547277285	-1.3351408209470257	-0.27406358649677665	0.5672199115737362	1.4342741930035616	0.49132341022421877	0.04479711491480267	-1.5116715393047342	0.36408120301831387	0.4530090380198516	0.7795118073809819	-2.6194927626277495	0.016135169152411227	-0.6673434359867811	-0.39675786991083456	-0.798206625353649	-2.7482197215312607	-3.525974980035147	-0.7646653036838771	-1.0366401646190633	-1.3948340380738415	-3.7147428895622157	-1.1734088629660773	-0.8710037447873161	-1.6278269249825392	-1.490593668035319	-0.5627570138074466	-1.1242890329585622	-1.7463339523093755	-2.4506115851519117	0.49053940053114514	0.16939569966940102	-0.6138396247624598
-180	0.17958868994670574	1.8863712501583298	-0.7995204905351158	-0.33107831990576103	0.31594985643725815	1.4886488876904975	1.1858352392774771	-0.20147082158720606	-0.5039848672540193	0.3921233107680252	1.087491032715775	1.3382334675380334	-2.7738571096959026	0.765942452404255	-0.5508920536437687	0.43772312888257203	-0.32012477436304254	-1.1372916669741957	-2.9055926726415007	-0.8643016793364027	-0.1502438630840725	-0.8676376320867694	-1.9780722806580082	-1.6515938001895625	-1.2117768495482846	-1.0565278503446085	-1.1297732563104996	-0.4263441849911656	-1.8822889280479702	-1.519604083039284	-2.3287846983287577	-0.4730969059443696	-0.43283772359285877	-0.7079221588381261
-176	-1.8622250509929137	2.4286270080284624	-0.27887004543468424	-0.5867428168741771	-0.6158058031747015	0.6070184692315859	1.0106283400768876	-0.9429022049939735	0.1684665228643434	-0.3425962618284327	0.9229571796002991	0.6446248276647761	-2.4546770987524873	0.7086427789916412	-1.1540862292715761	0.5450010881969111	-0.5704923853775773	0.34472909482704567	-1.9801493833138968	-1.470372553927742	0.18080763473160733	-0.8180651048033281	0.11871575534173195	-2.110917324458654	-1.8565491391038627	-0.8482891895811455	-1.0610103580389798	-0.4769600319741211	-2.8302991318770085	-1.5478396376631256	-2.228834385012993	-1.761603827797251	-1.3644913400532206	-0.8503287413109205
-172	-3.0164070053237575	1.865491623936937	0.014799617193526739	-0.8672498442688397	-1.6808175998212849	-0.7103971821015306	0.13424815203627724	-1.7690614417234296	0.27974679995479423	-1.3326927389829917	0.2568612688255172	-0.6151357277598283	-1.7531586841189268	-0.09620925014762463	-2.0431632944020555	0.18323926581372488	-1.1505244941273705	1.281937357526969	-1.1935454576875761	-2.1947350446602427	0.1625724281736429	-0.9989884470513135	1.910081739371538	-2.261577600491237	-2.3822424351627842	-0.7479960303494981	-1.0864943238483573	-0.5590620026778595	-3.4865491302201366	-1.5509144028607458	-1.9507641743045303	-2.72887801435048	-2.066939348724351	-0.827543137368357
-168	-2.9623801633428526	0.4454838622289906	0.08696576930977519	-1.0016599868280462	-2.3901169239734696	-1.8637537909182533	-1.0416114303993587	-2.1735103075464717	-0.09265531576128419	-1.9862034270684483	-0.46023443225057165	-1.6407668549120273	-0.9643588041753355	-1.2936428752662754	-2.6507699422667996	-0.23115420283130872	-1.5817753036617357	1.545652862461127	-0.8415962436408598	-2.5620906288310255	0.1458647992504478	-1.071968075906822	2.937071315979383	-1.9117268275631853	-2.364880555857864	-0.40244939821677733	-0.9168704725004932	-0.4631164956321196	-3.4198369893515816	-1.1928451031132334	-1.2554049460186396	-2.832430355550217	-2.04248403987191	-0.43998449929731853
-164	-1.9540926168696742	-1.1327033014309706	0.09881595497216668	-0.8994232989491147	-2.5373384888483526	-2.4275405345662397	-2.050031418392894	-1.8278053952799493	-0.6570884568790666	-1.930022234812221	-0.867557285025815	-1.9323924731103748	-0.40450587766562573	-2.3939623772260896	-2.5799784595201163	-0.36571308878117675	-1.5539178809033947	1.258912679354815	-0.9260156727299368	-2.2777225913714956	0.4036783267796536	-0.7981558421964285	3.0501136702777187	-1.0956495972627425	-1.630729194338615	0.4007772793187926	-0.356221347147884	-0.07271894049166096	-2.4980921682229527	-0.30650868934492964	-0.04183835525678362	-1.9367338370062743	-1.152508613537644	0.3431186071316031
-160	-0.6389892681201361	-2.079729074949384	0.2231520259706758	-0.5867923483338604	-2.2300400677644654	-2.3027691782986155	-2.54115104033714	-0.7957848886425392	-1.0878459187698715	-1.1760988205779992	-0.856754598838642	-1.479428526004182	-0.22306315544554006	-2.968187086240789	-1.7953038170310143	-0.13617955113838032	-1.0468189689909473	0.6445251090943187	-1.1766749590729435	-1.385899540263147	0.9745799278449032	-0.15661312600172275	2.3593342244662274	-0.07651952634803982	-0.36712992098623304	1.5844784935047644	0.5669044837943813	0.5347837792245993	-0.9764023994589542	0.9814452504174441	1.5405309161392198	-0.3935132612783556	0.28550305890479966	1.321331140043171
-156	0.31549176494099346	-1.945732946251742	0.5116437064604517	-0.1859622742010913	-1.738018508337755	-1.6890650944980328	-2.400485986370996	0.4552318740318481	-1.1921993463933673	-0.07374249380090153	-0.5758817777399164	-0.6560513956672378	-0.32061642327423107	-2.8001241613263623	-0.6047950371731431	0.2900633506604064	-0.2834373407360344	-0.10568921986360394	-1.2192001311991594	-0.23440289438194448	1.6557342964330761	0.6639120562003701	1.1113429041460332	0.7821408490460972	0.9700089072532639	2.8081786561638147	1.5961734016173275	1.1017012568315088	0.6279243214966137	2.298861974634164	3.116354219198002	1.1480488748175197	1.6617401796347706	2.140055889448563
-152	0.5672991261464427	-0.8690407850258841	0.854127583731444	0.1505729999316912	-1.286357637972352	-0.9270160174806765	-1.7612432196972703	1.2815962997504253	-0.983715233703339	0.9019575692292763	-0.2948918633168252	0.06701904518372896	-0.4267963458252901	-1.947642202228367	0.530516444297324	0.631662665202843	0.4285741735605171	-0.8790222980240597	-0.8083651641463605	0.7181041818608199	2.1336886828911523	1.376355406147229	-0.4197485734355523	1.1941864460358724	1.8895298194862928	3.644500246383238	2.3680205285367038	1.314546224136229	1.7939034655101969	3.2145640768907198	4.23331354979775	2.080785984507873	2.3984937607290533	2.465555423233689
-148	0.22804513516070685	0.500401137995947	1.0407175991485638	0.3099948756020733	-0.9368355846594062	-0.3228821150257129	-0.926362512157009	1.2163599698827827	-0.6380749328715901	1.3905495370089143	-0.2293108248881555	0.40103948015049756	-0.2929869286769356	-0.7045916301104204	1.2362079589150077	0.6742293817663624	0.8611273743822588	-1.5998941619533924	-0.003339463137972098	1.1334848375312923	2.1651558821372667	1.7387888387648873	-1.972489352014572	1.0703434917129258	2.101055378377596	3.7961437606335537	2.5866470271607502	0.9735337471224469	2.2376425209770825	3.4500074299492365	4.555561531009299	2.1314182227681004	2.244878763253124	2.157003397264051
-144	-0.2766954593825116	1.3641319240461323	0.8826918579703918	0.26349791817895474	-0.6143732055411419	-0.04221784685323951	-0.23357553721106733	0.2541763180037438	-0.3697300245963829	1.2869362798623705	-0.42820304524076014	0.35181870967731016	0.1304530051037204	0.5148636685723781	1.3815461362290333	0.3860050132065681	0.9485571360481166	-2.1494090502831025	0.838720677165576	0.9395555830122191	1.7046756701345842	1.6550199943718913	-3.276564351392387	0.5266359435136643	1.6302111107675354	3.2342507757545897	2.1623399203066076	0.11373054952517486	2.009464258842606	3.0016937180073895	4.005584229846589	1.4520167075690567	1.380442735047737	1.3410639729019806
-140	-0.5219691978627575	1.2180896966697974	0.32209557213524265	0.06441865845151715	-0.2350515270259138	-0.10260247413241408	0.07652425001612635	-1.1146702738275738	-0.3067979804876166	0.7309810500762948	-0.7809154967618984	0.13241063024945843	0.6491398794951125	1.3271138634553898	1.0860663624999505	-0.08989855624389893	0.7650685887094092	-2.3440532625144517	1.2497462002672406	0.3232062748855054	0.9150055027748246	1.1915098398643464	-4.0331406491495745	-0.20667432196412128	0.7643493394627205	2.1906325761799996	1.2465430466650982	-0.9906657909176936	1.4103761875783636	2.115962261579706	2.7875542570307057	0.4818266916030999	0.2831492118839176	0.35076254517687916
-136	-0.38311049245429357	0.12830908564120724	-0.5281333910005758	-0.19464239428968785	0.16100172657848744	-0.4397339511736377	-0.07317525874974806	-2.1542928164450887	-0.43666374573133127	-0.02168800303824728	-1.1244921655874438	-0.03986899172134479	0.9339207387233146	1.5082397422858107	0.5965333565909745	-0.5492762313326323	0.4328749764957493	-2.0114490935086153	0.9125679708328892	-0.40480652349311375	0.06480491144984768	0.5162238465627185	-3.9644021887823504	-0.9139113403134452	-0.12393941698969155	1.0192109320657168	0.14986540339302667	-1.9481115292001436	0.7927425483715949	1.1400874824349714	1.2848741975769273	-0.3205070487513444	-0.5494893179371663	-0.4393563259476167
-132	-0.11631742090421798	-1.3160599436911231	-1.4240040743161122	-0.4348457742679494	0.3921434869402307	-0.9711689328469538	-0.5936759099276566	-2.284703725768543	-0.6374260171055588	-0.7424151282639792	-1.363503691091786	-0.10898887338539397	0.7289712410641876	1.064419147665078	0.134557261723302	-0.8569428303063675	0.03911045928855798	-1.1195771665916743	-0.1439663615168223	-0.9762305592685007	-0.6091020687937386	-0.1874680365359279	-2.9327747747762416	-1.4832360707028207	-0.7605451326241807	0.02304834680400544	-0.8004304746446042	-2.429232352799273	0.3751124134129786	0.3500597766144293	-0.10205228600962332	-0.7074162346145499	-0.8556702711436258	-0.7891132215603844
-128	-0.17180585817829244	-2.3441638887348755	-2.0794415421437136	-0.6204291566443213	0.24241532324145287	-1.6139155585549547	-1.2805871931169257	-1.4039725029784424	-0.7631809692187832	-1.3124729361775964	-1.5223646125504418	-0.20487320371400708	0.027850618515628124	0.2172210360049525	-0.20129065164766613	-1.0099686358701794	-0.39000674983739486	0.13941088283626904	-1.531097527453015	-1.269617196692291	-0.9946905945459902	-0.7849642018526896	-1.056535718157699	-1.9083253097037314	-1.0612672540573131	-0.6546855552356582	-1.3867506945883907	-2.3067581595354927	0.17672835245812357	-0.14676386080880868	-1.0919045182316705	-0.7073159199976462	-0.6950497013663535	-0.6803284270276057
-124	-0.8606701471533412	-2.437506192728945	-2.2730235996078467	-0.7502247076166679	-0.37515994811706693	-2.2615036907319026	-1.8899843645062022	0.06097894891601976	-0.7337405067038493	-1.7091519789459144	-1.698026652817387	-0.5200904594641805	-0.8940804578142275	-0.6867837292497719	-0.4294797767286256	-1.0989286871821369	-0.8504310228810968	1.397023674298782	-2.670458548479298	-1.3086564507822638	-1.1084879608777896	-1.2046258419140565	1.2574197022162505	-2.2176513615884685	-1.0985957356372622	-1.0289127800713123	-1.5525915583512013	-1.6845139222530536	0.08923736192107488	-0.3947412063645956	-1.5755714138305972	-0.516285239346682	-0.33683115158870053	-0.27880889106929907
-120	-2.083025688634298	-1.6158195693228525	-1.94246303544762	-0.8318090417841614	-1.308553930793509	-2.7620809008480713	-2.2214796487034367	1.3920065129421253	-0.5730857238605622	-1.933875317459353	-1.951341504892367	-1.1308400602399962	-1.6157311160302292	-1.3091748919812112	-0.6052203759171864	-1.2023465603036	-1.2953216996867805	2.260879272474812	-3.071085922116859	-1.1814995974274618	-1.025583145413276	-1.4096803629570125	3.395185700427614	-2.3977608620187456	-0.9915779207943884	-1.1845122545853828	-1.3681287730960998	-0.814125058979688	0.014292907865022141	-0.491120933246428	-1.5830451210108247	-0.314599423806314	-0.044743902868313784	0.18914437246251983
-116	-3.2969281590191963	-0.4129908968512039	-1.2277317016121896	-0.8561106302581146	-2.197639459783525	-2.9398314878626732	-2.1748182718681206	1.97746657825933	-0.3825390627262746	-1.958068723503312	-2.218611711622665	-1.8879706811921946	-1.7909580423914127	-1.443819996049529	-0.741137085473932	-1.2946931091045661	-1.5997103412293692	2.4960374769134432	-2.566815608219731	-0.952496168592798	-0.7961785773202866	-1.3617174591016667	4.736670005283489	-2.3669362008416877	-0.8031440356957975	-1.174540635958215	-0.9461163854553715	0.047655433296048176	-0.033272426491417484	-0.482180951808428	-1.2055926292498724	-0.13515804673879872	0.09679325645565943	0.5684711322737022
-112	-3.783996572477577	0.4316971887179612	-0.4441679704896066	-0.800649164085733	-2.6410598688202462	-2.6686863831853103	-1.7722306206781357	1.6284030634774835	-0.26478248767758833	-1.730635638635936	-2.3154065550519873	-2.4604892668591507	-1.3331166472155638	-1.0818828317030178	-0.7876847366473041	-1.2415094344265252	-1.597883578080905	2.1224257892428304	-1.3919987643383243	-0.6313109977995561	-0.4147011031171039	-1.0208032105422264	4.883522498198856	-2.0201113173026632	-0.5152294622764412	-0.9822454427715335	-0.37549555206862745	0.7503795604834034	0.06785897893462195	-0.331549882051711	-0.5381930456878545	0.1296498027150775	0.20326127060593235	0.8333890417038783
-108	-3.0804161947678628	0.3899855007815861	0.031967651018256035	-0.6550044996890461	-2.406234973554357	-1.9519671152423501	-1.1446039647767787	0.6432219727488844	-0.2530070834924594	-1.2417864768147417	-2.03515219174589	-2.502967351316113	-0.4548854518372882	-0.4029747237521789	-0.6809233409856068	-0.8859159924074421	-1.1698818177250432	1.3786019052031417	-0.055445752897942464	-0.20843264407939477	0.14443001114619827	-0.37903422021536337	3.81279276838876	-1.3119389977710465	-0.08410897084696761	-0.563049493798621	0.2945366792395054	1.2753224340664973	0.44166442640374914	0.027449421515303045	0.3301191619644571	0.6088758691673871	0.4649127412025357	1.0527114841585652
-104	-1.3163126673843326	-0.5648696408315317	-0.06544813497231733	-0.45120590811298134	-1.549203272722854	-0.9470117664269267	-0.4855827080864605	-0.4132898737486424	-0.29140850828030124	-0.5754945859684331	-1.282072779279557	-1.8458722783214931	0.4520897257834794	0.3082438401546052	-0.40936201707482817	-0.1687190677436191	-0.32616266525890064	0.5743384942812885	0.9202085710180663	0.2861957244799857	0.8585377909918853	0.4954580652125591	1.8886411142349355	-0.31586640993478327	0.4793717849072563	0.07445484380997491	1.0212613318408135	1.6734127956102438	1.0941210957559813	0.6018775686326879	1.2891795602674734	1.3195550408426382	0.9741506551943147	1.2999467816910943
-100	0.7525458912922955	-1.9420204113566355	-0.7278563957911234	-0.26737171344009414	-0.3829475631582114	0.09154055989518693	0.02193326311236275	-1.0683114501683735	-0.2735309593924085	0.09350125468012313	-0.15544255038593427	-0.605144320390645	1.0304771635741377	0.7809392194104591	-0.047264072924731344	0.7976093868145074	0.7584558110161439	-0.07226219009990033	1.2565752236112049	0.7535774688768188	1.6112492043823041	1.4370286428409678	-0.2586232119229516	0.7805975655874692	1.0675332519281506	0.8134589174713601	1.7215861038611155	1.9760776708302805	1.8586602164071875	1.279082175840147	2.1821317617635962	2.1092259830627778	1.624405141543913	1.5755959709441827
-96	2.0747492261002627	-2.986084692091598	-1.614972348904154	-0.18966546606815307	0.6920855027845124	0.9321560836145497	0.2804407470298397	-1.198042151287368	-0.11256111384821484	0.580384729827394	1.076625582837812	0.8538497068782028	1.1376031608470054	0.8641874172326568	0.28337711024264095	1.7601594880487004	1.7939912035470846	-0.5077970611149388	1.0383278105269729	1.0620878908045088	2.216542953617024	2.216606134540326	-1.9388533781691357	1.7460051730896244	1.5116143188458941	1.4507447444527612	2.2611899318825968	2.149045700369469	2.4546871123327842	1.8491288376852193	2.822041265992096	2.718541853716786	2.155933136265166	1.7976193382654024
-92	1.8578944159330468	-3.0707530897812734	-2.1762020532977324	-0.2584866874844383	1.3954725230270635	1.4780535660619747	0.3208286754137403	-1.0459415886220687	0.1948297763912274	0.8003303388416343	2.102995151932269	2.0823280758736082	0.889941868919342	0.5756370410690866	0.4967157828187892	2.449355119243219	2.493114465141038	-0.8051877597506962	0.6318739636680383	1.1296476097196302	2.504829400414195	2.628181450884011	-2.629048102416857	2.400915378230874	1.674218292777705	1.788576956047937	2.498909228691471	2.118004078285977	2.6268470221001485	2.100900883138728	3.0535998267325404	2.9211962149299864	2.3149173201289064	1.8589696837220802
-88	0.047239936768948554	-2.0137727209746727	-1.915187473230107	-0.427340774649294	1.6881948666865092	1.8021366550722346	0.28943800853132423	-1.0009969447612388	0.5620159492608252	0.8293105938954193	2.7226827075881674	2.7490689685078764	0.5644773230606106	0.08145971575674396	0.6096040591107695	2.72235011367116	2.697029822215923	-1.0476058695092854	0.4596008348782089	0.9915847753285203	2.4189381538353953	2.585383647113281	-2.133484835006535	2.6828770569776075	1.5352684220652872	1.741242404356227	2.3634638726644193	1.8445104314011032	2.279256576505562	1.934154982451933	2.826518290059162	2.643971198082305	2.015486950554085	1.7076674656668867
-84	-2.5490782196536736	-0.1565232421976284	-0.6731225831203226	-0.5605373964462599	1.742696400057207	2.0826578087676735	0.3784461011868494	-1.2879459825423163	0.866522488790482	0.872548160734192	2.937921755048891	2.7762443949224194	0.4217529882273208	-0.37368315363951804	0.7455439548742743	2.6398355894196506	2.446647637865777	-1.225650903468334	0.7665607909875937	0.8064316490793733	2.0592846818430424	2.1754832212835558	-0.6471751315943418	2.652138226488809	1.2168054549967091	1.389602657624403	1.9132498454426408	1.3903629744712382	1.5275657138404108	1.4193935358450867	2.2320733014019103	1.9959933707387993	1.397764321612891	1.3866965735710712
-80	-4.588174808362261	1.8065987779781443	1.2254711358601453	-0.4869400846585034	1.793983216524705	2.4769666132378374	0.7328612189863427	-1.778634901324503	1.0225784752777347	1.14279544064957	2.931622020949196	2.35639404655617	0.5566964731466311	-0.5626351223091887	1.0573161813744176	2.425522082880662	1.9663946578923863	-1.2327079741826334	1.4880229197126467	0.7791361193059112	1.6418106514486988	1.636540170352386	1.2913150754750944	2.4363281665325784	0.922531960065545	0.945286331174325	1.3360230888967635	0.9158692336800841	0.638367651281343	0.7679081539793396	1.4753425084058556	1.1947708099717749	0.7443740945142213	1.0095962260505629
-76	-4.831850039680634	3.155819169659886	3.0737090033175116	-0.0886586604264117	1.978937859307251	3.0151100082567197	1.3766344750933628	-2.050343746730728	1.0311136219694423	1.7254238085099345	2.946575634192692	1.8458666754848982	0.8641077854274379	-0.3626675000571004	1.621965285020837	2.332210773301797	1.5608752926518812	-0.950795886500228	2.2868347110231726	1.0483299467321887	1.3893195355624348	1.2554258076442584	2.9662876054258827	2.1549401228857152	0.8309205749513826	0.6443113072340492	0.8741199948175953	0.6013542398528813	-0.10271399442250727	0.23052199126693354	0.7902474383429517	0.4455392349438472	0.310383438280383	0.6853560788017162
-72	-2.7730448175989544	3.4751734645841847	4.1129240885843705	0.6271266921422433	2.2693488540574323	3.580367079278313	2.197921032124733	-1.6450463491868061	0.98499822367889	2.5157017644309345	3.1410589138835534	1.5929747779681767	1.128617164623355	0.20390839823262494	2.376321548184325	2.494561904331109	1.471779461959468	-0.3659278741180826	2.736827843431971	1.604425545456356	1.4177480900255717	1.2313585250283257	3.7165851499182825	1.8663629246320639	1.0031110022967948	0.6309931858344161	0.708457527756147	0.5339914546836005	-0.5202037678936124	-0.017592174887944678	0.3413800290548616	-0.15274432262957066	0.1741696442736657	0.4460930216970571
-68	1.0645533773247733	2.8364863324076524	3.9374611278304728	1.5232588014291046	2.534764045037714	3.992578257970856	3.0108184738437265	-0.35861223845540047	1.0240366433038381	3.272370568596579	3.5099635035588483	1.797643418541831	1.1816871136394516	0.9899546479026738	3.139164201440217	2.860495321681142	1.7724618866992803	0.3813028921990764	2.555712455019004	2.2914440574013053	1.6867223935456956	1.5793797929942608	3.1804032245447167	1.5668917854803188	1.3617535795163094	0.900955555548487	0.8690147377961831	0.6389444454273782	-0.6009962543572641	0.06182682498580901	0.1691377754709479	-0.6127716883447154	0.21091198867953456	0.23481473267398023
-64	5.323173509509497	1.753776188237241	2.7476437022456057	2.393601411498241	2.685147517100659	4.137387742087059	3.654131641698887	1.6137068230894782	1.261777278575488	3.758320560503218	3.9115545650907046	2.450020307077233	1.022430298131197	1.7889507963790243	3.7110330964807616	3.237566939762941	2.3458385408302567	1.0584816905954129	1.771403785047899	2.891106121393286	2.0391075559631986	2.1250476783505907	1.4607839547469337	1.2298614947739266	1.7440835193469175	1.3273961510523333	1.2225011556277756	0.7061370593362549	-0.4592937219467791	0.3848218312084415	0.202501326288126	-0.9974655483811472	0.19402851115353484	-0.04320562619983428
-60	8.414891221735399	0.9440026259430385	1.279060241330925	3.0581719798124274	2.7855112482315425	4.054630746141215	4.071850766391928	3.759035816238717	1.7334876016719485	3.8852035901206134	4.176035393661847	3.3594193373739945	0.8318727591492654	2.4254140792646015	3.9917251962969846	3.422780266703159	2.952432624992113	1.4723154269239351	0.7290847283075534	3.2413320459546067	2.3036312998784703	2.5956969195634385	-0.8764099456594394	0.8528019168303416	1.9956806847730972	1.748522158022845	1.5482481678973845	0.5089255558516221	-0.24615576801140523	0.81690162214025	0.3267657152508931	-1.341295000504547	-0.042469695103231175	-0.43797919043588057
-56	9.236556983515873	0.9981378887725161	0.4224675585094065	3.4386532219853496	3.0358104629163702	3.9196650882941046	4.330194462333911	5.493135915238831	2.3833372532752546	3.76418065074416	4.216866005741376	4.249704350232442	0.87059950608747	2.8228187489765832	4.0331191914775095	3.3286738311649984	3.3531355773190588	1.5888445337235386	-0.05853205531958794	3.3116323864295816	2.391947740237768	2.7623729636067336	-2.993540994715595	0.4806174921775945	2.0437526651281064	2.054170841752804	1.6595150190416337	-0.05107573779442987	-0.06808374804950246	1.2467424838060133	0.4557526100096136	-1.6133611161506538	-0.4906582819948495	-0.9014388896117503
-52	7.652718524685091	2.0979118294200787	0.7330028396219714	3.5658969789120145	3.6266059783925284	3.92201923333821	4.5496716384460445	6.4204730825447465	3.0849375646905295	3.6262588409422327	4.07040594980622	4.8613161917974015	1.3167703118457625	3.0103015823655395	3.988560666504559	3.0239818019812685	3.4172198686153914	1.5544135531280954	-0.15005096755290517	3.18961595683652	2.3283142984733782	2.554124825704775	-4.105850686197444	0.187150805716073	1.9069634627833416	2.216331237919316	1.500404592540578	-0.8593838193176911	0.03698958074648265	1.6129120547580498	0.5608481154586894	-1.7490969852156075	-0.9797677372991209	-1.3047860827881903
-48	4.510439861353933	3.903688897767424	2.104815716197692	3.5231525809028685	4.553770053810453	4.119661797612769	4.791814315141822	6.456115229518968	3.676956405892969	3.659867992697588	3.8427934549585236	5.0238528124807855	2.1381025260349156	3.076317064147719	3.9894959825880134	2.665783875410656	3.1622731605798706	1.5854374130274898	0.6007985457510433	2.992498151853238	2.1965415422295345	2.0802626557280663	-3.8202590845930544	0.027049800312770236	1.6460081297324736	2.2518384399781066	1.1607803077001098	-1.623539086057513	0.06678444875306593	1.8762423944786415	0.642230151462326	-1.7203091339546717	-1.2999296155534423	-1.5193027219560604
-44	1.203958031475679	5.666247353552987	3.8030733966176453	3.362991562935654	5.5189118245975815	4.364305962034165	4.978177058048987	5.76552103494297	3.9886696237949337	3.86406182267216	3.604729404885139	4.6859502674049525	3.074498168812345	3.086679212406469	4.025339116423909	2.3716516434872528	2.7150332859155855	1.810043688018885	1.949317211951616	2.7634296347466436	2.0453479238368475	1.55280947293195	-2.320115321977355	-0.006575118268071921	1.29674398571682	2.154428953453412	0.8029848316900043	-2.0159325548773004	0.005446044714409963	1.9730668018116981	0.6704831702470426	-1.5826395710087968	-1.3521115745739174	-1.5082901678151635
-40	-0.9842382644599225	6.53002308150522	4.851301180988947	3.0597844046588203	6.018503650728811	4.359447945078657	4.904860484137414	4.603053081334951	3.871993531941685	4.018190850603334	3.314839116310401	3.9089369675173575	3.7477011585982667	3.0244584007196895	3.9136369129553206	2.122120136625194	2.2217271271879193	2.1681938116645085	3.34624528040042	2.4289858279891043	1.8228931380978326	1.1540510625312475	-0.2775688760425226	0.013409414294779222	0.8394652583862302	1.8555560065151226	0.548136590527404	-1.8437054110707993	-0.19239273618761013	1.7992436840407204	0.5529144988405363	-1.4578976594356172	-1.219647642871003	-1.3631054128564022
-36	-1.4358783924089962	5.906488880503809	4.560496318747084	2.535058968819318	5.591848359295026	3.8266971014682793	4.357827175582017	3.171814672091425	3.235592595514386	3.794645776704841	2.8301703858446188	2.8377761769173353	3.8423592947270757	2.7894635130073304	3.393939724936375	1.7627583697636353	1.7621811583850877	2.438982480567015	4.174262513112123	1.8516896916368837	1.3910754883930845	0.9261763668518456	1.4710622988753412	-0.010179948036002737	0.228846743125106	1.2510288922195685	0.3928790678595466	-1.1549524039672652	-0.5644129500444157	1.2512257067561199	0.16158027906153907	-1.4548950158579932	-1.1086645098351686	-1.2533713547533272
-32	-0.39018884202672394	3.7581975365167124	2.896499626476104	1.7340900854198171	4.090097893878818	2.673880570336503	3.251159659760361	1.5890970189981697	2.089206451863322	2.9462442323685774	1.997889156065739	1.6504554706865162	3.2592792428697437	2.2668015899647425	2.289477819384419	1.1050476999993295	1.311657783057706	2.378271335319295	4.022033204414434	0.9429759955440191	0.6139255150553643	0.746665237448958	2.3184401930448164	-0.13903234863941744	-0.5404801951114013	0.28080391812953925	0.20850391633320497	-0.22240476254101338	-1.0797779532827338	0.3028279535277303	-0.5840833172356585	-1.5850348432576933	-1.1989603012331702	-1.3207777705224735
-28	1.2630897728501285	0.6590048654130465	0.48800879593662794	0.7060062271413032	1.8099430753787582	1.0727223130799055	1.7187180475710544	-0.03869269405967232	0.5912908300729911	1.4683605395437835	0.776333389706359	0.5130860792557297	2.1622230952031427	1.4280412161058462	0.6514810903313342	0.06852349621638384	0.7778807262808215	1.8843082141985728	2.8754479812503235	-0.2291026258644807	-0.5283476100933576	0.41103979841405225	2.1609206145087994	-0.34967297227313593	-1.3725427354491524	-0.9844974254547516	-0.16897927181972913	0.5904584512108043	-1.5960746963258285	-0.9273428297471549	-1.6241115290644905	-1.72289001506693	-1.4977254829739777	-1.5767409761674271
-24	2.457793467992056	-2.4167895256059566	-1.7253954366990931	-0.37487465048556984	-0.6072468742297885	-0.614225564836406	0.08327019938664482	-1.5218174419127852	-0.9487346386798096	-0.3699084212977452	-0.701746342794606	-0.4653311062031579	0.8935037828774817	0.39245080848791675	-1.2106084793043472	-1.2329262463912498	0.07964375595011819	1.0839422913840973	1.1413968772680911	-1.4171922171098	-1.8786642503990407	-0.22874253930514052	1.3923230136050837	-0.5260546790192823	-2.0668923802643864	-2.316680425516911	-0.8151007870121977	1.0042824719822527	-1.8833984089030182	-2.1760013048546356	-2.723881714619442	-1.6548321205320335	-1.8039957239380855	-1.8783216429017366
-20	2.445123666312008	-4.50829838568185	-3.0060241146486777	-1.2802537647348942	-2.4813420709904626	-2.0214221426472543	-1.291406032162792	-2.5917074614894045	-2.145304674454232	-2.149363273916031	-2.172579044578852	-1.2568049399115893	-0.2040312285040357	-0.5984635934025073	-2.848016970119629	-2.5226349766937033	-0.7800228576039958	0.2656629078833428	-0.5349275456274346	-2.288010353033754	-3.144843808817235	-1.1528717250326992	0.6287474616388836	-0.513695596351664	-2.39327430120854	-3.3973081026134175	-1.6378442007674898	0.9453306174252813	-1.72244822544097	-3.123233787280608	-3.5395798593800705	-1.2002943723891648	-1.81803106802649	-2.0042629191340584
-16	1.075589058067785	-5.084205137767864	-3.183757058688471	-1.8443192197011467	-3.4323167714245653	-2.9663743897884567	-2.1892151777308198	-3.0131270809393382	-2.68459915437011	-3.496720543616087	-3.363686314673402	-1.9048254441806463	-0.9400591230500103	-1.2951550451004092	-3.8702027699985746	-3.490279188880763	-1.6861429171906523	-0.28010788489193195	-1.5641027649490304	-2.5781061584231586	-4.020734776835925	-2.150615209871732	0.3430342963617812	-0.2036617840154894	-2.2001779023888104	-3.9447188277785794	-2.3899974762656413	0.5607581124453058	-1.0203188632000044	-3.5223088175535584	-3.7582995796683103	-0.32758563674235325	-1.3272987570630164	-1.7831776097099454
-12	-1.2272126643667958	-4.274109352764819	-2.685183756724591	-2.057780022194131	-3.5511550813662267	-3.5206625372690183	-2.64841651247843	-2.7414269378112284	-2.4869999822768367	-4.242270935791981	-4.120195855228609	-2.474046700906953	-1.3287897076436637	-1.5805221756131418	-4.117096890545271	-3.9405329127958617	-2.4409766135575857	-0.41736751689439894	-1.670374389245845	-2.225358957394204	-4.318148602073797	-2.898575060201943	0.6096203311787521	0.40132701295616807	-1.4958152733230388	-3.8306746386133885	-2.768997900647502	0.13345883752983198	0.12587624756503604	-3.2986013806031065	-3.238213530947832	0.8075696805591965	-0.3510543695169627	-1.1958831518497648
-8	-3.7318935300065856	-2.795686476324749	-2.226603979211129	-2.0761563725505674	-3.3036835110224043	-3.9281525512701125	-2.920946829096876	-2.0075483271457832	-1.7800940230249207	-4.450309742182017	-4.45841025180512	-2.9871098919791463	-1.526384230574656	-1.5375667771620234	-3.710783472229073	-3.873175849672465	-2.8398806977097513	-0.22546039464770906	-0.9960120891219689	-1.4003621304442229	-4.035731782260708	-3.1040224950622664	1.1104701729394353	1.1719152897810665	-0.4543137240860461	-3.122998944980786	-2.5542104179744562	-0.05318417386693976	1.4580056630516776	-2.561939471452257	-2.072083706392637	1.9245676945733068	0.8499551990030563	-0.38355764649826957
-4	-5.733733639545931	-1.5928145606834248	-2.3670129716239643	-2.1204647964346712	-3.2069649615382017	-4.41037319977186	-3.2893750584523285	-1.2397326199702567	-1.0225754950455033	-4.305425633050744	-4.5062060242369375	-3.3706481371655905	-1.6823754268132014	-1.393107291519058	-2.9506957456477436	-3.4416901978382777	-2.7450799872709992	0.09135983861268422	0.012922171470680088	-0.40972214833765186	-3.3218548214013306	-2.6302788191190722	1.3981568778023907	1.9064047288446277	0.6663712246283043	-2.025913948666187	-1.7033337311654992	0.17311954454582532	2.674281828804118	-1.5209752282842353	-0.5333591090087749	2.758557312676426	1.9175802420839292	0.44452640302005847
0	-6.7979373760253345	-1.3669522966204934	-3.183340064594675	-2.3255467356141546	-3.471184721765886	-4.979673373047651	-3.8455986879531503	-0.839821872975021	-0.6841022951020314	-3.9450776477392213	-4.375989902892117	-3.455358496525082	-1.804304356787953	-1.3642557824976629	-2.122821325664561	-2.825322859306565	-2.125965351459236	0.3664397588061213	0.8716316797184395	0.472265689372753	-2.362955087417901	-1.541979785840762	1.2316644160645407	2.4296464858701268	1.650219197875223	-0.7581869940688857	-0.36020240096702594	0.8301401117346641	3.572781792203348	-0.3546346417056468	1.0638713809809752	3.2023937621326284	2.609113686649926	1.1431384057747416
4	-6.83412073317275	-2.238945001671426	-4.252496231786672	-2.6296257906325615	-3.837640275802833	-5.389126764042689	-4.379271496206586	-0.9412626600342763	-0.984239456552815	-3.3532428656793836	-4.062504281277587	-3.040138236953295	-1.7329028801081783	-1.4929527006602832	-1.3421628441302855	-2.105631822991896	-1.0555261346870424	0.5876038655704284	1.32031905317744	1.1405422658734594	-1.2756197420338864	-0.05848746359482793	0.7571106533962492	2.6773152283783683	2.41506170616757	0.5506678805753344	1.218451735281249	1.8024792625695387	4.1319880381212	0.8738406278482383	2.506228202214252	3.3577749644380828	2.940696947302627	1.7157199339464217
8	-6.018274292056295	-3.7118866349917905	-4.932377802793525	-2.7866368223406393	-3.7259743119581756	-5.260274873804043	-4.464348781758388	-1.3174393143770327	-1.7470074847936368	-2.3935036598810564	-3.445294848326613	-2.0093922564318993	-1.2470555273995831	-1.586495514678871	-0.5235961662424389	-1.2381702630253488	0.31284639160325095	0.896082577827178	1.4398366176492468	1.6805874066837436	-0.07979087511421361	1.538434620787762	0.42628043782373926	2.7147812774781115	3.0119566841374836	1.8745094490408172	2.759878390019892	2.8932111190228587	4.472043502960885	2.1956062261460803	3.7312545682162064	3.4536604794090078	3.157655946388647	2.280802959405711
12	-4.643355834681683	-4.955817210082979	-4.750747668669578	-2.508532040938294	-2.6139104300307596	-4.317480553216841	-3.708746900731529	-1.5072786769958788	-2.4696838793389886	-0.9652239655920659	-2.4002408920722984	-0.43944984563503314	-0.24074861346496787	-1.3270662989489792	0.4992797064096517	-0.13821467722329184	1.7743507578874436	1.4624021016392106	1.5419251879862856	2.261523479473918	1.2324432103512095	2.990979187089617	0.6962847692076262	2.674298279686034	3.5336692244004864	3.2105193057064736	4.0434155362085935	3.87584470724019	4.722156035898747	3.621860971843229	4.762872207060597	3.6794176008788204	3.5465586095913326	2.9419498369326424
16	-2.987818710413026	-5.255033956611465	-3.675048103590658	-1.6561554628519957	-0.421311764845485	-2.5904428893490428	-2.0259711691250266	-1.0965460511179008	-2.586997740889723	0.8348512628458165	-0.9449521279319132	1.3737335170394687	1.146775838817621	-0.49244493121748095	1.7944102241987978	1.183741208902515	3.103553764136936	2.3211626947927035	1.9130895089485997	2.976822368735467	2.589641802925284	4.111818780054446	1.6995834069257003	2.655344002695315	3.9993178743478834	4.469699848334233	4.917710291844229	4.535938728324467	4.8852605696361175	5.021022307116838	5.587656960685003	4.038254250821234	4.208424557551019	3.651421060879925
20	-1.2682723967002638	-4.373937595768393	-2.1185839122688876	-0.3645332744454714	2.3280048311584856	-0.46523162605127893	0.23274002910503774	0.005697919041433649	-1.7990597441074079	2.650457852347544	0.6779866201449378	2.9911959095774727	2.5347051556488247	0.8455229976287484	3.204567185894231	2.5302016671195453	4.082375516121215	3.271795979822395	2.5616905624563033	3.7284715081493807	3.774985542303184	4.7804894326630905	3.10599397828788	2.639321797382984	4.2862639318967295	5.4183473450236015	5.27661083796568	4.7040252566781655	4.784088122686963	6.076549991524641	6.061502441361217	4.2996201406642784	4.929617392491656	4.158888329496154
24	0.3292105785641174	-2.656414978949935	-0.7054817658732487	0.971924183298996	4.698684203682617	1.459226962220042	2.377480262475833	1.464241024135178	-0.2794089608290603	3.975400676227116	2.054300064622351	3.9919316667859652	3.453552237374369	2.270897382724787	4.365864742700396	3.549397698024106	4.538539398178741	3.939458360262564	3.143071405104669	4.237317551405073	4.468760479134945	4.926200377424601	4.276128281287554	2.481910222463027	4.167178620307743	5.735098824326419	5.044055449148529	4.300490845312958	4.144092549351625	6.384990199180963	5.935256943022729	4.1008934871132805	5.254283414926348	4.107257832647749
28	1.6015446145630559	-0.8174214938506683	0.053040861949519756	1.8652355623836283	5.791899666468168	2.637577527062681	3.689308395607877	2.656177752464328	1.3706282342638005	4.384222496407709	2.776970617912529	4.151411522874406	3.573305359401733	3.1856882491743175	4.872195708371496	3.8917088410349754	4.397722709996671	3.961817731391415	3.134588710500231	4.1826476945179545	4.392535675402834	4.531892765047329	4.610818851273841	2.001284117414284	3.442058316123481	5.169020639720474	4.200032700424989	3.3827295217939017	2.7783021856734496	5.6592087602785215	5.004080282928656	3.156722060816664	4.734350669351845	3.2346608557096093
32	2.3249018133593133	0.44615912324794615	-0.0027073898749988856	1.9703055570448047	5.209819303710485	2.8241803574783946	3.768975963613523	2.9927856846589083	2.412249559034167	3.7617356682216467	2.652847283341267	3.539781084660324	2.883694879880625	3.111444226992381	4.496179092499557	3.401521197314084	3.7217028047057767	3.1975390830372192	2.1607024615094725	3.391234866163297	3.473966828158398	3.659411421119761	3.8931646248752942	1.1115080090116443	2.0876221604091922	3.7103323842785514	2.8367087769413923	2.168306106814982	0.7642031888741002	3.924649705514796	3.296429387352975	1.4609130584071912	3.218374244193722	1.5720310171491674
36	2.3084511698614185	0.8022618273507043	-0.6494969709210604	1.261110660230003	3.271600953425182	2.169779772048688	2.7421231200604472	2.2426960411669605	2.350022786882925	2.3893783032172777	1.8137297584517784	2.483236783433799	1.7089765028721386	1.96196698647107	3.3332183276897793	2.225858444316161	2.703760378686967	1.8261256171851303	0.28943443225264676	1.9620128820474312	1.9269409131036919	2.470814221819655	2.407466882349465	-0.07527375947305703	0.3296915284415957	1.6632624822584907	1.1975859373374091	1.0002114747543718	-1.5033895931433932	1.5827122886752392	1.1749117344756497	-0.6372951849106071	1.0050193045991058	-0.4894284593623039
40	1.4906045160806405	0.40468639033187226	-1.4566574059902624	0.04916205989823186	0.8421977737144143	1.1130557032139745	1.2009537189680055	0.6697682721394115	1.1968938082040248	0.8158117512132835	0.6560432894355689	1.4058093989164928	0.5430216775535626	0.12721675602265012	1.7687447026418928	0.7609458546499939	1.6083364446087745	0.2706008248649706	-1.9089147996390716	0.2398769849442956	0.17997316970685867	1.2089194028849668	0.7606970052586849	-1.2565610377057843	-1.4253771269096915	-0.44716107732409077	-0.3554322412576949	0.24011342166836142	-3.4443702610791918	-0.7261441331649838	-0.7474008183682739	-2.548133605245658	-1.2485763995118322	-2.325029605717389
44	0.03470904371319893	-0.2548274391416262	-2.0306172319642486	-1.1626571387500588	-1.1149387331469645	0.14103227818167796	-0.10149112318164101	-1.084149238710235	-0.5265889154490553	-0.41227504506925877	-0.3603157093964579	0.6255339368285766	-0.2006593639552826	-1.6923150973508503	0.29148444459755335	-0.540736554687933	0.6657465679526354	-1.0093555424955676	-3.605426063971515	-1.3448897566218747	-1.3195924725594625	0.11895520210035135	-0.46924480677387365	-2.0631859250430313	-2.769685022990738	-2.101257795750742	-1.4619522057815817	0.12289125441280147	-4.552687633464065	-2.405027145035678	-1.8628219319041877	-3.6956787016068082	-2.824342720530353	-3.3459339057368993
48	-1.6542384582715695	-0.6568208916293453	-2.189458364680889	-1.9111843060878093	-2.013408894223882	-0.4440565396064804	-0.6338979585855662	-2.3100588263362414	-2.060129160448088	-1.0188481781985297	-0.9430792307885095	0.21367755478316314	-0.38718390367028177	-2.8188693452237374	-0.7512304167854239	-1.3980441058147604	-0.030038470326520114	-1.7402553514412384	-4.132674683627279	-2.488328689014815	-2.3244452417814863	-0.6617844088058396	-1.0374999020131328	-2.2449238243644607	-3.495303145166907	-3.033483497590214	-1.927240128419709	0.6366927011627386	-4.655417907405135	-3.1899979033992767	-1.8795018148653098	-3.7960140609268502	-3.2992870724348715	-3.2814457333685882
52	-3.0231621189083873	-0.542473076404435	-2.0017056414610717	-1.975123996516282	-1.8830078792714358	-0.6306766255668133	-0.33569535528305067	-2.5665161544851354	-2.793260805707094	-1.1117620440070355	-1.0968401404344803	-0.005577697870209077	-0.19815516421833423	-2.923072807561357	-1.3121933903943055	-1.8295152141156594	-0.5565028772608893	-1.942738408905787	-3.352733842014287	-3.150466434153991	-2.900075905153598	-1.1759859293810797	-1.108232376161638	-1.8140630676245209	-3.6997961904574965	-3.3612065230384274	-1.8356645060923213	1.501224037194881	-4.021374692300618	-3.2814617074133476	-1.0090688441549218	-3.008483163867323	-2.760347120945222	-2.3184316099759905
56	-3.5603506475203783	-0.02083900379343588	-1.6930261807612255	-1.4518476687969004	-1.2542252508922236	-0.6324231608636122	0.3948092748687572	-1.8686096621065549	-2.5570015842729514	-1.0805146666902976	-1.080463287486631	-0.3185882858339018	0.005070834407818769	-2.1648690645873314	-1.6269037682465888	-2.1082346386133763	-1.1062540980065374	-1.8637648773821536	-1.7606898501765726	-3.539872398975889	-3.3620862875930912	-1.6291360813970808	-1.0659860345629775	-1.0617501708880641	-3.727179994709648	-3.5107567221695164	-1.5355077943181008	2.2724928798521065	-3.2416319765263593	-3.230041734169758	0.09592978632072019	-1.8657103729827105	-1.7477425292711513	-1.010282990765931
60	-3.021214954377781	0.5372747169281187	-1.4982988796552694	-0.6867265683955767	-0.778850911081381	-0.7132220250242387	0.9540114378684522	-0.6523331983308918	-1.66890370424437	-1.345334049642909	-1.2278896539204456	-0.9324440932573772	-0.09452850347733044	-1.0910354825130393	-2.036025995836091	-2.57410311049015	-1.8650135946870452	-1.797446365586701	-0.2458706193915197	-3.95772670700294	-4.072067250461206	-2.2784411849670936	-1.212991949833608	-0.42732638012761703	-3.9702689547434904	-3.972888698084044	-1.4821482859384163	2.5338797505300588	-2.9343151972119275	-3.6283848194067136	0.6457697732833759	-1.0126361821357222	-0.9586902236575733	-0.003198351237298427
64	-1.579616065805554	0.7352781277212379	-1.544974203977428	-0.09911794190415875	-0.8340072014732832	-1.018577334693354	0.8770128466398204	0.453853784845798	-0.7270086389306234	-2.105597729135171	-1.7443096593686245	-1.8437584592045155	-0.5945197328816113	-0.346663950998537	-2.757804148386945	-3.4162294778403037	-2.886630051000534	-1.9153763007442788	0.36892929580049194	-4.596731174307456	-5.20645760175364	-3.2750565923019557	-1.5751380880641743	-0.28303876447742765	-4.640598285402756	-5.013226973274215	-2.0030693957300896	2.085189098815604	-3.4221668157006797	-4.766255843526664	0.12022867768450414	-0.8822454191821514	-0.866772589879328	0.284694819923686
68	0.17372079149731787	0.36846089270070714	-1.824551696939165	-0.004584186233182025	-1.3467565740915268	-1.5140113792341294	0.07375727575276851	0.9048203207059657	-0.28901997135624746	-3.235095492778214	-2.599333518141293	-2.8419156002772454	-1.3475604023289383	-0.36331745890441264	-3.7470972443389274	-4.555520523013797	-4.041864384936875	-2.1990492288381933	-0.2444908314730978	-5.4152459961544785	-6.631813509409845	-4.551321495009262	-1.9338040303043817	-0.7495932560115117	-5.633962140164041	-6.494849665456329	-3.1085021417336955	1.0386234495643123	-4.551094997359687	-6.434586985554767	-1.4331803285654054	-1.469743128880503	-1.460811372883461	-0.13368198241814644
72	1.4231762850115617	-0.49767285459753124	-2.2418322506570565	-0.5088289367226851	-1.91773902885721	-2.049552435468688	-1.1599714726725499	0.4381126452351958	-0.6186353548643349	-4.373745430394122	-3.569036713172276	-3.6329696086712615	-2.0806722588459285	-1.1846654385220687	-4.720047938827653	-5.688689217509999	-5.065524088468106	-2.4996731218169836	-1.7580151513536748	-6.1541724049639175	-7.953147391266668	-5.815099224667651	-2.0456805177538544	-1.6366438824340335	-6.564495070096165	-7.910028914507857	-4.448893535825729	-0.22247141543486518	-5.744812474051651	-7.987114409308352	-3.371390811037617	-2.32116007218834	-2.242787832319683	-0.8277177789771081
76	1.4542405568600119	-1.6058896739469222	-2.6904070309423607	-1.4982351026855207	-2.148026222527805	-2.490943187146642	-2.342739814565497	-0.8703554846723757	-1.6179645020643243	-5.149179922454893	-4.388541687375808	-4.010244359381942	-2.5750446254566453	-2.492857688331994	-5.32113121596607	-6.460836871047574	-5.682054505307511	-2.675127499502056	-3.3838486586013787	-6.480699522822377	-8.707025505970975	-6.667288286541959	-1.8772067976286726	-2.536219590459454	-6.94983671341038	-8.60930154534124	-5.455485806996486	-1.2059100835871446	-6.269218428995964	-8.634422280446273	-4.7291741251754615	-2.743316643464416	-2.4832584795244426	-1.1676678628050958
80	-0.012516887826907913	-2.6728238991965925	-3.116362325429671	-2.7107064655529745	-1.9341698836130894	-2.8246900963992267	-3.0970418375023763	-2.6835489205318193	-2.9423253461937793	-5.384184823747549	-4.911880480762757	-3.9740605253973698	-2.7896194387576694	-3.789785613982126	-5.3258681162837	-6.659364683504103	-5.7463512275572874	-2.6950864723825725	-4.311643589578013	-6.169554694811556	-8.591781594518775	-6.7913298435407965	-1.6635706382712014	-3.0182509346098736	-6.447804434709628	-8.114368418233893	-5.606176839025696	-1.5199477634201912	-5.574687943688938	-7.8255615036798565	-4.671419608719715	-2.1339356845384776	-1.6017109115215593	-0.6419481618886056
84	-2.6482329301729854	-3.526276102699792	-3.5299904257342374	-3.830364694461339	-1.5279283484983088	-3.1552500645130075	-3.3404517089428793	-4.536920059193571	-4.190472115427155	-5.1573715079749824	-5.169210897746116	-3.709405412845345	-2.843535177680993	-4.612955558574354	-4.749130713870193	-6.306292517952653	-5.301356779065312	-2.6389131479394354	-4.124855031089648	-5.211613165095115	-7.602291087983795	-6.098945602277424	-1.7324862436422501	-2.8190109658593663	-5.015923010559889	-6.349863513173458	-4.672931182507403	-1.0264576647592125	-3.5448303133157886	-5.520179734598043	-2.893820993746661	-0.2709098451450284	0.5289562331196226	0.8942975379299515
88	-5.607263550906497	-4.134548653654286	-3.9738778967662394	-4.571231830499765	-1.3379173245029428	-3.6055345444247324	-3.2828669465150244	-5.967839225960486	-5.05032251990297	-4.7023515582570985	-5.301467882122893	-3.4583408745235333	-2.8827710078889393	-4.6855592609362136	-3.8057505988356173	-5.610862717767527	-4.540287006359143	-2.590864890232987	-2.9698347970368	-3.7980210685206597	-6.0118145790904265	-4.770845877999938	-2.1994755212565504	-1.9301923464679804	-2.9201462195102743	-3.6876592543003954	-2.835744135372783	0.12283386259060826	-0.542912601053899	-2.224529260741025	0.21772509758338413	2.573515647112727	3.5003511817294792	3.1486475388186177
92	-7.857182482909103	-4.540506828288519	-4.478134143967235	-4.738769519285757	-1.6188852746144897	-4.1952323807654786	-3.2479474462522355	-6.604779703630931	-5.342483507019338	-4.224146832291598	-5.427978025083514	-3.361287823773696	-2.9322731420870785	-3.9673421282738293	-2.760010235493802	-4.825108992792136	-3.69387482664188	-2.5131649907556985	-1.4152530396015732	-2.20375489632204	-4.226369370280371	-3.1700773159098983	-2.7524986197595935	-0.5622515068163828	-0.603218553927459	-0.7930785397533454	-0.6068451985296612	1.5726606806149848	2.747436278082311	1.2148858278119197	3.7408540154423364	5.73913811188336	6.5373353793078035	5.513497338679855
96	-8.615671136084435	-4.765527236350769	-5.020070540151468	-4.265682686526329	-2.2672047557809853	-4.7889656899659085	-3.4440352829763996	-6.235071643346092	-4.9888672702717525	-3.7652048969573944	-5.545215115851972	-3.3715753470173757	-2.84116005180198	-2.615688794207788	-1.773506279282398	-4.103706826339575	-2.914936535151479	-2.212439531462467	-0.09912902091747841	-0.6580876691415585	-2.606246226406311	-1.6806532102114093	-2.7321331432027347	0.97460347167953	1.4998367986958812	1.6410589176706893	1.3913245165983272	2.9170451090597296	5.589586720659379	3.9479296107752337	6.603517992513511	8.438619592341995	8.822598435061506	7.314754467616004
100	-7.695751170755643	-4.757449614911202	-5.502079472955509	-3.225473157368548	-2.867412559899151	-5.155814157820223	-3.826406469221088	-4.860712039119483	-3.9850246805668315	-3.214539042939977	-5.5315675595814975	-3.3075170433460994	-2.359415763620074	-0.9150051451469569	-0.8514015653095242	-3.4586744221148544	-2.2344698849529885	-1.4459838830679916	0.6254209860270123	0.7174115758902785	-1.3546527589928554	-0.562727390299068	-1.5079534015730327	2.3991279541478625	3.099572412294571	3.1398494164348247	2.6774518422238485	3.844463815519492	7.438021641071875	5.423017488139251	8.01266668204047	10.04697320308842	9.812372182867744	8.065298060081416
104	-5.593198762123648	-4.432427395120231	-5.769777283406346	-1.8312877370375147	-2.9622435494973725	-5.110110269996161	-4.131490696966449	-2.745239250881437	-2.428846829957839	-2.4404344497100774	-5.2548279629596415	-2.9945075436328326	-1.310071941882816	0.784710524485166	0.08845642931777997	-2.825969212072877	-1.602905627018421	-0.10835642340244027	0.8379150011841812	1.8767765713037698	-0.5171990381534265	0.10745143118193921	1.0578210327143904	3.530202618269102	4.084710587679041	3.565471640167971	3.0713224333467304	4.2156557930369125	8.063247660306319	5.526947484367332	7.726354579491853	10.296638462773018	9.404315924742713	7.613867740481422
108	-3.2558932222178925	-3.7703146839317982	-5.66673944949901	-0.3989522149027004	-2.384860747991867	-4.651751029667811	-4.059755315067486	-0.4017461230148481	-0.5811891541112517	-1.4657146893688842	-4.710471141366481	-2.414694303138102	0.2522965961285305	2.124003643395341	1.067209360289259	-2.1897666399028894	-0.9874977444512354	1.615541573260322	0.9191763973870969	2.758353703210387	-0.0653201488991465	0.3930337717146706	4.350173939212179	4.277863968539031	4.457467544745732	3.0807228010598133	2.6973373821821873	4.055892934095792	7.533257465416388	4.52780388642606	6.065290912573575	9.305706954349587	7.90242956073676	6.148248656962516
112	-1.6495094257670297	-2.8902780936701564	-5.1232585777632575	0.7279323321083756	-1.414968963865291	-4.007465352430951	-3.493601074934998	1.5180897674379437	1.1169898481777965	-0.5389025197728248	-4.085793484862585	-1.757583971354458	2.0003139922183695	2.8052627969487642	1.9408234308832781	-1.6629205900169222	-0.4477247584483085	3.243392220891422	1.2492996422697107	3.223999492134842	0.01769736404719162	0.39924791354468453	7.151321869914619	4.595666873773033	4.247989643815873	2.0113885351896763	1.8581591797644705	3.489311686289212	6.109736427140317	2.890087358807357	3.6971146967051114	7.46505687736226	5.8321575971221415	4.080940236278647
116	-1.3217617239959414	-2.056027645642159	-4.24439238430347	1.272534963255969	-0.6463812573325828	-3.536820164333937	-2.607084029291159	2.4213504730126543	2.1425847953107082	-0.03951834132230677	-3.694310417384799	-1.3274182047708447	3.4380586060505713	2.680807345297652	2.4233272014469946	-1.4575796090518989	-0.13029545512681562	4.171616066890778	1.9315376232971644	3.089645377941583	-0.28635650800886137	0.19366601060608732	8.17057512127802	4.450014103144677	3.478876105108284	0.6954233032788624	0.8644033052554881	2.661144965128789	4.136471261071306	1.0748569938225019	1.3245834078724843	5.263699041428455	3.7175104524214393	1.885839219100408
120	-2.183444971293972	-1.5877836902585045	-3.336344472091066	1.1090708943022212	-0.6420275552752459	-3.554375877943178	-1.8016046240143129	2.006212944687607	2.098444456524447	-0.2773744456917562	-3.8116528891649537	-1.3618675435968324	4.09800623812765	1.8182834340918317	2.2292451802237476	-1.7593771174833537	-0.1834773118631956	3.9512288470645114	2.6992044380704177	2.236148113327047	-0.9810208057430703	-0.20858810789373766	6.691040975843562	3.8315732382357535	2.1991524640826836	-0.6104162319984284	-0.08485034831797332	1.6892702536848316	1.9661394308041025	-0.5856927618498202	-0.5654970393208534	3.132137290676098	1.9222756575689006	-0.03963263695366531
124	-3.621210089123925	-1.7184714035515967	-2.8325512337695162	0.2996466748301653	-1.5812730749261263	-4.167675007788179	-1.508774872785253	0.41533023014111975	0.9269792414149429	-1.300289269979109	-4.510796058710212	-1.8777391863144621	3.723718395368412	0.497455834086452	1.2554544178736784	-2.5871176654347083	-0.6507929547091397	2.511625760412905	3.0625581664010846	0.732120035230432	-1.982315535308855	-0.8029699901334928	2.9728617593094313	2.799969904506073	0.552332638299708	-1.749144072884861	-0.9272577739192751	0.652280090592531	-0.07192600500305471	-1.9129298877102943	-1.7989846422551805	1.3599333728787542	0.6038285478605503	-1.452237363963458
128	-4.8502750274270845	-2.4776546892553877	-3.1262338082538688	-0.9363408661090196	-3.126958123895351	-5.219363199407824	-1.9607078979580137	-1.7905653669926238	-1.0000154946828452	-2.8420998978384255	-5.599513039756632	-2.649195664392967	2.3490433633624486	-0.8833705760587357	-0.31870135584475523	-3.736608495814994	-1.4227477276167086	0.20940013176978503	2.5941588813135374	-1.1230388851421995	-3.0928683202857408	-1.5447130164246816	-1.8110607816747646	1.5143742523106059	-1.1919575899547687	-2.635739796659606	-1.6833118157802587	-0.39273181458500084	-1.695160027038797	-2.8402812409216307	-2.4546918807043543	0.08638008662111031	-0.23831418096455292	-2.2737085761838762
132	-5.309676156943477	-3.65497182876952	-4.3572244534155695	-2.293005222253321	-4.5953421476691165	-6.358715994993148	-3.0494701785343485	-3.83962391837595	-2.998634569226661	-4.445234287482917	-6.69570205905323	-3.331349364452921	0.2639453106415093	-1.9557175586914382	-2.0798938221871275	-4.849033343470258	-2.2769265117378854	-2.3242683351962397	1.1940095394506256	-2.8795351909415423	-4.053625573414261	-2.3285708368638436	-6.092617496366887	0.21779200379697558	-2.6852846077832964	-3.222003213377065	-2.3738880097535793	-1.381037231773226	-2.7037827900333458	-3.358530274494769	-2.716639273460359	-0.6621654612989266	-0.6715584976407205	-2.550182574509284
136	-4.907995211607527	-4.8602676268891605	-6.257704242165904	-3.4617953213074144	-5.3294343813808975	-7.199274044933932	-4.349505890355223	-5.061826693152733	-4.36348532528697	-5.682537541347552	-7.403222065354071	-3.6600367930511655	-2.0960397667416997	-2.5149979527872035	-3.5610575586056297	-5.574924931755967	-2.98996328552663	-4.453604210099725	-0.8062748292593652	-4.115563859085518	-4.654825675656142	-3.0231008453337127	-8.607829072200426	-0.8336015918666108	-3.6227769760218242	-3.488381138577328	-2.973479501846324	-2.229168886278628	-3.0313982887026563	-3.4927840144664803	-2.741847031346545	-0.9317726469356777	-0.7609892468312809	-2.3979484974400247
140	-3.9927687544150774	-5.660938248646958	-8.164625147232982	-4.200099934464126	-5.061912047003836	-7.477963905527915	-5.294661031706728	-5.1630811560928915	-4.686101901620878	-6.352223380263447	-7.493288498079556	-3.6061577705889305	-4.276598919561512	-2.5712740356376735	-4.455931175425881	-5.745605931080898	-3.454776278356386	-5.787066921881981	-2.7708988119738795	-4.624215591199734	-4.845291125462128	-3.5399093538555566	-8.914144493485159	-1.4722816906950775	-3.8826470277033622	-3.4674758823587464	-3.4280254754301507	-2.8523359226691496	-2.785976164459617	-3.3200516616921383	-2.614424460486005	-0.8274304249853713	-0.560746489539604	-1.9646029422749618
144	-3.08466886695256	-5.733612522908053	-9.232813811833429	-4.363607872436319	-4.044327248852776	-7.136977654557768	-5.427800164823954	-4.320625771104408	-4.02279662070279	-6.521846754774154	-6.987949353695014	-3.3792705450570293	-5.885806068818967	-2.2872996272512465	-4.737770545441844	-5.446254716474138	-3.7213003541452694	-6.270650847815589	-4.032665719341203	-4.498200882045234	-4.762583243743456	-3.8817505738482034	-7.47571466465835	-1.6853600697881488	-3.592380037774595	-3.2630731977094083	-3.707494726357249	-3.1954042830853338	-2.232877010430032	-2.986922494976446	-2.3769235550950363	-0.5076707588729786	-0.14320769869887537	-1.4023404085993234
148	-2.546861642129363	-4.967909323547323	-8.787348725067496	-3.9112534424260597	-2.871592275998828	-6.299924834558086	-4.607047546199134	-3.0542859954014623	-2.8154282498802523	-6.40644119552573	-6.106786712487119	-3.2711386598014713	-6.628602011157455	-1.8439879370863212	-4.6208701017062275	-4.947061049369002	-3.927579869844556	-6.108527168110166	-4.180968274051003	-4.063396920435489	-4.6552762867695066	-4.125607003286236	-5.312689767775713	-1.6109912354803677	-3.0760555189671046	-3.0330085677818426	-3.841218461828955	-3.2560799039648574	-1.708043690183759	-2.689325325851708	-2.0855209774768753	-0.17097061829316368	0.37173661495768023	-0.8479489662696266
152	-2.3879089295179847	-3.49271248889293	-6.671318514192917	-2.9125950262920344	-2.1253883784992667	-5.183176027563152	-3.079724304053057	-1.9588146160261481	-1.6287661749725386	-6.18128441203658	-5.129471289081801	-3.4451916130821227	-6.341564162455886	-1.3385972942888238	-4.399614322998487	-4.543211448643019	-4.17573450941578	-5.587686524588737	-3.235758296426443	-3.701477041435919	-4.745578277050549	-4.357169617142515	-3.4479148300857454	-1.47035216913928	-2.7058412960401115	-2.939254991739861	-3.9135606190102004	-3.0965666692754263	-1.493194099471014	-2.6135029726801036	-1.841548318981824	-0.016352219465812813	0.8179631808610195	-0.41236635938482413
156	-2.3194532335848614	-1.6258475739438356	-3.405326357826938	-1.5563617905423048	-2.054647917328382	-4.006797780411151	-1.394032951650083	-1.4346929752366961	-0.8582578875807267	-5.863639816738702	-4.2618169676945366	-3.804964532782304	-5.047609316479645	-0.776829002326415	-4.2701935660315415	-4.398739803652551	-4.437581527950236	-4.913199412339016	-1.6325976807383167	-3.659629574119088	-5.109982477638085	-4.600936401195032	-2.4533696112679952	-1.4687335454098462	-2.7313151290599027	-3.0838732641561073	-4.016559113852083	-2.826935284152958	-1.7073783831404559	-2.860599272181368	-1.7665828421813476	-0.18047991349429846	1.0284885142108722	-0.17052523748736526
160	-1.9847476432281297	0.22561749758977914	-0.03869399046069291	-0.13932180369487712	-2.470614188632294	-2.9421422407254916	-0.17767466559851083	-1.5435394009720171	-0.5676873311968847	-5.333025918847415	-3.572102776091781	-4.0284151929237115	-3.0062544269955085	-0.15264560243691067	-4.231848229214292	-4.475779522085974	-4.551300514174354	-4.159169186581627	-0.04321485001858998	-3.9413998027472865	-5.638948426314782	-4.78807877285389	-2.3184668959256087	-1.7151608423798401	-3.168659917460718	-3.45803474506874	-4.18415497677123	-2.563078158583171	-2.2636368217537384	-3.390825024626856	-1.931103105437849	-0.6780830604599409	0.9070920325265547	-0.14711534939816173
164	-1.213854309832041	1.686985130819202	2.266136640549307	0.9889257525271588	-2.8966071532550073	-2.0989453739578745	0.13939315045449313	-2.0450668283327964	-0.5452575073780873	-4.467318523572179	-3.0195178909360205	-3.7609825039321665	-0.710655508631335	0.4528201509010353	-4.113701809987436	-4.58330773150077	-4.32242106300051	-3.3455603038243904	0.898124513742738	-4.328178394834119	-6.097157939775833	-4.7918076394216245	-2.6477525167373086	-2.189315075115211	-3.800735940874035	-3.933258046710103	-4.358026493513642	-2.3840846955188506	-2.9088127539627164	-4.022727479315025	-2.2897992076282367	-1.37255584847097	0.48954903955838003	-0.30790299099431767
168	-0.15304800829393456	2.520092242554005	2.7411177089149144	1.5305227002602524	-2.8702187465680917	-1.5331211051380305	-0.4676636147612642	-2.569562905499782	-0.5182697163848236	-3.301968327768678	-2.53788399055596	-2.8523082661140435	1.2149879901728067	0.8445398190156607	-3.7099640275747694	-4.5079884415298	-3.6696927454804	-2.5416293080056103	0.8483154156247805	-4.516031730694063	-6.247214778386234	-4.512951839497005	-3.0024192257417637	-2.766154520680316	-4.287363041543613	-4.304093350034088	-4.411940563506917	-2.306346649069002	-3.330366841490924	-4.495458591555331	-2.6725332669494017	-2.0065410086516224	-0.04685628029794949	-0.5653645978004969
172	0.8315360525117793	2.6761617592955873	1.3678876127039474	1.3620097602789072	-2.197349304373491	-1.243105527600291	-1.5737671812378016	-2.814189903783525	-0.3692901721213734	-2.0727362580419904	-2.1000094360737185	-1.4831700287565763	2.215769046911214	0.8006775358965744	-2.9130043909913184	-4.134819020322304	-2.7114236286371014	-1.912290329873469	-0.11124845566080174	-4.270069588370722	-5.956742748479957	-3.952157249009189	-3.160219661363253	-3.268769732805499	-4.314584244325228	-4.356194961993609	-4.2160119903931905	-2.2841687144783895	-3.2728869832376093	-4.56081627647943	-2.838938229068942	-2.2852837981700325	-0.4349675167545958	-0.7964527586855612
176	1.4018840754400752	2.291520112927847	-1.1056685419777423	0.6131342633979687	-1.0168658469275946	-1.1521294087885405	-2.4634540018827935	-2.661673062280166	-0.2091268295730187	-1.1013857098428645	-1.7225495533368325	-0.10243215386039842	2.0306286760560166	0.2344527834694955	-1.7678474143217096	-3.490237942466683	-1.7311439470452974	-1.662174697494086	-1.5108078680041193	-3.518073311506513	-5.2349099980746265	-3.2206716456161444	-3.1596398273803423	-3.5269248396518895	-3.714666595617096	-3.9341354270789815	-3.704711666290423	-2.2403318825425584	-2.620035164893836	-4.066661824449462	-2.57466720884688	-1.987968439805081	-0.41796299709652407	-0.8766754843512434
180	1.472467061139861	1.6294875103817892	-3.506821861949959	-0.3563142409865319	0.3324379018496551	-1.107912180010713	-2.453700059417796	-2.1793644373229513	-0.2667533450544331	-0.5950953349347541	-1.4184260332535352	0.8023052791366359	0.8308366516117507	-0.6870710236368639	-0.4283001412068541	-2.6920227936488526	-1.0308035586081035	-1.8980088186027637	-2.6759991578250504	-2.3466262758136196	-4.187999714768114	-2.4766714510376553	-3.157496682778209	-3.422421446742517	-2.5086855825028476	-2.9824170990985386	-2.9058034346648944	-2.1089987701574677	-1.4154117071655647	-2.9962909146000096	-1.7790030196097064	-1.060309407418191	0.143798172110852	-0.719909010500062
184	1.2612577644929375	0.9829772685982381	-4.784661280949677	-1.096081730936273	1.5281861981909561	-0.9288933849724271	-1.2425135342698763	-1.5354509314871285	-0.6881395561010546	-0.49060743923298444	-1.1465238303801468	0.9689718460414353	-0.8254570940157747	-1.5624821146616792	0.9439050531397876	-1.8521999073948727	-0.7585508804243206	-2.5160145696059257	-3.0082430763587737	-0.923152802043958	-2.9358844682956122	-1.8289154721814436	-3.229393474054817	-2.915261499673974	-0.8686616994860697	-1.5517551859778247	-1.9177268695097065	-1.8666447353918503	0.17344339148123358	-1.4552130662417118	-0.5027568327608124	0.3546373239146549	1.2080327241915267	-0.30851712745021037
188	1.1346946926078887	0.5732037410569195	-4.499789226615198	-1.2715147701585692	2.41055201875525	-0.4995960878633207	0.871459660714052	-0.9071887112601363	-1.3835318053600674	-0.4681578862768162	-0.8132903555363609	0.4976633476567136	-2.225659126384535	-1.9334719132245317	2.2551369610116487	-1.0079483960452629	-0.8227246382922353	-3.198129645856163	-2.2488982620680495	0.5903611764307765	-1.5525333842180473	-1.2742761341347517	-3.2803230202824336	-2.0600078053916318	0.961401042895114	0.22116902414748874	-0.856092450841504	-1.5366066655464055	1.9191311549370693	0.3759667267843873	1.0758843394772566	1.960120196162012	2.556408637268223	0.2967406503814781
192	1.3450951542272522	0.4816242146253091	-2.997254125657148	-0.8290461876918632	2.9808990880092314	0.13186103072253333	3.0344138068835194	-0.43194502483031155	-2.03413676702006	-0.13783299888143627	-0.33505582724854777	-0.22304895463895819	-2.8118021417198515	-1.530152197789264	3.484495392584941	-0.12624902991368134	-0.9498846506932025	-3.5447261243969845	-0.6041492208486322	2.0799963421758823	-0.06692397577555224	-0.7125952821860078	-3.121514550911048	-1.0049924825090246	2.7415883471888725	2.1477928107394537	0.19643251548286875	-1.1638562649906226	3.597679605937484	2.294973367618835	2.7198052337642555	3.4080033216263317	3.8714902303224727	0.9756404136820694
196	1.8228301955931085	0.6283702238430526	-1.1848393648750843	-0.03689757725221382	3.2793512261564692	0.7205399852680612	4.173328389121562	-0.21723255460252625	-2.275895112967296	0.6951599699589096	0.2741519801847554	-0.749061046139656	-2.4241666732618916	-0.44918995982247784	4.612556922711103	0.8218261578791595	-0.8556101300571993	-3.2725694096910476	1.321486708165642	3.457126131866078	1.4798926077672314	-0.03419312453577721	-2.6227271490636754	0.029886869638206963	4.2758936774063105	4.019139279708606	1.2027844160230148	-0.7760723809675465	5.028879152952714	4.111018647305002	4.203292359230236	4.415672291097593	4.848186003842271	1.5866062601085842
200	2.189615244105542	0.8211668709049634	-0.03566372385557543	0.6444211585940929	3.262994757997082	0.908912716001267	3.494660368679272	-0.34845018298865604	-1.9290202807360763	1.8633192730589379	0.8628922083049576	-0.8310894945142495	-1.344781514587236	0.8633429982322558	5.549639687831768	1.7818046763256554	-0.42137476695485354	-2.355135196461692	2.7703041960391017	4.615712631016123	2.977094404333535	0.7811100463219541	-1.8159604026722207	0.80806809459755	5.425558076511743	5.636696801259431	2.1475262587686914	-0.3561048200676423	6.096899017199583	5.658505425471948	5.3570151193788895	4.853940474652937	5.296483026483623	2.0115160891291737
204	1.999458665568002	0.8453709461803103	-0.08732014872439256	0.8044682124807844	2.792785637480144	0.40857308999857295	0.9242831445246247	-0.857710895757004	-1.1297208042232296	2.887329094272695	1.1939249008552584	-0.5274142609631762	-0.12246655641868787	1.8319194270612493	6.127240165499444	2.5957012110978517	0.23746746718533387	-1.0341807577725506	3.156345121044056	5.417062268885489	4.237218369276417	1.6249822337131712	-0.8741230942591158	1.1548815936494508	6.111572727031921	6.841568929565078	3.0013995094815207	0.1570721115676568	6.755704862704227	6.800788385387033	6.080896362210689	4.771834361426397	5.194969640967215	2.1902239267364516
208	1.0528684827925072	0.5558270201954876	-1.2019741504839838	0.3054749063885553	1.752607579574725	-0.8160856941599797	-2.759915106480981	-1.6657963949107846	-0.2777840190072962	3.220310679888296	1.066733119178706	-0.12162438749362145	0.7264840584532797	2.0514287896814802	6.167089923547026	3.0627708357731063	0.8529753067415554	0.31492313663127186	2.329752677757466	5.724422440381207	5.054893480889964	2.3112502039730036	0.0223464182945157	1.0287275288358182	6.318175299905074	7.538436393778557	3.7042906190807927	0.8330196717211378	7.021495801364224	7.436386089623367	6.334808810452678	4.348960388647616	4.671456325180804	2.128066534391553
212	-0.41929495228763447	-0.05438748733378846	-2.707459681350967	-0.6302310808482421	0.22034713570275594	-2.466394895048586	-6.200416072449702	-2.5344736512091015	0.18579684150993486	2.5621859962624254	0.45124348884141735	0.09928885822262067	0.9836002563438575	1.506364937793779	5.602016911668034	3.0581667346037005	1.19060671028899	1.3809003795091672	0.6562387330652939	5.483964429361108	5.3112263545408815	2.6951155594491496	0.8263265469669182	0.5594003186407506	6.109442695451605	7.719978313028459	4.188798417006088	1.6978764491129323	6.967218381457316	7.52522466666958	6.135057910688446	3.8159901999450185	3.9379773040529242	1.8827098560483113
216	-1.8193435623011303	-0.849449751616637	-3.834776153419317	-1.5278575381804944	-1.4485520087863002	-3.9977760214007265	-8.04432676191659	-3.0986323278395473	0.02518543780941875	1.0636569234696147	-0.45420035605196957	0.055905803896899205	0.8088641146265156	0.5748758301525819	4.5688152197880925	2.6332366400039384	1.2174605100411369	2.05201672989606	-1.1456469268484253	4.798037516877819	5.0591044298234245	2.7828793455434853	1.6570310550815355	0.01624891344080699	5.638999924727737	7.479276638221134	4.431555736797237	2.699573986867092	6.714787466262123	7.123384457723191	5.5670385220163565	3.377561083849187	3.215595952498466	1.544430251990581
220	-2.4854292806816813	-1.6117578704195332	-4.1777219666861525	-1.9130512427667505	-2.7174022129115576	-4.858394610536467	-7.572323303177864	-3.0100626869498828	-0.6586970670282034	-0.7176466566086791	-1.291280981618369	-0.06562864763856385	0.6033002122905952	-0.18326792074662832	3.3949134264109673	2.024747604980167	1.1388024062968585	2.4255051551615887	-2.323833221290478	3.9287321468344447	4.528857696543028	2.754614346225199	2.6892254284673163	-0.29222494290005085	5.126156317166342	6.996301156499856	4.493750084021803	3.7105314637915985	6.414757235543797	6.398906214770829	4.797444331454512	3.1603867927867815	2.673888676568172	1.2148696153485816
224	-2.079375023360312	-2.135637039514651	-3.917140473966372	-1.5780758817884464	-3.1128742616262217	-4.762918460264826	-5.057404505358723	-2.141724581079482	-1.4911450109980993	-2.086329693295146	-1.7112613873191898	0.047196421653082084	0.7377636414020964	-0.33538743768891843	2.475533717581055	1.5559976061636467	1.2689613071828383	2.6926398209300095	-2.4140422283259055	3.216036311612955	4.041236867238264	2.872277014156279	3.9755382437469104	-0.14093601668060876	4.797985541627706	6.496769411850408	4.514479625748031	4.56921290197703	6.218678935562773	5.6095833636752985	4.062489022488562	3.2059235491873155	2.4076931415804608	0.9922237371188993
228	-0.8206449130319832	-2.318736547337892	-3.6838140394663537	-0.7125560027252	-2.4902400907586464	-3.85531734446853	-1.6590168434218588	-0.7369343023767855	-2.0446505494947362	-2.5629205639027828	-1.5590525826192516	0.5874142631958766	1.3122434582957905	0.19315057944169348	2.0944883770514027	1.4761667214317287	1.8121344997430375	2.980746500118992	-1.4188567364155948	2.9388916418262276	3.8661816022536004	3.3204312240691096	5.330824838530707	0.5171543346699577	4.812294471034939	6.190822585688035	4.651491153417247	5.143781649000505	6.2461304506912185	5.037343966163765	3.617474546835993	3.4914526851241385	2.44515990593594	0.9631501411916317
232	0.5871916398482027	-2.2105567399480557	-4.13308762460524	0.18120542122867278	-1.1501588792372412	-2.655429833383575	1.114282366800355	0.6124170407091972	-2.0802905507017506	-2.1144025272391613	-0.9622279381299952	1.4435173236641239	2.0836174435461343	1.0989887686639188	2.2973954619578127	1.8311833097001318	2.697079651698829	3.2488236345282218	0.23684589505002424	3.195699922122673	4.104472626813717	4.080350865552597	6.358949168362921	1.5336303672217055	5.200104223473782	6.213572486448468	5.000720011483282	5.384949193710218	6.556310160296273	4.9001345510743946	3.658007612529555	3.960464944377008	2.768714420957666	1.1926362484384678
236	1.307520743883581	-1.9950131127532982	-5.496059403848394	0.5455781803661693	0.2793488793472784	-1.8085257961388674	2.112621302039191	1.195115801654864	-1.6682054954372338	-1.1425770492316643	-0.27168950369904443	2.206233495864122	2.594225400096939	1.8912385654383994	2.883837454190568	2.4395489631095297	3.5762853532144	3.3032808220433183	1.936864490387292	3.8655419252074856	4.653331268006107	4.917723166447468	6.631781084483169	2.6287791662603093	5.854534611225801	6.5869459939591595	5.540592656452022	5.342340455872239	7.129133206487974	5.274378763233766	4.242769230621045	4.540246475200798	3.328017941655546	1.7052627758841394
240	0.8167201856020118	-1.9047499847005511	-7.375416737055132	0.06912833434771505	1.1462367744116333	-1.7658357575656192	1.0594723197890787	0.5290762172692525	-1.124652144453617	-0.24651873049484857	0.11844333231347383	2.3769462048599936	2.435999625731406	2.1764969770793363	3.5230877310495163	2.9899587555736384	4.00055312100309	2.923398248921009	3.164864055272426	4.672646033887517	5.273782716787518	5.49830673736933	5.918074592907419	3.508914938650607	6.576564295376972	7.219924908529254	6.137648090125266	5.138395773312198	7.866130332160194	6.067575439392758	5.261994348592183	5.147829042789114	4.046197404182527	2.467393630473921
244	-0.8077278712860311	-2.1033463424983987	-8.924227692007065	-1.1371257276435598	1.0866657468062983	-2.563410275663021	-1.3782048190606506	-1.359858867072973	-0.8222923258047709	0.09757682656447898	-0.025441737781305835	1.6643972354828596	1.491609688807595	1.8641071272515897	3.925856580359161	3.2074770846448186	3.674930086394301	2.0112500139955682	3.6998999025391437	5.32058619109562	5.720633969168849	5.570651040317783	4.322095860059437	3.982501019913413	7.159421425863408	7.948640803295869	6.613810999384496	4.910226809502283	8.617269494234696	7.058159810365894	6.4747662380778355	5.69917677394104	4.826413619253686	3.3806331072331544
248	-2.9283096716381007	-2.5978140765405153	-9.318192458468454	-2.5882525378683665	0.17808011129241058	-3.823269119146612	-3.981791724642377	-3.8920738598786584	-0.9831195448849577	-0.24252609847348827	-0.6648389084242874	0.18381358636700815	0.009273200272452955	1.1841537922526086	3.9714295763836267	2.9916782303617775	2.638650410665929	0.676923511703408	3.6422388461661694	5.622059331051026	5.860439285740923	5.1054215302313875	2.2586169185834293	4.020534028392828	7.469081859804491	8.59796998714231	6.837698919198872	4.7531318544545735	9.22539136464758	7.985991934640776	7.602064113497063	6.126433357029801	5.567536340008264	4.297925461408303
252	-4.685894954294741	-3.2288501181144165	-8.255405405182495	-3.673891296647778	-1.1365087003624028	-4.968698489042156	-5.611153588433297	-6.166980251000917	-1.5717881878269655	-1.0359059546065736	-1.5232387742685107	-1.5549894532044612	-1.5205123386140782	0.5195671306843739	3.7357470894908746	2.4571425852727518	1.2713594404546769	-0.7949867228463671	3.278388968773645	5.567224488507586	5.722071633197201	4.318778503958193	0.2744755439981017	3.74586533554382	7.491168003242381	9.044411636405778	6.793717844023049	4.692562568261061	9.5805053469053	8.657410599785205	8.436559655823757	6.405309660952171	6.192411883932313	5.064385401337191
256	-5.432813153855487	-3.7456641102635664	-6.1878781162435645	-3.972836007578196	-2.3187391699422553	-5.536577210752932	-5.735887512984096	-7.374646645046578	-2.3421056211466884	-1.8750317049370204	-2.2489805164776318	-2.8869590686388635	-2.6125564509234604	0.16033928055812627	3.4023296747137763	1.8512884331692687	0.10590613606655512	-2.0639665074690394	2.8764929698798873	5.29180525397346	5.452087388578553	3.5556614309184478	-1.1655793160574393	3.3572475825424415	7.315906506187315	9.247189498442642	6.580047590808852	4.688348758304659	9.654366468850165	9.00781724562903	8.90634534494528	6.5675577951555715	6.6673455070008	5.561682687068941
260	-5.032136904409334	-3.9384469886525686	-4.142967213661107	-3.467912426775979	-3.010996572521866	-5.408810125046459	-4.596149432975916	-7.180720787992249	-2.997622005523773	-2.423647159179341	-2.6076521807637234	-3.3245546733842604	-3.0190009994578335	0.13722868229074556	3.130561105453637	1.4050638640215245	-0.4430592644949388	-2.868707649617561	2.5527620251100713	4.97616337473498	5.209395872315069	3.1041302602597485	-1.8191150380936385	3.0344068927447427	7.073317509912586	9.236021018551405	6.3398117859039145	4.66534708752533	9.496973967416489	9.092186904839846	9.063088394171125	6.678960306470986	6.9977207007162425	5.737745747384922
264	-3.8673972985853697	-3.7561561966475985	-3.2074997344097764	-2.5445208485256536	-3.176406375494749	-4.841402041609642	-2.9533545896351714	-5.877911076010531	-3.355024090879354	-2.586506121780857	-2.596149914862588	-2.7950503755573117	-2.8194456029279706	0.2327239805544725	2.9610309526071235	1.204710599718713	-0.2781102352273283	-3.1166207711687646	2.256822580361641	4.735755431616365	5.0636229387231495	3.050379506992746	-1.6916800694670164	2.8653030323165867	6.853130323273681	9.065230346680364	6.168356879873174	4.549629676776228	9.194033599528996	9.012128807202616	9.007566429284449	6.786730272324382	7.197723370499371	5.607406602053596
268	-2.5707361633245784	-3.339162579688932	-3.943368663368536	-1.7688863232775216	-3.033648244827957	-4.283070553456306	-1.6143110949766855	-4.209417332511891	-3.4088444623712784	-2.5066997941625244	-2.4143576561052607	-1.6545802313038487	-2.3290631712284453	0.1587719168230698	2.8173017430701024	1.160699364592709	0.36071315316681674	-2.8838391231206173	1.8655296517002078	4.56978176870533	4.9581704014527705	3.2545704759443765	-0.9610808467441889	2.827877752793767	6.65703247296922	8.765290238184711	6.05498360058788	4.2963318716296115	8.810823418306567	8.82766530669178	8.803325630849912	6.871387941178025	7.256371002950177	5.230028139261268
272	-1.6510709482469128	-2.9446322843593413	-6.070196613244783	-1.5787841041758797	-2.844696991414022	-4.095914830357051	-1.0181155179068004	-2.9694182797801614	-3.2865605271331404	-2.412440532315545	-2.317607635368696	-0.47869148729582994	-1.888330216408572	-0.2267991447683067	2.5936543876014326	1.0880340310283076	1.056848761751269	-2.332576268982637	1.3123220172174062	4.3907151111374105	4.75718449345191	3.456149569368544	0.13477320935077802	2.8276085782186406	6.407352908169913	8.321514108628868	5.897130474460542	3.9062068363749582	8.353752115139272	8.507694222904902	8.434805848760314	6.8360013789199545	7.124366265429452	4.679376113521404
276	-1.2498266665374842	-2.796444408985799	-8.585461594839906	-2.051136726922818	-2.718440764239502	-4.346501339428971	-1.1041883202331275	-2.6006271773482323	-3.1308629433740176	-2.4370305476648384	-2.4444880423817277	0.24586211082849949	-1.6635285573920962	-0.7997491935565415	2.2604412975461083	0.843074021595045	1.458075996532335	-1.6190330941331597	0.664286134950036	4.10669039643092	4.343754757404655	3.440052739041142	1.3637081350228493	2.7622985770102417	6.004442676643218	7.694544772748435	5.5801901676435515	3.429049244806228	7.772869567319971	7.9522080220673805	7.83993385242897	6.546437723797761	6.7367596456194905	4.025969495145462
280	-1.1536729306657472	-2.9389102384753505	-10.272855732730525	-2.8743216918854912	-2.560951226444376	-4.785861956911001	-1.4972528181421023	-3.0055766029768343	-2.994258634636879	-2.531332009600212	-2.7261214187458673	0.3523124745533829	-1.5788173635675802	-1.2223083942070587	1.9115281056780058	0.4298124004479548	1.45517837633854	-0.8527851083205574	0.0912940127332766	3.7000317480130542	3.7082807924105623	3.1630549350987707	2.5048630174337636	2.5800335342117493	5.400439725592495	6.871138078507757	5.072530256815895	2.9524533674084426	7.009973985139652	7.076129895464567	6.993929368480941	5.915951713884459	6.06513450998608	3.3362781917262434
284	-1.0205224726660431	-3.191912643003207	-10.326012585318484	-3.5379564672790664	-2.193145507997386	-5.017761217800121	-1.8367701722501133	-3.670849075586123	-2.8180921006578283	-2.516243689859864	-2.926680557491213	0.033481296067344304	-1.4062763417024842	-1.1503231496378274	1.720108027883707	0.01223245725672559	1.2041290968057525	-0.09900707726515644	-0.24170444844733396	3.253400079142522	2.9756193085883575	2.7679352690431296	3.3504726802157965	2.3052329958888307	4.647996413893599	5.914016231864198	4.4759068376068925	2.586301797059083	6.065456375067054	5.904672130935642	5.98817203917209	4.982853400047678	5.168157564466305	2.685025446788467
288	-0.6532717926698001	-3.243703357136364	-8.752509095028504	-3.622780075463345	-1.531088467547032	-4.741671550223255	-2.0098805376806665	-4.014320840237128	-2.4947144922213487	-2.229067796801344	-2.7863130499110365	-0.31199693601037914	-0.94099193573839	-0.4581363785620974	1.8309928132559106	-0.17287349657281373	0.9974464748948673	0.5984516724735823	-0.2627535157722343	2.908332817364197	2.3563418328874786	2.4870476659925367	3.738312711814109	2.027355188973217	3.8946649929897923	4.976023184610821	3.9968140024364804	2.4405088363065692	5.041072832731499	4.618518340847907	5.044363009114794	3.9300160308796652	4.2019648445851505	2.1600964014829263
292	-0.14449588917966996	-2.8327550816541334	-6.339305384843181	-3.023993484491615	-0.6970027071521331	-3.9207773109628055	-2.1406388228729942	-3.734168043245472	-1.9684035728348241	-1.6574645000572477	-2.1751303617873763	-0.31601542154634554	-0.15397459229695099	0.6520678980576663	2.2583827915393426	0.05393450321051006	1.0817779275284778	1.1878446310570718	-0.0154473967460199	2.784321539524829	2.052929873051714	2.506456845631033	3.60845564884851	1.8612458658910158	3.324832192609634	4.263349045479975	3.8511114023252184	2.590515130178328	4.126274575306035	3.5131280333512738	4.440828788989401	3.0239612979835178	3.3738205347711068	1.84431230556237
296	0.20014791140091748	-1.921075577654023	-4.206158150543802	-1.9858596274782518	0.031254824172025665	-2.77950023903041	-2.3749151169897558	-2.9630725308948156	-1.305174824280434	-0.9601004099447539	-1.164656278530778	0.17868387654013856	0.7751516680220256	1.731082196633466	2.8629336284834572	0.7199358325901432	1.5315906962826413	1.6048834283363644	0.3926328112702789	2.9126145766154714	2.1728498880840275	2.870794527435168	3.0539407652997945	1.8964735221665154	3.0781016272077886	3.9581980605326335	4.151966084487997	3.0419418734996446	3.524364939374539	2.882324688309988	4.381257046128331	2.4935908254608803	2.8535251545387057	1.7772406294774372
300	0.10117793057645946	-0.7483690958202054	-3.192568770931238	-0.930253324544189	0.41261368885769517	-1.6435208279122764	-2.6461288862177264	-2.133566135741803	-0.6713402850367487	-0.3616503765988987	0.02281548263332681	1.0796017619532225	1.5668525656241556	2.3229725302220943	3.4281942757837283	1.6962357716649872	2.242682928145143	1.812589044762947	0.8868064261934936	3.228590241863852	2.6965455940829903	3.4810373695223826	2.3197486342036227	2.1630358641372482	3.190536967805264	4.1425170793849	4.845550048038379	3.7130103017522593	3.358843079669761	2.887665979724115	4.88016413410211	2.419167989345069	2.6941778591799106	1.9222305964575643
304	-0.4517304289856805	0.2724526219641771	-3.4162721547658554	-0.1898938412640334	0.4496611047359154	-0.7250844221881977	-2.6084816389983234	-1.6600660043765463	-0.23778358041810205	0.01727040852716286	1.1549564570830997	2.1487953608620445	2.0162126967070377	2.2290761414515914	3.8007290267352585	2.786462061522599	3.033100358934565	1.8380856467569848	1.488320346889325	3.630763759982983	3.515038958257948	4.176559437697389	1.718780274820043	2.628684990921802	3.5930721669079793	4.765947329886085	5.733767971821235	4.4494433290677495	3.6145422367390263	3.4864342124653	5.7376532409764645	2.69666480337224	2.8095266748066514	2.1679723208050827
308	-1.128091332448474	0.7722017149502499	-4.244489182246341	0.1918809707088607	0.4565729487335861	-0.0009397653024199931	-1.825547571341558	-1.637812729515128	-0.06326025708439331	0.2715831392107113	2.123672003152648	3.158723823201747	2.121893400557041	1.6473410087955758	4.004028787040458	3.8438842199551595	3.7679188156364556	1.7787184670362672	2.2913725318277556	4.062870015377005	4.502738464431239	4.837563502495799	1.4957549534226784	3.2209098257760655	4.1610560312118725	5.67139385698848	6.569221479996341	5.073103891915765	4.144969929720504	4.453163612566657	6.621555311651321	3.098041049764868	3.02085279655704	2.3707370698201284
312	-1.4130995237912753	0.6325560196164811	-4.698160159647075	0.4655859458612516	0.920663414061199	0.7380332332097348	-0.09935372297713371	-1.7607245400797444	-0.042848721038400935	0.6860024315680286	2.985300056549756	3.9981281656411705	2.08419179390174	1.0944894524597633	4.255215634093039	4.8408026573032945	4.423665035523214	1.7636799767788256	3.3634400282818118	4.566081512367016	5.577068314776678	5.440309510800672	1.7210994915423978	3.8595914743252924	4.786784636809794	6.664864523272932	7.16949556447933	5.4483399253616955	4.747680175238601	5.4850959639346675	7.219655972372707	3.4008078489272133	3.154109470033465	2.421674960697992
316	-0.9006184316784885	0.05819533005565041	-4.054467190996364	0.9885026191549666	2.212154144424003	1.6970878796645448	2.2842221202399737	-1.5157660207625971	0.05582278952809787	1.5663124283345649	3.8801333806302405	4.673542010905519	2.1791698877628956	1.15371536917272	4.857383238926472	5.845800861858203	5.057531344042484	1.892293925276128	4.637112128947935	5.258695589140062	6.707849485627785	6.034356578850407	2.2816777171702256	4.484912384153979	5.42980764925492	7.591321926024184	7.491443138281969	5.542045102432242	5.265662180003821	6.334882243374857	7.38487194104127	3.5125362784394376	3.1323575894426314	2.307161563770314
320	0.43550646195129417	-0.5363373146821028	-2.3062779845183945	1.9571224401652472	4.309471119490725	2.8742041515262913	4.585460651264621	-0.5378407226334767	0.4708571422132996	3.023147813793677	4.8829617377022245	5.233309732575737	2.584533446462351	2.1667559092175774	6.019366249145823	6.921864492106492	5.717143521179614	2.1978330556692667	5.881422027997517	6.246881469213492	7.871201972162037	6.6662106345671415	2.9841546936986436	5.070844637465902	6.113553985419252	8.37122724326898	7.626620273408209	5.447672830179053	5.653429970772848	6.896021348708604	7.192800026853353	3.5148448855350494	3.0105659885690956	2.124642843604298
324	2.166838640464317	-0.7659732084008813	-0.22206814531049424	3.222498647183187	6.705189687966043	3.9722859759175972	5.925416454613736	1.0890407534760222	1.298617121278802	4.836051451870954	5.87642239040638	5.671655640587673	3.2646558202334885	4.028023232780658	7.695557574869901	8.006199816517245	6.354395850350736	2.650370114310656	6.78075884060728	7.51042411815348	8.977006889566681	7.300945740386464	3.69528745671949	5.612463460103574	6.864222986056954	8.976296402202752	7.719843368113029	5.349862562023901	5.9633302538039015	7.19450090499237	6.875813466832135	3.5944046883432135	2.9279429838643685	2.0305726476900694
328	3.589040508745551	-0.5092128502387142	1.0465481254857718	4.314650524690051	8.572001435572131	4.499871242606202	5.730556950406002	2.7874216963010596	2.4013695656229155	6.487808687996078	6.539153082550284	5.888270840083496	3.9854814905632368	6.189281447996613	9.53859422182801	8.857759453344315	6.810936910599447	3.193250409647168	7.087165814626157	8.83763501797032	9.828312849026227	7.802441577285592	4.430900085706363	6.097183212145155	7.634316901959333	9.37120053786343	7.866169909644225	5.445193276962658	6.264182551780895	7.305876713426993	6.677625639268546	3.900739659951384	3.0080096645704226	2.1497478430831505
332	4.046693791662963	0.004910413629084989	0.5964977130134888	4.673911082865036	9.121770835734392	4.014348496792235	4.047996510775885	3.7448873425348146	3.435533514885682	7.366660099503998	6.471731169573536	5.7262263153461355	4.447565544343486	7.884813765645737	11.003588648671245	9.119502998215703	6.885173303386872	3.771254768386822	6.755334837070396	9.860568021674283	10.153116200562135	7.986164549691609	5.313714967663261	6.479837401242523	8.264206865426388	9.468743300373506	8.045701006603062	5.851796135433155	6.546891195934068	7.258546334060407	6.710732443079002	4.417454708390456	3.2662780202415997	2.4920158323313117
336	3.2484047330857977	0.3189114324147357	-1.6914588170261688	3.9718873400543457	7.970222929858811	2.3746731221325783	1.5381531676558433	3.3540465747075054	3.990728845057435	7.040664178238436	5.400813089086426	5.059765802960182	4.457348812293639	8.467549302657138	11.565665215855654	8.476780870016643	6.440470202397823	4.330811012777912	5.977915748762194	10.188625309969554	9.708391165063864	7.715908507893471	6.420999510766074	6.678289873428246	8.51758001084381	9.14083955364279	8.134194353547606	6.545556528731627	6.683728678040978	6.991564256182226	6.898313981759457	4.929922091434979	3.582839718355933	2.9278294966210026
340	1.4004167282986992	0.004757158911883495	-5.016888128965655	2.330842489079788	5.327981935400678	-0.14114697241909743	-0.8611002542689545	1.5805773695140644	3.7682595157851315	5.463405595337086	3.349927655345346	3.8781895539597335	4.031173219039795	7.68853424038446	10.946157427807945	6.832206708824555	5.490160451379156	4.7926854966276595	5.093163954273566	9.581332182535537	8.408713319529317	6.987649899960419	7.623610000436073	6.597948057682602	8.182495096528687	8.289317110113966	7.980691412803572	7.356667500041922	6.476687891820543	6.396643622460867	7.030406934154225	5.1173581947825495	3.7581059837825683	3.2416386522465572
344	-0.8942468143773756	-1.0942043038398777	-8.025710085633026	0.29854246898616665	1.9117765378368023	-2.931384079207853	-2.4176940856927844	-0.9758187507787872	2.7220051219880714	2.9996633453928867	0.6730597002202433	2.31044673336346	3.371996871064163	5.794090256367422	9.233423209720074	4.396521080361033	4.203582753058849	5.021013724048013	4.4047622569454505	8.068447092666238	6.40556572250548	5.944674953710621	8.538456895251551	6.175385936404499	7.1836209115811185	6.93271158375391	7.500914554731445	8.029939631215608	5.769794926381154	5.412281022712257	6.893111211539439	4.71900604963961	3.616255751062703	3.233917705000426
348	-2.9028644488477298	-2.765289538077519	-9.48261830796787	-1.4033780062529537	-1.3685996497886366	-5.328793512241891	-2.9542710706509236	-3.3476524268507246	1.0871615382402884	0.2695063047757235	-2.0684857316244996	0.5888560399447084	2.7458536555582307	3.4028556260979466	6.850685579169746	1.6443583923785454	2.8388669419139707	4.844234454322218	4.019913186414415	5.958642467713442	4.071557988377531	4.820959079014772	8.667079903654836	5.420427308702432	5.648361668631104	5.255555616461222	6.736063463370272	8.328889825773333	4.564521301189314	4.1092553034984185	6.397543891013282	3.686200847855713	3.103269092354208	2.8255503106304536
352	-4.073873509611919	-4.537422645557048	-8.915293671033528	-2.2437655869101096	-3.7750263118801075	-6.885481340190293	-2.870752088928195	-4.679820525751728	-0.7135555726155596	-2.1062924808729186	-4.33165024617423	-1.0243880722885466	2.3253922403752867	1.2332701651907354	4.38232182349991	-0.8577987530031811	1.6383173424365223	4.129457463329005	3.79689120287715	3.7227401639408284	1.8781672668721583	3.838179340208821	7.663936595640655	4.431439388530929	3.87866519902384	3.5696208386896	5.8353180737987325	8.132354715795904	3.0613894385292797	2.6989955833956523	5.625719533068152	2.2326576653378125	2.3209078253322875	2.0988895840105055
356	-4.253455628146555	-5.928099140459014	-6.879742128168651	-2.156843895235035	-4.992085921081498	-7.541940670045344	-2.844320051641414	-4.661290156993581	-2.2399964276026094	-3.741632928938295	-5.808619007704031	-2.3133330286747764	2.0971124119263695	-0.19189457546899635	2.3396112859784255	-2.6744706563182894	0.7376834135504312	2.8905773089861735	3.4421827706214576	1.8038078500982277	0.21492971425628193	3.10709356477192	5.595129952609494	3.3733329687780746	2.2341442051747578	2.1904218141566063	4.970331179467721	7.481785755341264	1.5926457603298472	1.4464917146401959	4.767529475573008	0.7509770970457681	1.4754096232357032	1.2495387761039458
360	-3.722048034807444	-6.666177732803308	-4.681991088490388	-1.5607765873603823	-5.16249178536684	-7.594984512227096	-3.3955514345270323	-3.659267654716926	-3.2024457373827415	-4.589550006723047	-6.520951254593309	-3.1541049400804737	1.8933482122302534	-0.725525973395579	0.9799817179733243	-3.661796083741914	0.1350834664272118	1.371043678636836	2.708729021862899	0.4502350080566863	-0.7601496558070945	2.5884156161760603	3.0272257251603345	2.424725526409895	0.9864694451221665	1.293768641066434	4.237799633770799	6.560935003882009	0.47868671892425996	0.5377129898800456	3.997020234506883	-0.35838031678316495	0.7763633112379607	0.4810319530739937
364	-3.0412187499510552	-6.781238061950065	-3.702954044529724	-1.1156382532562823	-4.716622340691771	-7.489276390240565	-4.563207137984625	-2.4908711847359353	-3.5590317159441183	-4.877791392408882	-6.74675319875588	-3.517672053038898	1.517723914129236	-0.59885644761523	0.25821226770058525	-3.9868538279010806	-0.27011275223245956	0.019315114196052714	1.5716432293312377	-0.34968733699249055	-1.1649005383644508	2.132758612016425	0.8550704100001209	1.7144645409213322	0.2166454935564544	0.8307006338127166	3.6092755703399697	5.617776379706859	-0.1188825067856507	-0.021629972328769505	3.3656842623612286	-0.8610848166659967	0.3375605634272978	-0.10139668707281344
368	-2.7911229063136878	-6.522489531261789	-4.670129287372875	-1.3517221178259382	-4.109680165405305	-7.556639175409845	-5.879736408647524	-1.9601539323908697	-3.494650831936132	-4.929661261510101	-6.828355295107472	-3.4513811977985513	0.8831265546436413	-0.2592250400197293	-0.077231332464731	-3.9986765283717194	-0.6004559382537393	-0.6687558276458129	0.2730210118553202	-0.8017663935445821	-1.3050792184304556	1.576621051622442	-0.07762854526709194	1.2777528730557224	-0.1882869894519129	0.5598205909900007	2.9636289998570335	4.866925227275184	-0.2625637047814263	-0.4056119312536078	2.786131136535641	-0.776237724251736	0.13690815831427514	-0.5324321971802131
372	-3.305018178224845	-6.171369060193937	-7.258926850111692	-2.3711078107096952	-3.614904871396924	-7.848527888509567	-6.658460600254433	-2.413981670006967	-3.298881284014265	-4.9799623363647925	-6.970485669657075	-3.060950033089105	0.0813882497878387	-0.1341635730455545	-0.3104480795174787	-4.022522439337515	-0.9280096269065736	-0.3878706385833276	-0.7969848493481277	-1.155367013875276	-1.4984203539210148	0.8469552376344403	0.6100921615456029	1.0518034670023495	-0.44343536980252196	0.18798509192688778	2.187308067521401	4.414504516900101	-0.18865801346354177	-0.8592068531277999	2.1178753322535866	-0.3427895596909513	0.047719102232378435	-0.9407865977376572
376	-4.516581047098926	-5.878292068898974	-10.247244809028096	-3.7903153800635523	-3.266708127357213	-8.144890764653413	-6.401988490153672	-3.573211899318961	-3.2173628725837267	-5.079251753380956	-7.137588482955884	-2.480281823571875	-0.6586384756625372	-0.4367654312550614	-0.5988653883119238	-4.184512127801821	-1.2290607659780355	0.7752261738278068	-1.3151316609557349	-1.5505759676885655	-1.8989745330549765	0.02760173932199684	2.6002349787866	0.9186416245155222	-0.7287948113160979	-0.4516520190756764	1.2866828409134254	4.237267483503588	-0.1653652485010262	-1.5369739493665842	1.301629659227434	0.11664995521658031	-0.0748900247709619	-1.4407111369951835
380	-5.971829876127413	-5.625786290270132	-12.133738487126486	-4.950189101118918	-2.9511275216934063	-8.123613337033794	-5.1036376824270535	-4.721140849591496	-3.3427009498124445	-5.125183092528907	-7.105186921300629	-1.8440676881008295	-1.0940730544124138	-1.0888794633076673	-0.9145026183881243	-4.361566532567204	-1.3926552498942228	2.3137638510461254	-1.2084885805136178	-1.9491865585705983	-2.4157519279523263	-0.6529979689323933	4.964178072793803	0.772688267664323	-1.0855878564129018	-1.2846894231785901	0.4394988108505925	4.223336209124699	-0.33852547321680804	-2.383261197748713	0.4533307540892145	0.3600431373565882	-0.30046126170593157	-2.025729651105007
384	-7.020093900122647	-5.317372308657445	-11.90317818497422	-5.276657091169909	-2.556816333037457	-7.579804401334025	-3.276296130491575	-5.131238924422797	-3.591001739972288	-4.972992407640934	-6.623934729064747	-1.2564263312089319	-1.095600244616993	-1.7877187683746276	-1.0940206023251438	-4.2749485861611385	-1.2705937591898253	3.493263712646421	-0.697851417686947	-2.1734104101620804	-2.7653455664434667	-0.9068794823638223	6.5660681558771055	0.5807248935342684	-1.3977808917040968	-2.010985130954855	-0.05156575875376207	4.253742207277911	-0.649924157409087	-3.127120486947309	-0.1472092416146071	0.3320032647810503	-0.5754687771573105	-2.529730075171273
388	-7.115983945046563	-4.908242213254852	-9.545154547434004	-4.587435710768912	-2.0903203434620723	-6.566993219961684	-1.6968123869970884	-4.496206272217506	-3.7693192863665623	-4.552608478496003	-5.600270733999103	-0.7613354306072623	-0.7011098843993013	-2.1647567694368584	-0.9612495874931221	-3.67284702327395	-0.748840628163833	3.7021369840612057	-0.15698334535064917	-2.0231742807806476	-2.6307661466935253	-0.5134559856802718	6.6040744614757285	0.411542146358951	-1.4625651799469042	-2.248279089019686	0.10744450214200156	4.2782812010514055	-0.8660956003256784	-3.4004700098014795	-0.17958834721999914	0.17887766614097528	-0.7371097188459166	-2.6835949353174695
392	-6.08937691104792	-4.481177795540361	-6.054942115755221	-3.181859008385035	-1.6901065068489192	-5.386406408062008	-1.0196303103452977	-3.1103153150231853	-3.692146291947758	-3.923502435315056	-4.191335190681324	-0.3390827766440509	-0.07269265484338137	-1.9673758695522015	-0.4457838226030654	-2.5016453202983326	0.1823181803391751	2.79135298024194	0.12141334234816582	-1.4028664791927827	-1.8437346173466655	0.5630401358694149	5.021966921524854	0.4102395464553183	-1.1100641461002505	-1.7325798229343112	1.0429904434574004	4.345518578048396	-0.7053740602804115	-2.9232330248461085	0.5433611856093461	0.16572201210142856	-0.5858180508128217	-2.2433957996948566
396	-4.256306637508254	-4.202792157052544	-2.929055683370226	-1.672412629673438	-1.5318752488560807	-4.429730880997401	-1.456642385619817	-1.7062368349865997	-3.2846681988755893	-3.2344720281954373	-2.7542428900798965	0.0698571352387049	0.6072328671383016	-1.1778162688082212	0.3741844287008135	-0.9675080155740923	1.3927128279809304	1.1966736286467803	0.1086282652854133	-0.38416260383889006	-0.492276965328928	2.121561283477191	2.569807284542744	0.7234706860396231	-0.3043719522420938	-0.4693520653318762	2.6134943896112777	4.56671808997161	0.004180334963525993	-1.6589688020782911	1.9465895842042913	0.538356004786259	0.015773365234247775	-1.1282484502917052
400	-2.298053020397315	-4.18647478954003	-1.4193601572440968	-0.6532953961090716	-1.7008534626933676	-3.9711227316730975	-2.686405413520823	-1.0342082951183673	-2.626125567481609	-2.633749001529134	-1.6804195600044798	0.5112755881752482	1.2321953742388592	-0.023978767856019604	1.3164317574642932	0.5431442247029115	2.6258881025774232	-0.23844957291481841	0.06072438492940738	0.8209893682732704	1.1006659241543741	3.7653915787043597	0.4592958677139856	1.4096685612373767	0.8237175920670415	1.2436490027499807	4.421957481664	5.026042448705726	1.2166941135205498	0.14024525845405075	3.6815757658513992	1.3968696558970712	1.061364052000184	0.5025393950172208
404	-0.9518490409661055	-4.379460323720758	-1.948911542740299	-0.40620908038578235	-2.1005573219671105	-4.02852200444688	-4.03489874774743	-1.4339179956472832	-1.919493789594967	-2.1850604955818853	-1.2087190120697378	0.963033137274233	1.7900729134187328	1.1042561503187107	2.1956684533950686	1.638340111410769	3.562860718314822	-0.6862063986619351	0.33932086739700507	1.9573075721914521	2.513432496400775	5.023989187907688	-0.2275919610476237	2.3776719510129465	2.025078529967124	2.931934110868452	5.942941650644928	5.6876983498977545	2.6628160409454926	2.0207028337959207	5.245374189484974	2.6323027544319553	2.37326025363639	2.278815502135338
408	-0.6523819549301949	-4.558652866298125	-3.9728200335334365	-0.7902777175024213	-2.4686779913562984	-4.374886501710821	-4.817368972059724	-2.6346831255196954	-1.4049417937093327	-1.850199098684104	-1.3223688569060905	1.3123961653953196	2.2989191950930037	1.8089760496243639	2.9090971873268665	2.0927097744557956	3.9197890659549244	0.2043236339894043	1.146246072736195	2.828954927931428	3.4006757650347246	5.51171206036405	0.8993603564443907	3.3904421243897858	3.0266663951751744	4.134386052183749	6.709666712033108	6.351298793016026	3.943168630181175	3.4968032748628266	6.171793922100823	3.948114385173571	3.6404130366920193	3.742117395489806
412	-1.29981398254287	-4.461481559933351	-6.330212100259206	-1.3703395093652375	-2.4856953558152868	-4.683016288377936	-4.664074885990456	-3.9006271263823318	-1.2638498512783851	-1.5379172524724178	-1.784452433849183	1.3822284902006992	2.7082211902906947	1.8455352736607837	3.4574355991809704	1.9247063349767042	3.54051899016078	2.0630073495277355	2.3281755388606915	3.351593485953323	3.615395059994319	5.055462824455422	3.3025917923514547	4.136569012688492	3.6190748123348824	4.568383205323851	6.47396467481692	6.691979391368537	4.671799171096687	4.218053330262304	6.198700889195976	4.953389155279539	4.5089659577016485	4.503660667492875
416	-2.3101463259545505	-3.969517697802638	-7.87226627269646	-1.6969227747989337	-1.9354407738457815	-4.72481726407196	-3.689933052283546	-4.4389881975633845	-1.5446437558276274	-1.1905410259706133	-2.292143815929202	0.9954894755978978	2.840740435103821	1.2223474948539328	3.8937599560658076	1.3408812250615607	2.44297336915252	3.923521031964179	3.3843333635714683	3.536701193463266	3.222185603589617	3.7368922139234084	5.74425648192659	4.349199760900429	3.702792873570658	4.197001923455103	5.27125738720405	6.381002410036978	4.609315383717822	4.061793317076501	5.337657438153349	5.297714696860152	4.697978961527415	4.371838558603282
420	-2.9405386373665032	-3.2137107767982696	-8.017267206931198	-1.5610240658448649	-0.8406815507644461	-4.504142273021444	-2.4249186454584795	-3.834800233695746	-2.1413571780500136	-0.844445047630707	-2.6534779004813984	0.06241852029300043	2.4427084861118065	0.20141312429120914	4.242773522155458	0.5940930828353863	0.8123635629170883	4.694581973620953	3.711951723263721	3.434495440394895	2.4149966178956395	1.8467625332936106	6.882715684679698	3.9261388679561047	3.2890305436063967	3.187375299035781	3.380493632364732	5.241342054485389	3.73792480478689	3.129224054065411	3.832505454877687	4.80115984658185	4.101153840201002	3.402306071274505
424	-2.7184410026580808	-2.5302419598593118	-6.957890492992097	-1.0838615866952752	0.5062163459394864	-4.250768650766864	-1.5590892990803404	-2.274969333626982	-2.826352827565683	-0.6242682918046114	-2.885981552467015	-1.3526545728864503	1.3296872343824255	-0.7970585802935287	4.449635971279177	-0.15717054863825483	-1.0558335754440178	3.731123199579453	2.953096859151813	3.082389585342104	1.3990311587297488	-0.22342485133028514	5.94157169749287	2.9925451203132023	2.471897834258936	1.8038045122381288	1.210858938021061	3.3659045611277625	2.2576427402716797	1.6703293281345084	2.0449967332707173	3.5305874258548005	2.836398832789343	1.8612252426839757
428	-1.72844850580607	-2.2770252170293843	-5.448861585211453	-0.6065180286353151	1.6304907757601155	-4.282885063802233	-1.6238393742571333	-0.4482119072088278	-3.3271524822155922	-0.6789287907625237	-3.18305324704474	-3.018115512857286	-0.4481874395022093	-1.361145850559714	4.395998466836962	-0.9054888464000787	-2.836765520563075	1.205595847900682	1.2433210579952545	2.4948699411345308	0.3100490860263596	-2.100769514501975	3.120233051051612	1.8687149239089624	1.3973960841183983	0.30504399461023957	-0.826019404233166	1.130637166029693	0.5170623647033016	-0.009840355229865212	0.3331703535251282	1.793242092373439	1.2216283052118886	0.12886343863854116
432	-0.5803905114779226	-2.619658463539807	-4.334341515088334	-0.45931368950272844	2.064066643272009	-4.814816939595465	-2.7455096175494558	0.8134567717041536	-3.4193880471682667	-1.0859613391161214	-3.766535987881158	-4.585620391712216	-2.516930335365943	-1.2513163058159498	3.983591784910049	-1.735974069027121	-4.24482630611634	-1.9235844563555744	-0.779962776122214	1.7009379820794457	-0.7862208465753164	-3.5084693343273914	-0.475460230103747	0.955160853835399	0.24613027212466693	-1.1023464175049287	-2.403490775715827	-0.9111348963621727	-1.0878519984436232	-1.6179925162472981	-1.0216717694237005	0.04571289930127113	-0.3202318839094335	-1.4130655491438393
436	-0.06977310014036436	-3.42893766491149	-4.1036667720183875	-0.758493302337613	1.5375422200484379	-5.8223490568026675	-4.581171977874571	0.942049441343325	-3.007785551106633	-1.8000578834862966	-4.719317424303131	-5.684765801382209	-4.259072769856005	-0.495319752634707	3.220142356371875	-2.70309089931854	-5.0714483133066635	-4.365304935878078	-2.2502412739207376	0.7865101079156811	-1.8362868977914946	-4.285891522077113	-3.373645058697331	0.574407695273698	-0.7843228558765256	-2.2579948845121236	-3.313900939204005	-2.223349327196031	-2.2189264241462845	-2.9055335448340327	-1.8317563487535558	-1.2546336619171934	-1.394931074435291	-2.468816750968985
440	-0.6979209763072244	-4.350033749088022	-4.705864417592712	-1.346476074633922	0.09712587272440812	-7.040336591111577	-6.467958910824515	-0.1136195284239804	-2.1736371462302335	-2.6683328084333953	-5.896235451116855	-6.034133895898089	-5.048185335765299	0.6281142814990333	2.2539944591834784	-3.7278087045011516	-5.198835836636164	-5.131032930770973	-2.5000147756399738	-0.0959021446667754	-2.738258593321547	-4.370735634259143	-4.457433212470428	0.8355571606521092	-1.511568304060244	-3.0260624809158347	-3.469100704971221	-2.4898955759127146	-2.6803002289811833	-3.686051836244151	-1.995401377408385	-1.8055386497688457	-1.7642674401562486	-2.8786432670393753
444	-2.3432366788830903	-5.005851732966908	-5.684013829185622	-1.9016421985298086	-1.888252015114824	-8.084388712499036	-7.702833156211396	-1.9028565835593965	-1.1619663209188562	-3.494977942225834	-6.967210752062804	-5.535214410158228	-4.537201869953358	1.71215760275577	1.3319382633913295	-4.587147224288928	-4.609619605823988	-4.020853509288018	-1.4057948553832043	-0.7659336905214951	-3.333478203940344	-3.7803656959456062	-3.492954483750107	1.5948673446443065	-1.812441106034988	-3.2981159603772814	-2.896661751109484	-1.7337340072728278	-2.4571893153141375	-3.857187022961124	-1.4990110359492477	-1.552112813845574	-1.4130799734678385	-2.6325085096652003
448	-4.2903656851212375	-5.210642324643465	-6.507658465167642	-2.1369481032778204	-3.8555676839759543	-8.631663300655875	-7.837771395921979	-3.7232217694693976	-0.29883676691900213	-4.123636235316359	-7.574075202892679	-4.311408032022456	-2.8580667900405445	2.397538417485005	0.694814441834019	-5.011626230938169	-3.399831763266836	-1.709994073365175	0.5365443216128851	-1.088912603490079	-3.468238821809945	-2.6142120295325615	-1.20906507663643	2.5291895802538145	-1.6658178525828495	-3.0344662589707894	-1.7442848638364605	-0.30087748093934724	-1.7036298470399958	-3.4322490605482714	-0.4402845490783603	-0.6819371563860318	-0.5317059741901032	-1.8547793579956602
452	-5.6139645434738075	-5.058166967972764	-6.884321195387314	-1.9609879205784615	-5.2560176716663545	-8.564696290326903	-6.86479900534261	-4.955831038360532	0.1262010779770806	-4.4885101205035385	-7.514927368264181	-2.6813197068228476	-0.6119419320868921	2.5224788125247857	0.46968740106253587	-4.837357985681132	-1.791978473907391	0.617652831902338	2.455582135676472	-1.042140242806471	-3.092353097737603	-1.074792740015596	1.1224471302303634	3.2850580132514358	-1.171352860354386	-2.3202874601910315	-0.28300186920240483	1.2829353776965684	-0.6896562558881799	-2.566198104101417	0.9451556181886627	0.46426400425043823	0.5666586742399482	-0.7771516422677697
456	-5.706097588437727	-4.835039126586645	-6.866634828397056	-1.513048168176991	-5.747455105575741	-8.008222559737236	-5.219404207403326	-5.307105527830094	-0.02678589143546775	-4.614499557288718	-6.857394677968725	-1.082133052001153	1.3630286420741253	2.168927902467709	0.6157627686212823	-4.12453698070593	-0.13359479572422137	1.896161670665838	3.5435097128094792	-0.7334631066877649	-2.331624978854424	0.5175995217606612	2.37094020244901	3.6352324393998012	-0.5235427604808549	-1.3894520962920804	1.1150267096024307	2.5143933232721283	0.27977880764895785	-1.5452674588289823	2.2927675189305567	1.5280024966762222	1.5571628769660637	0.30194654984533953
460	-4.628144729373408	-4.824843394495687	-6.73199890344401	-1.0591368648491297	-5.298244462941578	-7.2493343170243385	-3.5891663937549985	-4.853134143020451	-0.683960614861758	-4.576520431408043	-5.915640816058095	0.049491219097592305	2.347211116586679	1.593386288434667	0.9545567607621255	-3.162175647381264	1.160814759184703	1.7074130730436274	3.4561862858296326	-0.35338276535458996	-1.4732094965933087	1.768429751699695	2.1073203033648302	3.570048800038007	0.060074597445448415	-0.5732551202605862	2.055236572798697	3.0871078890106114	0.9555339789107508	-0.7154079061565677	3.1891884723252706	2.2586867752269293	2.2026092950523495	1.078512427468058
464	-3.0792021673661427	-5.12318514484108	-6.74053047385704	-0.8204421380309692	-4.176894654218759	-6.60029075863494	-2.6212534838299693	-3.9077544113679994	-1.579691882913517	-4.458389747807368	-5.108505236125701	0.3994121839452707	2.0517187066729354	1.085638639570122	1.2627476421899815	-2.3520479142887005	1.72244667572021	0.42862197648550626	2.45622753476847	-0.08924369491456628	-0.8608919360359905	2.3163132609060217	0.7506797890783791	3.2741799271888126	0.4208354641302874	-0.18491898430389928	2.241130584780532	2.964064113762795	1.2092151611315956	-0.3696973314488061	3.3063700115649377	2.569824927517553	2.39953350414989	1.3142548766333024
468	-1.995336050717876	-5.586830601891923	-6.950311166381595	-0.8579553344046108	-2.834710590834987	-6.281760199899358	-2.6707403592390846	-2.831363909248588	-2.3685758054060293	-4.3363776097487206	-4.776127803188018	-0.13816477323457965	0.726646719528461	0.8201747515951818	1.3703379596444774	-2.031922335262956	1.357793923764588	-1.0476099226251199	1.2263028590712413	-0.04913461568467238	-0.7495298366696308	1.9677882144837167	-0.7503805141577174	3.0063710136803947	0.5111523257701639	-0.38995179435505073	1.5897109468378061	2.3306584299371864	1.0541558239071158	-0.6377745254626807	2.535696976935383	2.517863267263612	2.1718540136816347	0.9063473320966112
472	-2.01002144306056	-5.936476692470333	-7.196994286486318	-1.0703605386412884	-1.744914050465121	-6.370685561308143	-3.6811368372483813	-1.895418639165944	-2.7766883303155856	-4.287829865120315	-5.04001759210306	-1.42945170041625	-0.9804925893824044	0.7890201191054804	1.21596312215887	-2.323487275933075	0.14740437231994788	-1.8485337449132841	0.4743508982603106	-0.22984966577672578	-1.1872379749840796	0.8053339103393164	-1.4976546726561633	2.954044573001349	0.3958298255940248	-1.1231135101572698	0.29131910131336386	1.4745905362092677	0.6247644408664691	-1.4239232504180008	1.0590575906717787	2.2412018719355036	1.6396810967055402	-0.06582816673586513
476	-3.09649776630624	-5.932905182164409	-7.227417450777184	-1.2925180164129142	-1.2561196057076922	-6.812994462931899	-5.240608202100767	-1.2521694866991107	-2.729939930699117	-4.394690502515313	-5.766888603909244	-3.1318735997282774	-2.3343439043236334	0.8342328050531884	0.8426332452480438	-3.08217095550562	-1.5441420039291749	-1.6039794642959833	0.5465765581636365	-0.5422219024319856	-1.9893910834629882	-0.8005249480063347	-1.1392810315931965	3.131520263394941	0.1999489659983207	-2.1030585712741496	-1.2311137883574959	0.6580625755861713	0.11829915612870677	-2.433119052465974	-0.6931014043474992	1.8895045471169718	0.977629659091781	-1.3454152311688878
480	-4.601932037178846	-5.521729455358289	-6.891586286311354	-1.4250823223373768	-1.4980963430728338	-7.465010147320874	-6.772292120047602	-0.9841739510483722	-2.389251464533516	-4.7165036082396785	-6.637402040889876	-4.776885974267647	-2.842448942637349	0.7603132705565898	0.35399028569492924	-3.9643196959541895	-3.166699878326873	-0.5986294135238538	1.262529846818522	-0.8649288394071459	-2.812657825998087	-2.2961852492533485	0.004261648271649087	3.38344644645945	0.04299383599632084	-2.937375776504127	-2.454933160305796	0.04904464247361109	-0.2676973634160023	-3.272716990791139	-2.184369796959972	1.5874050815558471	0.3845091452427392	-2.5595073635329824
484	-5.63926170832693	-4.852110850481531	-6.255059226456028	-1.5028090439047466	-2.3662438332897247	-8.129030207137305	-7.754388789626152	-1.1632631987766047	-2.064715618642685	-5.241479383586605	-7.277499657376812	-5.888563141260737	-2.4420316157674464	0.4628352213141347	-0.13705579901901102	-4.5747103575600745	-4.1659359826766025	0.46074500563642856	2.0577895589372712	-1.0982899638103363	-3.2956535732985373	-3.1379878441739	1.2159110276994678	3.481615534575244	-0.010935720960007929	-3.2765459931618426	-2.9386153146937466	-0.2778103344578981	-0.38992509147425874	-3.5963163285056234	-2.96309088912536	1.4264020883786614	0.05042897524618562	-3.3321204101357886
488	-5.590761647414225	-4.163674344040955	-5.556813702858822	-1.6554353195356375	-3.5614240079607833	-8.569669701874407	-7.8803386489272995	-1.844421620480612	-2.04681419809462	-5.8378724904487775	-7.387083034938275	-6.110290035079593	-1.456396695274673	-0.00605144024230067	-0.5297411070800433	-4.619919288415171	-4.178687561929076	0.9051866508518305	2.335182184045638	-1.1859605282404788	-3.199130050211547	-2.9956202431386902	1.8614474487991373	3.260931483618746	0.03872594600079244	-2.947503559300212	-2.4781124529261067	-0.3024060122484306	-0.1921147699274019	-3.231652013248944	-2.8199703622192485	1.4660888873278393	0.11131743313579391	-3.4122350129761214
492	-4.432331074014518	-3.6366994289133094	-5.050384031896223	-1.9884418198926919	-4.6633639217893705	-8.532635667238905	-7.098883610922257	-2.983273260213931	-2.4417836604458065	-6.254858001175775	-6.8169302768257705	-5.301671014751775	-0.3792120506726018	-0.4645058202936815	-0.7275506239641977	-3.997987737098434	-3.1572637478270154	0.5002627360111279	1.8217513515253978	-1.1007401915415769	-2.480846398765762	-1.8716669035386555	1.7720564559065417	2.7226121356889315	0.1619861717902735	-2.0056071230796393	-1.1687562436159467	-0.01989681827468888	0.29227709696409765	-2.237405056072897	-1.842226858256234	1.7275420383706144	0.6002916082485085	-2.7645120550930318
496	-2.695377343048342	-3.3060972607111343	-4.840582358536761	-2.4686479506154075	-5.238984571581185	-7.801026801440775	-5.558260426793157	-4.347831715096999	-3.1083149831495733	-6.199838622652576	-5.588764653400712	-3.586289635186822	0.37773793840406095	-0.7045198065136474	-0.6271945222278263	-2.804639332365988	-1.3790737355699925	-0.4503217924192601	0.725844083383942	-0.8192145803749193	-1.2874405351558973	-0.09167337394457237	1.2920793262284749	2.046212429602487	0.34112754378023047	-0.6943505388849034	0.6444378478945878	0.5648840651555309	0.9582171415931855	-0.8733484722975705	-0.3508680155955429	2.1724641268240155	1.4156084024928268	-1.5825999935247659
500	-1.1068892450996604	-3.0803954523515333	-4.820957648503301	-2.895140163741499	-4.970760332909021	-6.293166144694779	-3.520017615014177	-5.510427937900251	-3.719302644876021	-5.471375928416328	-3.8745489022660444	-1.3325723376008494	0.6485567672567472	-0.6040186270722591	-0.1334986534324414	-1.275159117340225	0.6612021906371435	-1.3320157494293419	-0.3869940032725068	-0.31176325600112725	0.11860156029321121	1.8304029656927026	0.9904279087809956	1.5083390436237558	0.5934150203981334	0.6614910347449958	2.5036976274220573	1.4069303238633086	1.6645495849545209	0.5018428551401342	1.2443523375565546	2.695654623855137	2.338145011720653	-0.21250197237722615
504	-0.15732680221413903	-2.8413696217324813	-4.753886210836947	-2.9880599900144675	-3.7703707122977455	-4.165199746106196	-1.3066296544464386	-5.965898975568656	-3.926933278659665	-4.07954787178021	-1.9589668462885201	0.9297128296267303	0.5177849518100893	-0.19062869202645266	0.7978968600155334	0.2954849593331653	2.4233362613529774	-1.6208755929078047	-0.9247735119359538	0.43961161264054516	1.4530286752254982	3.384412756958109	1.2467555968278305	1.3496332134504139	0.9588841771711828	1.7764251187296793	4.000001420412442	2.390049928352911	2.2769675197333874	1.5603518446627853	2.6027758055776706	3.151058904321563	3.108205072184885	0.9849822496341305
508	0.1397883441495174	-2.542474263447813	-4.434277046452232	-2.5445079739224146	-1.8487166119629934	-1.8445323659103252	0.7147781830861056	-5.342678056579394	-3.545175066580299	-2.2867455424748133	-0.19336475383099191	2.64485072421839	0.19392988036784178	0.3784174313527848	2.1056594795470023	1.6199109513391952	3.48899101330113	-1.2021166055846373	-0.6051483735064795	1.4021031821137162	2.483343594956967	4.231413830564265	1.9833706567280052	1.661071773149947	1.4591722451562763	2.486434691827214	4.894254672091437	3.3320836936747	2.704174988594978	2.1105899757503743	3.555150499904723	3.4111356649106597	3.5359687715901154	1.775385613727421
512	0.16931275980640545	-2.236481184081211	-3.8360087774701603	-1.5778387745121285	0.3008474700007786	0.055098868767386684	2.1432583277949697	-3.619698992173394	-2.6599512033062416	-0.5411032424616654	1.0603361102989828	3.382056466146797	-0.14623020552432076	0.8975829459416761	3.586942425254754	2.457123988623629	3.662128677658921	-0.41200837388920697	0.39329230686073113	2.453149312501462	3.058444730666231	4.278486717866072	2.720617764279782	2.338821405227856	2.0497076459632915	2.76280569332671	5.152526365622713	4.033469189950747	2.91203951100413	2.136133903832244	4.111475457301407	3.429610482140016	3.5882730393413604	2.127729172102976
516	0.37752297425322123	-2.0174145647612542	-3.14553426902057	-0.3540021470192096	2.042183394044422	0.9404903030492268	2.6057193213478267	-1.2260465590993541	-1.6043349463965262	0.686243115123024	1.5080190858914093	2.9646539613260035	-0.4362686563444351	1.2080316513079234	4.924260603869928	2.638602726950229	2.98589848718179	0.21299551373588152	1.5530993899234056	3.378386012130796	3.1060421388407367	3.6513054278693526	2.9101054594953415	3.128656617848582	2.6002736025963173	2.6684148244243993	4.899293410329448	4.35378407332782	2.911274425785725	1.7607545808206353	4.388323772795059	3.2660038388763253	3.396807423598568	2.190790647697545
520	0.9191411710421236	-1.9321638296935937	-2.6611571244762926	0.7033289057140418	2.8187520432831157	0.4895323800602074	1.8866392326405634	1.0530933115120324	-0.8080942610365404	1.083103654034225	1.0112872098185715	1.533203955594059	-0.6872705799870681	1.2515804736009273	5.7753262374023455	2.0949811882531613	1.6911221699933274	0.298991083343936	2.321714395383352	3.918448438288021	2.6185989313769547	2.5984096461496073	2.3213889540237	3.7322707081977717	2.919621221800418	2.2895696105371415	4.324748982000981	4.272531498612309	2.723398440160823	1.1619826525914834	4.503681648327783	3.0458676738132193	3.173982612225722	2.1833991949269
524	1.534291025102728	-1.9477096746860825	-2.6336867742801453	1.1925581663540092	2.3690869748383325	-1.1871809929438182	0.06387495978440993	2.3496096074863853	-0.599280415452447	0.5928140267663805	-0.35479542523452245	-0.4939659225390193	-0.9028987861725482	1.0661274167800276	5.88084791606049	0.876370606593987	0.10261644397099803	-0.13412231173031292	2.4070382057453226	3.844474305936946	1.63964616838379	1.3769826854272615	1.2183879583115005	3.9174640079773964	2.811652414852554	1.677058215675503	3.5893983750318785	3.89086746187145	2.3391823709557045	0.4727074789987128	4.491633403881884	2.8653335498946344	3.0720903795880776	2.249598497433103
