time	FP1	FPZ	FP2	F7	F3	FZ	F4	F8	FT7	FC3	FCZ	FC4	FT8	T7	C3	CZ	C4	T8	TP7	CP3	CPZ	CP4	TP8	P7	P3	PZ	P4	P8	PO3	POZ	PO4	O1	OZ	O2
-200	-2.884648792613202	2.420884603110266	1.7596838429845936	0.9918371413938621	-0.41157224670448656	1.168910500436236	2.020381207133525	-1.1667764157400857	1.8176065637474714	-0.6777752620750979	0.32115715661026817	-0.6584869010512561	-0.1922788466128931	0.4969747649996844	0.08648347087721221	-0.886405286935168	0.004635738197185847	-3.693788519116463	2.4496002135419164	0.4973957824069924	-1.3004960980959575	0.25226944621290387	-1.1676990956388793	1.0240830157173564	1.1597760886474695	-0.8192077258407875	0.6043915733336771	1.679931397965002	1.2688119379434084	-0.3901780833883692	0.8212710598237677	0.5277036415128302	1.6898146825088356	1.6355004269315494
-196	-4.004962434193862	2.096310848665454	-0.2746474437931999	1.1316256494561523	-0.7579684834416908	0.3137796513264654	0.5624793753727838	-0.9198986864706614	1.607124562974261	-1.8943852138374373	-0.7177827936170024	-0.37730145359147277	-0.06667067093705756	0.877515671421876	-0.3531059315826296	-1.6382006365423467	-0.00867325344727128	-2.9782664700654387	2.3687601029672094	0.3581373384493515	-1.6178276498002655	0.15466161033205877	-1.6622993904106413	0.9518152451326031	1.2575495211322436	-0.5459278808161836	0.6198546274747819	0.9792687272143212	1.879692311309531	0.22159279826961065	1.0031986211243935	1.0468672487530934	2.0783710427262503	1.7034513907339888
-192	-3.207192889699247	1.1448895902338212	-2.2900555076001234	0.6590632183601343	-0.7620760779213713	-0.1785525973103522	-0.8112540224573958	-0.986649093521066	0.5224000202341063	-2.2556140365872266	-1.3800717557395918	-0.12959055569832037	0.03677886342657246	0.8809886552502353	-0.23916096924957778	-1.9886254021981367	-0.10610233965549914	-1.2451546160732057	1.5179928502857836	0.5324253426460812	-1.5696762760586158	0.04049818207529556	-1.2050434320542984	0.9095642543716619	1.4764578305160767	-0.04655813041495515	0.6207867845120708	0.37303680087320557	2.4966604646590627	0.940028665076607	1.199290034127235	1.6887074666302833	2.2579986992093795	1.58626210289052
-188	-0.9511600112742415	-0.08137926438766149	-3.569671383428242	-0.22126024905608715	-0.440328775724672	-0.2591262751235858	-1.5549586972078346	-1.4177254402606143	-0.8893274642425485	-1.4931035004111843	-1.4493464194898609	0.02485446066839724	0.15459278186867817	0.7017255407736319	0.5262417183941152	-1.7179101662178085	-0.11785443842457978	0.9369774437136135	0.579623578515534	1.0958758564937385	-0.9797407363951058	0.13600724901193087	0.07259554397612625	1.0139391396672226	1.868749971440002	0.7496976833488945	0.7790840844511536	0.12978577581062808	3.1021380346178056	1.7783863499564172	1.5187245569031989	2.305145973107678	2.308406585587239	1.460589405186878
-184	1.596768255970684	-1.1122899027398336	-3.785953035332745	-1.1583517760595128	0.03160193181999879	-0.07644184659493243	-1.5547397097434827	-2.0768470711724807	-1.9468102405986927	0.08858174808310383	-0.953663644767066	0.09088832862079835	0.20235477336815452	0.5785667285616899	1.7185405449393616	-0.8393531420496908	0.0859579814290379	2.771116964973207	0.12819911507187431	1.9042513322436192	0.10811075540903815	0.5625956640344469	1.5530964096911741	1.2662037579039118	2.3439450204798127	1.7680808261100607	1.1588345736809744	0.2657535069431726	3.5901074318843365	2.6581125192288524	1.9508740852692186	2.7087533405579056	2.3304445684722723	1.4582689963716304
-180	3.166405669801004	-1.5813811977514758	-3.0935959737873215	-1.812186236574572	0.40198242562846354	0.11580504447786115	-1.1182411880870518	-2.695803158629542	-2.1545312350235886	1.7742403700855982	-0.1464771922704852	0.1266000714681997	0.04010758911377828	0.6675739867521903	2.900480501481312	0.3963293125159815	0.5135823475268766	3.585310450084924	0.3156814567225122	2.6686305932379413	1.4287737571882864	1.2508338658223557	2.4638733801623744	1.5440072974323227	2.718315832904368	2.799288981045878	1.6683438974220528	0.5525541887637788	3.8139872454670436	3.4222774419211035	2.3649804532422554	2.7604494025153987	2.3801114499081546	1.5938652713588726
-176	3.044323675098856	-1.3843303883887519	-1.9805715034071305	-1.986683840504125	0.46938785792097343	0.11047700019600219	-0.7145072203716408	-3.000606052452274	-1.416179653406912	2.824493639490543	0.6274197085752192	0.21132792479088827	-0.4007890810384283	0.9787514781082662	3.6398832706105932	1.6150121648067637	1.0414781544139775	3.142463199310916	0.8322989323583335	3.1046638410384304	2.6116483145579554	1.962238545231981	2.318058484900639	1.6663675266155804	2.8201725411738163	3.5876691250820207	2.1064116901621683	0.6691002232824556	3.6718447115699373	3.9023103615465393	2.5897641116560544	2.4370913444023556	2.433602088506014	1.7634646848024405
-172	1.436015721510212	-0.6995148641091389	-0.9713812445911078	-1.6716179805512987	0.18856818926409205	-0.12450744925296688	-0.6345703585815797	-2.8331253457065433	-0.03723209714430022	2.8675372528157066	1.1100970478640835	0.4116281260588224	-1.0080370877564646	1.4025338852757758	3.7180402185028654	2.494065040013516	1.486490245880762	1.7557523206251349	1.15987133686958	3.076686136107236	3.3560001765397316	2.4156584678695543	1.2093564241393566	1.5042293033768688	2.5941240722010765	3.953288783582748	2.2811193408593797	0.41037869349819517	3.1830212989552207	4.004945744893367	2.527732604320603	1.852498765083022	2.409358733769859	1.8166038944155913
-168	-0.681312618919652	0.12652327088360052	-0.3551848819825016	-0.9917294954056696	-0.2753968231877465	-0.41058194533636605	-0.7863658646756888	-2.201036686108566	1.4586091004738602	2.086132997967884	1.260390040076488	0.76252043054705	-1.480092283326725	1.7955945684874945	3.2238333143856277	2.9100625441512116	1.7241241888385332	0.15038950703321347	0.9706618761351298	2.665205948776373	3.5759851842240686	2.4561974940275793	-0.21611513142858202	1.08197462285574	2.148044342339771	3.8840105435538015	2.1369252150942843	-0.16598881739193078	2.5103743012943602	3.7718117141861973	2.2377679291493733	1.22312974620999	2.2360889855195794	1.6612117248555263
-164	-2.13115930019185	0.7637377362042244	-0.08774617292184905	-0.1175958213221329	-0.5921549782107629	-0.4482173908361333	-0.7654525618300828	-1.247156616876867	2.5849225455824625	1.0994899245159249	1.2582969633758398	1.259350177446362	-1.4535837136762453	2.069078201792071	2.4853401121333225	2.9757721348971757	1.7726280644484946	-0.8834735132800029	0.3916034092552845	2.1185886806404577	3.4305021676236045	2.1595811789347885	-1.1152408094859234	0.5974315985854718	1.7079246001037984	3.5410852342847168	1.8059607698620792	-0.7535360436488044	1.9024295758853036	3.3697531138219032	1.9259175013554823	0.785727200908533	1.9171050738569795	1.3321702446682098
-160	-2.1904277746210687	1.0491236421800139	0.09904308592109046	0.8006854633143095	-0.41492977633620737	0.003676906218782195	-0.16407220024169472	-0.16705493586801412	3.085829250174118	0.5997558220979753	1.375439640387212	1.8458710862286005	-0.7109491807154018	2.217278713350274	1.8793809366460106	2.943513624389021	1.7784439280431248	-0.8754404165099707	-0.062098909012650826	1.7149380402182324	3.216051093564822	1.7974280073561566	-0.9304119921081804	0.3274239889461305	1.4986083469701619	3.1709225097706795	1.5422350129290459	-0.9685151552543193	1.5770490129708485	3.0098690910641412	1.8417266560785417	0.6976312977343473	1.5474523266823528	0.9828511451702118
-156	-0.9547458862995203	1.0283277008796743	0.46271642925739725	1.6489223200174743	0.43275660167152424	0.9614247655436746	1.0867229672651384	0.8785768129101332	2.9790403767712488	0.9590131020175064	1.7891094639430158	2.406869882228902	0.649662135391316	2.271830076203878	1.6291961628788627	3.0332670135209363	1.9069094609753114	0.1066413966109062	0.15136730632712384	1.6105685193406878	3.182021133018415	1.6742004113843174	0.29219078943868076	0.4616950142647826	1.6136252839356313	2.968455068723023	1.5705088337347366	-0.5752080664417212	1.6044720370791634	2.8351478505079553	2.1346709674345705	0.9600914692480602	1.2633957830956326	0.8006303886226761
-152	0.7651082854027295	0.8834581948863343	1.036588070159661	2.3209488333277895	1.8185225679260668	2.155162805838034	2.569657557675446	1.7982057287592224	2.4562220511411645	2.0210239836211596	2.442991965801643	2.770835392631999	2.1886591856057587	2.226275676828535	1.6935946898616576	3.2797017014668635	2.198213094883395	1.5017189941638462	1.168025371463556	1.749927039496654	3.3674878989075783	1.9214106749661042	1.9255495022795681	0.9538127159832729	1.9400057743683137	2.961078159485666	1.931437249075616	0.36164203194865124	1.8479920579029332	2.83219146013456	2.746457092980413	1.3954167330796947	1.1474630803701462	0.8896318055580033
-148	1.9385558317831684	0.7995321134408176	1.5708425005353468	2.688620083696506	3.2888371861392334	3.1150493543178737	3.5455357938895693	2.5331842835365754	1.73332368889923	3.180794707850613	3.03728198238287	2.7340297629946995	3.2808394349234637	1.996785874093732	1.7973205997865425	3.486083975573484	2.4792556700100126	2.540088408732767	2.511589043951816	1.8834454965722718	3.553957930175068	2.370489352917067	3.106067888047215	1.4889198504049623	2.1854681913511196	2.978948585618526	2.4158999858895744	1.4858801327383815	2.0033028075184407	2.819228880440115	3.4055309209672906	1.6991319613473113	1.1520310611249094	1.19393574890058
-144	1.913188333449388	0.8502723553171053	1.6636877017932448	2.6147904330040017	4.216556061589327	3.3762342844598368	3.35467194663891	2.990553133089838	0.9478850936799709	3.708920946293834	3.16727875863547	2.126289362307417	3.3977131757782884	1.4576287232790697	1.5851395090136546	3.321397772986347	2.4109001098798593	2.628725998917304	3.283478013331719	1.6895235734244876	3.371595135759391	2.599864953152769	3.2064373412239817	1.6090316731836793	2.0050899931828736	2.7351951530064054	2.642927639964212	2.321477168897745	1.7279752449277481	2.525971167862648	3.7363588715633047	1.5557050665678278	1.0941243144067911	1.504855032936141
-140	0.7743120769978392	0.9613371467160761	1.0117357943740184	2.0204205461989773	4.069347371317682	2.710447542976724	1.8400061084067993	3.0195779724178022	0.1527987714724355	3.139112226190104	2.548203700307737	0.9144608355322422	2.381548875517929	0.5406569228827142	0.8179200867029557	2.518942349749901	1.6776453214250584	1.6497980314563034	2.6721544198281655	0.9451463198641011	2.5144548352653815	2.161750311161978	2.1739728395887608	0.9502280926555311	1.1755334109190874	1.9852386662905497	2.260687583937698	2.517848008474588	0.8099468926007716	1.7372980073935294	3.4399859818391625	0.7825576047213145	0.7444570641795392	1.5595147570336731
-136	-0.7446729522023705	0.961981353715182	-0.36147147325805706	0.9614036058948328	2.678401701840591	1.2653112379552987	-0.4717570531378464	2.463108294943969	-0.6178337319987746	1.512740369792148	1.2050245969865971	-0.7064734679505178	0.5601291642352239	-0.6724200827787734	-0.4901570069335541	1.0679421397902775	0.22208476010518344	0.020178563841895363	0.48994707937518517	-0.3387640706092415	0.9493218040340095	0.8722448326976958	0.5436599240882061	-0.5306516276313333	-0.2684379213231444	0.6841986758123898	1.1662064761281825	2.0342552610535742	-0.7066705805102924	0.42955464016227446	2.4551596579553703	-0.5645052776389397	-0.03150445214900505	1.1819307774266783
-132	-1.7139632658600366	0.6957127434331609	-2.0360047765826046	-0.33858421359408586	0.3710031798055708	-0.4702784109163141	-2.5748796398003235	1.2687985865030125	-1.2856110301937804	-0.6377750619044822	-0.4844367193865798	-2.309345239530792	-1.3726367915783706	-1.9273068856216888	-2.0558543153355897	-0.7144358736120248	-1.6236702162756877	-1.5198720655215177	-2.607067339990664	-1.8847851705648613	-1.0009195779325157	-1.0063891385418753	-0.8682412483228857	-2.4744603571406496	-2.0061836192024516	-0.9409367418374673	-0.384246825201745	1.160287019661194	-2.5015091832900094	-1.1713221043577595	1.0135830615202335	-2.1737661306812015	-1.1574515075070981	0.38933598896910854
-128	-1.533931251467772	0.12001498758294328	-3.3400969420980715	-1.534990187584178	-2.1102442688115497	-1.866157765445265	-3.484328261161413	-0.3946198811104616	-1.729845877094656	-2.5421624119471353	-1.9286240290586099	-3.350615016107161	-2.661240332560189	-2.879757873893861	-3.436966648961043	-2.282791608768976	-3.209557286742228	-2.271970504746614	-5.382059083701646	-3.240637294216859	-2.7571303774841054	-2.8133566308516693	-1.4065751993906335	-4.245170105706537	-3.5342500120577114	-2.450484269630993	-1.8485958529529833	0.3582986286177065	-4.080620755383458	-2.64853572176768	-0.44465523845941524	-3.569676628636969	-2.33277129537985	-0.597815154473633
-124	-0.25710549885686773	-0.6543469412495441	-3.653880586935727	-2.286692851968965	-3.892294158645192	-2.426149123742116	-2.762944929776554	-2.108350271623949	-1.8559639407029354	-3.545308580984259	-2.5848238402909636	-3.3805868540289254	-2.8384983467916105	-3.252858630550749	-4.2146944893284015	-3.098118297384302	-3.8370225332659404	-1.9193476390063469	-6.641714556137777	-3.9596187968419128	-3.7304034138909627	-3.7698023224066026	-0.9075956321689905	-5.214356409259332	-4.364108551451167	-3.3664672289730215	-2.6351764135586113	0.018580555868921125	-4.966336714603539	-3.555126181209716	-1.460460182317331	-4.295220841053803	-3.147203199070067	-1.4491890632280513
-120	1.466419454686929	-1.3953692877825732	-2.705482237660891	-2.3971657692468105	-4.340002525816229	-2.003779883094018	-0.7745304088111002	-3.312765113096033	-1.674122925346305	-3.3822581682642077	-2.2153630200720293	-2.2684154453226064	-1.9409061621300174	-2.9751529618488126	-4.165946473094057	-2.8836378978403636	-3.107885591289696	-0.6722899062349127	-5.867741093126051	-3.7924575709913713	-3.5961465744777317	-3.36332272634119	0.25884726578209666	-5.060410963633602	-4.228441704564689	-3.383504382174025	-2.39138173453241	0.25700050527536095	-4.89215658860064	-3.6062004475144818	-1.7620696976996393	-4.107075204016618	-3.2749793446825217	-1.8782027912403547
-116	2.7697396208452143	-1.8347282363345534	-0.713169215309101	-1.898321981405623	-3.333408108878265	-0.8490752556344587	1.4915516338837302	-3.5283446222868546	-1.3215755190861331	-2.24908089069918	-1.0017789576987175	-0.31879046478846945	-0.4686726319877969	-2.224233144866529	-3.34740041841325	-1.7659704640624714	-1.1652367085601354	0.8495640733250276	-3.49324010920715	-2.798640005675202	-2.4525561270781546	-1.633012529064906	1.4317011797043937	-3.9204778572282097	-3.1960394301784567	-2.5114083226693134	-1.1919239729352002	0.8628881551891231	-3.9095330139636064	-2.8082659173635456	-1.3838874066698996	-3.0853917520825713	-2.645593159671838	-1.7769521429974529
-112	3.0332558078477465	-1.7636254981336383	1.686390514884424	-1.0337069008477826	-1.320194002633017	0.5319530950467181	2.9436116144247846	-2.5899991923744548	-1.0061942313539518	-0.6644124371919962	0.5441413508028414	1.8062652303868232	0.8786842800843919	-1.3461928333626645	-2.061705584089127	-0.22386686447366227	1.3183493580911656	1.9326910923799456	-0.6646946651842951	-1.3261411156551115	-0.7794447521557789	0.8065074065826915	2.0341284223698124	-2.319320911273794	-1.6431155163288271	-1.0798323127186318	0.47779616592891927	1.426615711424997	-2.362528556580965	-1.4643640481216837	-0.6404029710813496	-1.610653634773212	-1.499850150136277	-1.261847850474724
-108	2.182092899535301	-1.104497310710863	3.7037284280726905	-0.1383684870087464	0.8881763793455524	1.6345660645224094	2.969939224374183	-0.7573012690497596	-0.8922695495012337	0.7869749645391108	1.8318722201827065	3.3486564074847864	1.552690144433411	-0.6852973682267607	-0.725188134269845	1.1381977767817835	3.422021380367795	2.124165529610142	1.384283181510209	0.13741508091564877	0.7883397916917317	3.032089702580305	1.8675194931563655	-0.9037165022921572	-0.08852656163276175	0.4042234112547483	1.9445530127067476	1.57349252303537	-0.7382754068808458	-0.04461185995401818	0.0333695075563503	-0.20462545700862367	-0.28834140227951527	-0.6063373669574571
-104	0.6764444691745577	0.05874251931975847	4.729037272911403	0.5133465515527404	2.4748141703111433	2.191037649344871	1.744086618788438	1.3574860061704557	-0.9958612297664233	1.6940585332061286	2.4725997385540386	3.781813373554256	1.408526297827785	-0.41844454302044864	0.3027006976114561	1.875387425456142	4.391699303029457	1.44139337175756	1.969867105278944	1.17506742180741	1.756353135442954	4.236483563217481	1.1667969197378367	-0.1282402422766655	1.0304814551085506	1.4778512678981177	2.662933581304693	1.1699887484575004	0.5375504480141535	1.0178902123501181	0.2938704781265329	0.6978287679219897	0.5421202765129002	-0.09869075541613208
-100	-0.7668864111611795	1.4941360912746662	4.5695090178515265	0.8120102265837519	2.9640269204645495	2.2634439411237324	0.09246446913977582	3.0204446239506484	-1.1671533555126936	1.947432632297866	2.443814509897466	3.0459067744600934	0.7336512189462011	-0.48033985374293164	0.8570204355536691	1.90046607968207	3.980976333103908	0.3354723445051866	1.2475843398066953	1.613659973838803	1.9841024825547098	4.094558228645388	0.4116871942616457	-0.059887930599644375	1.5348007640235601	1.9146952580747947	2.46190523479686	0.3930437852949676	1.2639846769845267	1.5064958295933752	0.04702830675291754	0.9341860986011846	0.7635241727625334	0.10034885232146878
-96	-1.5331912002001093	2.874495737447796	3.491055956609515	0.8233403542712106	2.3837065636533503	2.151247019104756	-0.994148430698482	3.675671329754856	-1.1797116965072931	1.7076762871542912	2.052219147269206	1.5624766310343738	0.0520466453013055	-0.6299198253940108	1.0059339974755195	1.4887534342371695	2.5386331017296055	-0.5559458122522251	0.011196926207883129	1.571763153876223	1.705794568523483	2.8809697555283744	0.03098962448163802	-0.39923456210428854	1.5451410969823776	1.792860384229261	1.595720287108889	-0.37207049037454665	1.510030861856789	1.486736532272352	-0.5270556198164682	0.6634494645534362	0.46582004310301595	0.021880600546191502
-92	-1.354664083875334	3.8594202897859295	2.0607435651248815	0.7079216820009692	1.1870154112410503	2.175905699004657	-0.923767623953264	3.172191611864033	-0.868266461087562	1.2660448519213419	1.727009292056957	0.021677354295956016	-0.17731839373642663	-0.60699158753686	0.9803954934163104	1.0960341664298623	0.8079608658418698	-0.7360058408274633	-0.8495528676518381	1.3637193406960388	1.3591495718019366	1.292482611254007	0.17459401444223388	-0.6906238180843759	1.3764558995780667	1.413060184725823	0.5837118014857116	-0.7444074135105666	1.5295511445528664	1.2334167926165127	-1.087050196764129	0.2583222978745628	-0.009669334603275207	-0.15178456864182047
-88	-0.34709489257917503	4.190235604197284	0.8817297197968567	0.6060971006349741	-0.0023817939157999173	2.4737985071667348	0.19171531450028695	1.8071088745268442	-0.2352649712583156	0.8910882450494128	1.7672820046627977	-0.9460538005785153	0.20180864581177885	-0.28957965896927534	1.035241362819006	1.0944868298553998	-0.4487645018691453	-0.10058096025821874	-0.8824369289053312	1.3111917939460287	1.323116418358976	0.0785045696303053	0.6590338332703342	-0.5934275373735046	1.3434280123170936	1.1141486139778167	-0.07173785549171563	-0.5598047361545305	1.5932444293804597	1.0589033338514895	-1.32096898222243	0.09323817467990995	-0.2709509723498196	-0.20995281583706946
-84	1.1252819271287238	3.782040109622409	0.3603394916496632	0.566945372580594	-0.6811999065366663	2.9260377810035783	1.6614373880400761	0.1794786150692447	0.5444425330721311	0.731661437094688	2.1920845453230626	-1.0348002884487817	0.9977861617645846	0.24003834961845635	1.3135654893135709	1.5775513609157474	-0.7927516678822225	1.0250471804488088	-0.2761101119699727	1.5645304878788586	1.7139006809831805	-0.3126614681933022	1.1125810118241817	-0.06148925035568558	1.5833777149278316	1.0896439524796264	-0.13082107868544035	0.040765374795987845	1.8281080676653545	1.1381709546917023	-1.1100184889424678	0.33950632724875546	-0.09868472789644438	-0.04575089353692922
-80	2.6483251981628646	2.7782287527512715	0.596637843533002	0.5620265588875684	-0.6454169137871965	3.2598733819673646	2.6719534329664905	-1.055119392592122	1.2268975942153086	0.8063555339481873	2.769272320431355	-0.34001514229759594	1.8221195890198905	0.7569516878090345	1.7805205538618565	2.334300750560925	-0.252696006852162	2.073992485532105	0.35734435825726185	2.0275139757464977	2.344152206224529	0.10291796151641369	1.2105179994538067	0.6628071052983137	1.9887866923664916	1.2984290090203658	0.2956879727527577	0.6896231753104131	2.145615810699174	1.4200357162862756	-0.5844151362922854	0.8736241437789607	0.4290940750732578	0.2736727886442935
-76	3.908531655933908	1.53358518690108	1.4191487991742568	0.5631687030878708	0.006010753087424882	3.2515683092039094	2.7907166410559245	-1.4254916870366605	1.6420539576080575	1.0550556156223734	3.1909584918520517	0.7671778778733953	2.3306617677972854	1.0421261761103393	2.2532305660579657	2.9944386406636463	0.7755996565310264	2.5357339318150505	0.4589828241204156	2.420920365897041	2.854259245341906	0.9308724975925524	0.8477200248296224	1.2203750579540054	2.2796437682770456	1.5093997678795006	0.8449780919675876	0.9843066905919519	2.292952770166051	1.6670885043969632	-0.04871874662854385	1.3485105003642592	0.9798101162014492	0.5380654321437126
-72	4.7300438761498285	0.511871515412208	2.516926997505844	0.6188491567246044	1.0043637727175212	2.8989436553243033	2.205242389833299	-0.7912583927204347	1.7856385662772185	1.4054194653313568	3.2778119958136758	1.8704051924212355	2.4065065323152686	1.0279124949252172	2.5093338426177882	3.248576394462318	1.7844208433875317	2.2019693795876565	-0.06663531793221442	2.4485824046303017	2.9274578020571216	1.6545327860067274	0.1618039156881717	1.3622519935546629	2.1717848722938697	1.4467006885242508	1.115627643629539	0.688029525927077	1.9990881630970136	1.5975021083553058	0.17739221408879458	1.3936567271332105	1.1543277472915963	0.5091478215714283
-68	5.020687090595468	0.11642602056672455	3.5730221181304755	0.853534875145294	2.0700788445660336	2.4380211768585043	1.5529271325004395	0.6357849224251013	1.7998939707135782	1.7984448625934575	3.0719404143022015	2.6895260742948044	2.1784436647727854	0.8437083342231432	2.4019548832331323	3.001798383763351	2.3930723606725506	1.2414184777388275	-0.7825003246578299	1.9633959482213075	2.452156775959168	1.8905031633330174	-0.579138754336155	1.0925767394137502	1.5397118291127845	0.9440260505683761	0.8621234275985856	-0.16698603289882774	1.1329011888511253	1.0422874662786945	-0.0884048191461154	0.8308619239810717	0.7119793873930986	0.05266311006362885
-64	4.716437327874855	0.5199339972720401	4.339161861908439	1.3791493142593767	2.996407024447739	2.183147663326583	1.4538047276985144	2.376971715647893	1.8541139317430677	2.1641738360124267	2.7626087595808695	3.1140215318259616	1.8824388933338465	0.7351740580117229	1.9201909255185001	2.3758690297223324	2.444097751168724	0.07884063551786166	-1.0184921000515406	1.0402250263653834	1.5431030949733628	1.508970018391755	-1.1456598014516644	0.6500390155592792	0.48299720761424375	0.02358460420376026	0.07258192431482946	-1.3197331395207774	-0.21196746772655234	0.032542649574371904	-0.8198902586263872	-0.21704845075644108	-0.29270005152235595	-0.7827495912816513
-60	3.778022994993269	1.5678640564434403	4.641917693816173	2.1691393797468383	3.641295423851046	2.291143173155239	2.05433201271187	3.8354768656215277	1.9998907992415327	2.3922161995571587	2.5059764321953564	3.115368358375906	1.6694843726923059	0.9045386291554685	1.1745548218636357	1.5795837600881673	1.951588148911825	-0.8453816154116981	-0.33643963848048186	-0.07445455323733237	0.43018749247657934	0.5947709068540608	-1.4655110799028455	0.35543373137381057	-0.7303613405861297	-1.1309735746439558	-1.0827988358816132	-2.427042001318597	-1.7432423786019708	-1.2211953370733333	-1.8148547365144287	-1.3765275443609057	-1.5305751523475222	-1.778091306965524
-56	2.2485241833183833	2.8065516877841334	4.362390030337342	2.9852878972022525	3.877550830587933	2.602785103902232	2.881154291508133	4.465539920976572	2.0982143825961947	2.3329119623411647	2.2672831954933117	2.6420097284369883	1.4890936575486884	1.36562442434754	0.32149746932875406	0.7449859361912959	0.9855383609684809	-1.304087397143897	1.1420800657047818	-1.1016091080509187	-0.6990951282016903	-0.6812949163401985	-1.631080384904745	0.41968938602343975	-1.805791254252766	-2.2798070850033176	-2.3744819104326216	-3.228303901151074	-3.092769614994242	-2.4381892619563463	-2.8012227941360885	-2.209980005406665	-2.5628292495872174	-2.6403174333667985
-52	0.3370566955639612	3.642161836965314	3.442005864036211	3.4299786004252195	3.5719163327633945	2.6813471249593754	3.105827562120087	3.933314790331786	1.8867915821122248	1.8504509879122888	1.8062460376912541	1.6025745828221742	1.1232650251639062	1.909774894661009	-0.513867198123539	-0.15163190624577494	-0.3959320177572342	-1.380431290955969	2.750864975659714	-1.8674346161424196	-1.7923961832569222	-2.1675226633660323	-1.8132274105068797	0.8231206515511231	-2.5620231563733102	-3.2397613443594513	-3.6161196140543796	-3.641647806510069	-3.9728648562261943	-3.397585621838791	-3.5522301107366814	-2.444937699820778	-3.0621743124897005	-3.132488004405071
-48	-1.5545825919002516	3.5738842397103303	1.937580222959948	3.1315467278571543	2.6359713010993286	2.0507595487316315	2.070919270055245	2.2555334511076937	1.1566677064302806	0.9034094191630497	0.8331131318039097	-0.026991410112779564	0.3539654305581207	2.203524822393788	-1.2725157705603998	-1.2271852462302684	-2.1075451320843555	-1.375421043738089	3.632824411756955	-2.359886640312611	-2.900039427111088	-3.738145103553424	-2.137748712864422	1.3318266834965917	-2.989460937581731	-3.9383284946190544	-4.6867785335466605	-3.7464532757584	-4.284506310136031	-4.015330304498496	-3.9517791171436887	-2.1134176200913797	-2.9653000756737375	-3.1685731330981444
-44	-2.9243762419300143	2.4030182300932403	0.08468250163870959	1.9726507613922162	1.1316671342888112	0.503566204230174	-0.24207274554647124	-0.1395354118400516	-0.06727792305649608	-0.38884150883730034	-0.7555593233105967	-2.0469601102646617	-0.8456073382008926	1.9744374702194925	-1.9352012823836788	-2.532375329299726	-3.9341730972143845	-1.5950511653683297	3.2268037714551543	-2.677694552336761	-4.047679890903638	-5.221052156617915	-2.6035888129303544	1.6363507467917682	-3.2009999671227196	-4.387635696777509	-5.482963548168566	-3.678920974979806	-4.126720418047829	-4.33320282795742	-3.9906003374436234	-1.523878451314625	-2.4772286352556088	-2.827395432009462
-40	-3.355641118160511	0.32835799372740276	-1.7044146017911272	0.218442454382606	-0.6522467715961856	-1.7093260245082191	-3.097364656257665	-2.492205851938376	-1.454487320088759	-1.739669080156708	-2.7193248203285787	-3.9735684294513467	-2.2245278302295546	1.180609223246055	-2.4625985560231367	-3.9144439598435414	-5.477770314691688	-2.146527284924778	1.591289039408895	-2.916514150885411	-5.1155795921869425	-6.336811049674918	-3.0798988264525184	1.5230917892148657	-3.317827693191894	-4.614270198616201	-5.866536125630315	-3.5159501940649736	-3.714024772803775	-4.442981708753253	-3.7201352025521417	-1.0833104821510733	-1.9363354395616015	-2.292127365047285
-36	-2.7136301925811153	-2.1145505851764095	-2.944430343823352	-1.5413707455819847	-2.2507755699551555	-3.937646855903124	-5.332589136011604	-3.9466664691463427	-2.470120900593378	-2.790990822421199	-4.515376556440346	-5.170182691872081	-3.3337476169340485	0.06413060410520616	-2.762861483274079	-5.012775408486537	-6.243958457441087	-2.85407900089656	-0.6115533098039377	-3.0755705755784364	-5.822387203775227	-6.735848886649622	-3.3723947916716788	0.9864379142651599	-3.367873421749012	-4.600660312481129	-5.671765313133783	-3.2214386381831774	-3.2493405260064088	-4.399175155976891	-3.2033438601679496	-1.0601006719527146	-1.6137995679165145	-1.7468284324411836
-32	-1.2625081507278786	-4.251922119849645	-3.2729983247137686	-2.6472713880458967	-3.2075457491954267	-5.434559808361575	-5.958759769654064	-3.893807401362929	-2.628285639802815	-3.2735237992607815	-5.546631799045417	-5.14189146651016	-3.7393286133770958	-0.9598634814823699	-2.726836197644209	-5.420025334979082	-5.86337946365098	-3.3416678821118055	-2.457895749562232	-3.054690591729176	-5.849317535891073	-6.151300414767311	-3.3113250648818955	0.2240731710498702	-3.267664424275575	-4.288105953834218	-4.790822017018106	-2.6829388073894385	-2.827362530245629	-4.182785977293484	-2.4999186929528383	-1.4280693494981092	-1.5691058596095555	-1.2911372152155336
-28	0.37659531736660157	-5.529851422653458	-2.6546342305871216	-2.7100460460905307	-3.2993218815473324	-5.748238072187533	-4.7047109485099305	-2.287663454002037	-1.7721180871090838	-3.1393706719291976	-5.488555894345853	-3.84278606398259	-3.258331290601629	-1.5229303798372213	-2.3130915106547563	-4.925771700820458	-4.3342628369574285	-3.2437574781536833	-3.231956473773688	-2.74349402688682	-5.040220247894784	-4.58882330689578	-2.8162140775149873	-0.4749800550866488	-2.8982970641394123	-3.6407792476285947	-3.28840231065205	-1.810370083052851	-2.417525523757785	-3.7367992306777937	-1.6870468812310335	-1.8804422569482016	-1.6405879217688635	-0.9183278060615722
-24	1.4408066236358725	-5.722658619737467	-1.4632782899151966	-1.840822930456739	-2.6820182732578517	-4.97858809167832	-2.1880736295769636	0.2426598661971877	-0.22247464898683608	-2.606963389490438	-4.500136364065494	-1.789930815945947	-2.0813646263978915	-1.506884571085619	-1.631018872911492	-3.6888856794681972	-2.1179978794029357	-2.426804297995833	-2.7548513342922276	-2.1397578662254384	-3.547961941344381	-2.4168825088515717	-1.9281362246469997	-0.8757584072890446	-2.219486946224337	-2.7173027923643236	-1.453736182357196	-0.6344583018496849	-1.9224381398301482	-3.0390136165185124	-0.8815973974857895	-2.0043103644311797	-1.5657039841222338	-0.5581106529450015
-20	1.347243424828823	-5.005491720913374	-0.3670872738630039	-0.6347287877269927	-1.8528301669071365	-3.7428347969925113	0.38194137715229837	2.590200656073287	1.2993314233399869	-2.0690431542610317	-3.181977740837128	0.11870036989283815	-0.7041162830695368	-1.1282966108445622	-0.9494298672547145	-2.2186517659438527	0.0042778034586488664	-1.0917721959206033	-1.424486871937574	-1.410258528009874	-1.8239024831499107	-0.27188745072384374	-0.7983036021104537	-0.9029649473280817	-1.3440364565294247	-1.69344973136593	0.26695430211378596	0.6583415849276605	-1.272805568342566	-2.159371370585709	-0.23125195444849359	-1.5266067943176855	-1.15989041035586	-0.15271708330697709
-16	-0.03237001589708674	-3.863637437602431	-0.04434442136416682	0.10691803666777153	-1.4102520907082545	-2.8542127537190987	1.8005182697613793	3.636641493198734	1.9716010043910825	-1.894117231355204	-2.2843441905521655	1.0151224110723163	0.29310721084978864	-0.8370632508124912	-0.5937039241106303	-1.149201986272433	1.266292091987246	0.28997889087897294	0.026427363910113525	-0.8342380502619154	-0.43223357091494075	1.1981054514199598	0.3484703591608616	-0.6536074860283275	-0.5117142783596875	-0.80411851203077	1.442502852612608	1.779907579696534	-0.49284121269726966	-1.2537758318717518	0.13682211900975907	-0.48418062803094886	-0.44233691580672957	0.28431421446543365
-12	-2.281679862937432	-2.8788900302681224	-0.855830428823733	-0.21106693095323698	-1.7408812002098	-2.887539141040353	1.4400122129323119	2.7897460390228526	1.265338179254669	-2.230673545927539	-2.316708558909174	0.4947672771836788	0.5054262267703387	-1.06914305417018	-0.7753390650247263	-0.9181427932446564	1.2783772913128129	1.1826032370273365	0.9042826868114492	-0.6512886269338404	0.222058012520908	1.6284315544976142	1.2601733175886318	-0.316829650794244	0.0324490367546982	-0.22614653351430863	1.8517553759552603	2.4554977354996828	0.3061602703947747	-0.48867496724727816	0.18760523152669328	0.7853152136048857	0.3670682301790463	0.6640194041653396
-8	-4.59258459839019	-2.4897918638310674	-2.6310372286172794	-1.648377652774892	-2.7932734418917544	-3.869147767788714	-0.4883526849337913	0.31237673680592903	-0.7666776160910584	-2.915210001261018	-3.272003642404268	-1.1690086096812884	-0.11747027158881113	-1.9909766862192997	-1.4478428327245532	-1.527062889058355	0.21644473021219657	1.2391701905435761	0.8634026028768806	-0.9051371193921471	0.10085461263227224	1.1076698275256682	1.7208677486840962	-0.05728144184193908	0.1818013037621491	0.027518223901651626	1.5905381400959104	2.5416669781410133	0.9929635499679836	0.05644892514401161	0.02381181152113496	1.8222989990002114	0.9736350750183091	0.875671444112537
-4	-6.115768417176357	-2.821071856051917	-4.6952452541063385	-3.665790548606097	-4.068355550031124	-5.263200746599391	-3.0955560129211666	-2.75218772193323	-3.4545299919647956	-3.539664736394016	-4.62172459389157	-3.1598665634484955	-1.2653546301365854	-3.3673190985540007	-2.2810544910060275	-2.525385134996696	-1.277618524186738	0.47134557247367836	0.018894964781382056	-1.3842328751901456	-0.44590282327605907	0.11722469300237595	1.6162774522028611	0.07624039034668083	0.044932823514742704	0.1304106560037144	1.0190628741284686	2.084304089052213	1.500202294376721	0.44293665774094537	-0.13764521444854552	2.298651927866506	1.1826691597642915	0.8627294876251317
0	-6.349925502003868	-3.653731813742743	-6.14809225437502	-5.3719401223929655	-4.86289595329854	-6.267262442977953	-5.285612569815512	-5.050635801915118	-5.766910061581309	-3.665268173500604	-5.5942120410822715	-4.540334213237686	-2.4305696426060774	-4.637338149760352	-2.801994316656113	-3.2416655935459278	-2.4388472972330053	-0.7554312329292978	-1.1654552191873302	-1.7160887674873606	-0.8698390104267009	-0.7354111056833961	0.9828816031436151	0.16784903364719056	-0.10454301509688647	0.3519561579878152	0.5682395682293344	1.2902232375948555	1.8638807488113043	0.837749598295347	-0.06326951070547132	2.1976659242457384	1.0152935956116789	0.6687998158735461
4	-5.374431596538287	-4.551082599593605	-6.273905738249266	-5.962555870260935	-4.634322154742333	-6.249853118375911	-6.262792094631085	-5.577138409838756	-6.762638074966996	-3.0627517622868266	-5.58239935419193	-4.727425563320746	-3.1473953644443378	-5.17785309437957	-2.636513941783994	-3.139161340417275	-2.7755649019736954	-1.9036205958941985	-2.122201198941884	-1.5711005886465725	-0.7232632618763284	-1.042405602684341	0.01689307759907462	0.3724688282145749	0.015850322281039102	0.8956015087404104	0.5095278011809121	0.4354170847866791	2.1880710069726	1.401614900864949	0.3709794273546878	1.8124542190568054	0.6938713771467638	0.4232397962851667
8	-3.8066899680349056	-5.080028521109708	-4.884614455288384	-5.131110178390407	-3.295130482937309	-5.090544210933012	-5.83636234717256	-4.183455933499069	-6.028925880469344	-1.856160755239487	-4.462274063288285	-3.7705252075366134	-3.2052988925116463	-4.624036300428702	-1.729749436779653	-2.1060976928942843	-2.3083338679207963	-2.5277185376244717	-2.4317498145696503	-0.866424915987231	0.09198972559591904	-0.8039420822826803	-0.982919452092952	0.8107018450295906	0.518667875410918	1.7519143775577375	0.8099877217823397	-0.2512690716598418	2.54977797818157	2.1594195311385658	1.08811628543789	1.557185407521732	0.4999622987998961	0.26601895622800964
12	-2.4887258943665955	-5.016064631195517	-2.4263989864123836	-3.2276866354513385	-1.2807272640317944	-3.23925470488014	-4.407707203227078	-1.6565964180129307	-3.8811631104707804	-0.484501599042254	-2.650150292381279	-2.280529970133329	-2.7320666244193337	-3.074772827014777	-0.4138046492619454	-0.5182184563904462	-1.5193920097137086	-2.4901688036036753	-1.9844325730766423	0.1566904481269624	1.2666317192523187	-0.40125653046389914	-1.7335431532007388	1.4802334271251967	1.2563662497271502	2.661617272332797	1.1563463181864633	-0.6708313209762966	2.9113099501539215	2.93956183645039	1.815440769380381	1.7094168619866275	0.5976318105867668	0.26092860036775367
16	-2.045531506142292	-4.430265415450397	0.20590808935630697	-1.07857250894984	0.6462944133653643	-1.4669592343486522	-2.6905848912019215	0.6841720921408871	-1.2228494851709637	0.5143882619268499	-0.8712981321271185	-1.0635384294361006	-2.1064841694100322	-1.0715440484649605	0.739425061266371	0.9635358428469994	-1.0486023399581244	-2.0169222303966525	-0.9900950168407655	1.0452040407494803	2.2533719482750163	-0.3520182958298366	-2.0937256760187823	2.2417163792279053	1.8869155597730445	3.2265040793019804	1.1375702590831724	-0.870564398951786	3.110060683981348	3.43463920679773	2.199875587631273	2.2431538048376796	0.9322532391852882	0.35204750210570285
20	-2.5509753162827953	-3.622443190011925	2.0529708810472154	0.43239775190856	1.7488666728687767	-0.45996513846615633	-1.3566077913365522	1.6621324974056917	0.8760510064895083	0.765761909935686	0.21794244592000883	-0.6850720626700786	-1.7611783698439183	0.6460752470870785	1.2010335891918027	1.7396864847129385	-1.3236328330000062	-1.5617662628797342	0.14165852928159067	1.3749321664428755	2.5642690593827764	-0.9971672271347995	-2.133056396820971	2.8841330932279075	2.0607168622440897	3.1150507848293447	0.4802525329385562	-1.0005147431862234	2.941743128025083	3.3587560568886086	1.978922600518227	2.849543087440605	1.2653833595752948	0.39125028153820424
24	-3.4817414195846923	-2.935360901097227	2.4945478376349777	0.7987944463589398	1.6652778345025478	-0.4748838531902242	-0.7713513354853864	0.8357439616083636	1.6895713763494766	0.25195819075867265	0.35600793271780456	-1.1992158859493218	-1.9691256234998102	1.4985580406500985	0.7734653334162979	1.5826091726400382	-2.324531072469746	-1.5540165861948936	0.9924071406104101	0.9990458463240872	2.040192837332529	-2.289677614153202	-2.097144598434467	3.241291037959105	1.6360710817991881	2.2619860115162074	-0.7860537151517882	-1.2303611009051725	2.3060400427770515	2.626171343848681	1.128762719165529	3.139995567023445	1.333353873701171	0.2332842642139466
28	-3.9967615503492104	-2.55425118755138	1.4970178566329908	0.1222524639857758	0.5581132159447204	-1.2393590180577478	-0.9252186394220125	-1.3006851640287078	1.1741895646013742	-0.6791074258824644	-0.22355870846095152	-2.1791369859990626	-2.716376774605431	1.3467355932566187	-0.28297930884441436	0.7413214426397569	-3.6100728420664727	-2.160582536964487	1.3161151375920457	0.156082540356433	0.9428018903770699	-3.805334319997557	-2.2803189696913564	3.2945957100657344	0.7946072796786849	0.9455809569327059	-2.3246085585077587	-1.6685006576374164	1.3261448111430783	1.4448333942174418	-0.09373123175082773	2.9071643279109702	1.0323352787656743	-0.15681944747909185
32	-3.4071838769720286	-2.4017441212097386	-0.39729493756122725	-0.972206232477361	-0.988709447271815	-2.1290392821918314	-1.53072964758639	-3.608294954726601	-0.035428438246208914	-1.486272688927881	-0.9525903439313054	-3.0043189449752488	-3.712935915155767	0.5561962113642942	-1.3618260587641733	-0.2063689971720302	-4.57421206273101	-3.1920299449438287	1.147986051522085	-0.6310591681760158	-0.17731966033512492	-4.960871683947171	-2.8657870220309407	3.2028908648688	-0.017076557459036374	-0.30962568443326666	-3.6451370624064108	-2.3136830271480138	0.3597730985141151	0.26132607394043483	-1.2436549632144431	2.286505693384843	0.5180239068303905	-0.6502719505104734
36	-1.5791060884661432	-2.1960463468419906	-2.3215458334483525	-1.6860991673814976	-2.2561204376479598	-2.50978326163826	-2.193726295654611	-4.919905173277896	-0.9783788298700714	-1.6966305928309826	-1.2479099003756364	-3.2190577902582804	-4.5311584358255494	-0.19884619066579304	-1.8090250446422456	-0.6674337370233879	-4.777348983147093	-4.209729184012569	0.7864518741778825	-0.8220716098057248	-0.765785274956379	-5.315667615821173	-3.8160335921263058	3.2294022955422217	-0.3044816545905259	-0.9717499589227574	-4.335149277232291	-3.054919235145957	-0.13477139140911695	-0.43561053166080926	-1.8835989189275364	1.7037764744657728	0.1420118060102825	-1.0001568768998954
40	0.9626823043359708	-1.6432838398452478	-3.445929518582579	-1.4654833041384503	-2.702066414686727	-2.053344244541146	-2.574645274337658	-4.630571830502533	-0.8907165504855319	-1.1143274279116913	-0.8100976923516726	-2.75472544928278	-4.803804862291725	-0.28736892270013764	-1.2516097990860828	-0.3389400235201742	-4.165291775677497	-4.766906726245967	0.6396605952325464	-0.14982362053714463	-0.5488676414937285	-4.790644156758546	-4.874520289511867	3.592324247827226	0.20980596489387485	-0.7654010038124823	-4.249001969100182	-3.7174935247023657	0.17351114706101095	-0.3595656445484981	-1.7912845566346678	1.6244959790223212	0.24961064692895965	-0.9731015538442717
44	3.2702772534773525	-0.6511712057839293	-3.287787667556678	-0.2690197222593281	-2.149212116537262	-0.864481983386393	-2.482302421024659	-2.9594550058032407	0.3779699792855857	0.12146882682173103	0.25323727663000073	-1.9020664643902487	-4.384976375952925	0.5549322352703785	0.210213452046853	0.6552069170621923	-3.0621466559345945	-4.651603686986299	1.0156301234352312	1.220164891977058	0.33237513815886505	-3.689878692847648	-5.681406960448307	4.3195147405286	1.415382739308277	0.17761503115156363	-3.5597188382873544	-4.129939545694731	1.2856310573543743	0.41164263978978854	-1.0732687684618267	2.2554759922302754	0.9566734409020451	-0.4934236394822219
48	4.432883251442323	0.5717311487068166	-1.8494251919782942	1.4394872152224556	-0.7851627449239351	0.6235184653752301	-1.900998587577149	-0.7623316030328783	2.2802674712784006	1.6444929796661085	1.5278284511139175	-1.0828759642917578	-3.401830426210398	2.09306978650933	2.058507198858555	1.858771200255479	-1.9625493238490554	-3.9901900190700257	1.9495426367175874	2.7573437621118626	1.4059439862040557	-2.5259613927009297	-5.9401564448108966	5.193321214915468	2.8397252487965696	1.36611544740996	-2.6566281251591137	-4.18479679958455	2.816802017729567	1.4511353932936328	-0.1254206892661679	3.380951157616873	2.0390074201602286	0.28501975464385865
52	4.0385422604640615	1.6010023315062585	0.4338467408193914	2.949747554961051	0.9827983354550741	1.8980820131063632	-0.9692634319629403	0.9654787158431928	3.8641836545657737	3.0563471240125915	2.5379548008737745	-0.5813026413546175	-2.177595371470484	3.7184975053364275	3.6195969490217967	2.741347544424588	-1.2562643257848414	-3.1550264278863747	3.154632798813272	3.8237576388139574	2.1176824516235806	-1.753889794689896	-5.548165307342327	5.823367580970018	3.8623921773669276	2.178432459099596	-1.9487670610817283	-3.8724384210091656	4.135396470119431	2.1788239424054927	0.5492130504093298	4.437808025599811	3.010633461026811	1.0313189003655305
56	2.3816952645251277	2.0245246836092696	2.88279151188669	3.663597812939636	2.713187210862263	2.6147038870600063	0.07002530974351406	1.6038420159854783	4.2895765196264035	4.087588776758688	2.9910299702468373	-0.39256113668511744	-1.0733238431534602	4.757019030958432	4.3844637760091505	2.9729354306501876	-1.0401840183698816	-2.5372290547208216	4.128018368789181	3.9825911421360862	2.112224335105989	-1.5572242697500274	-4.628290641543449	5.82240103205278	4.01133631647147	2.1649119799314613	-1.673119302340111	-3.274987212495612	4.64745758790619	2.1489541476353256	0.5860488399968093	4.806691634440198	3.3667035017843148	1.4039959872084247
60	0.310692279746507	1.685191269434571	4.8243813392905555	3.369556895331798	4.066378106341048	2.7228159835735486	0.9466890668809275	1.1724399298630548	3.2959196484321427	4.656673419639514	2.898517362905946	-0.26756271652379465	-0.3313164106587152	4.799427497190472	4.233663071433831	2.575143807585301	-1.109200594008925	-2.311864847068376	4.383757103342478	3.2078406729770306	1.4081517422409622	-1.7862064793312045	-3.4481720837319467	5.0090446345701745	3.1992249408057902	1.280477997407973	-1.7919228031693113	-2.5184562142683404	4.097904194976052	1.2915208307083397	-0.04373249028012525	4.169958104095891	2.868859522252065	1.2499901024730458
64	-1.2000149458151632	0.7898452262010229	5.7925877424857175	2.2980017604029372	4.848114955105878	2.420468801109363	1.4560476504757496	0.22128944043079218	1.3533393110439011	4.820104109992272	2.518279546101672	0.08541411884915798	0.0029890369548433533	3.879884948471444	3.4530079277596544	1.8749536228525618	-1.1177971334845962	-2.340069288067723	3.7009029294988918	1.8868386697814783	0.379132240053449	-2.069809431572329	-2.2770764770237615	3.5293877035677905	1.7761878922440724	-0.07284904252971597	-2.0228786417433082	-1.7072374777605626	2.730347388049773	-0.020111054131277083	-0.9830427741026808	2.7323369910873523	1.7155698494512563	0.7263414841433369
68	-1.5355687102649074	-0.19243209015422372	5.6121282435822035	0.9517809128572992	4.971649634206824	1.9824769446864994	1.5204383096454541	-0.5521429167158669	-0.5919514879540135	4.658803928056987	2.1623966639282908	0.772685883478538	0.047214880466464354	2.417290204620806	2.5386464531700015	1.2956418958377054	-0.8113317469139866	-2.276145452474721	2.2454767170480014	0.6166576727556806	-0.444066523384455	-2.0331492372679145	-1.271125790247747	1.8267557574881048	0.3688650419935863	-1.2205659120260943	-1.981077666049285	-0.8740902520999275	1.2085732191089853	-1.1196289034232088	-1.6184279877809276	1.1650903195529365	0.4909594046594945	0.26697564057656165
72	-0.7407940607441157	-0.8018519262096189	4.37631367532172	-0.17435920194473406	4.414291370690923	1.5762163360854387	1.1921569078863945	-0.7156193834356969	-1.631610508614039	4.1932735337245255	1.9920002171767985	1.6031106669959307	-0.03393467879668363	0.9752873157673115	1.9181846331804258	1.1114619942259938	-0.1860924805472744	-1.8212920381339184	0.5080891834782455	-0.08524899163180526	-0.6391134245948898	-1.4924037418832878	-0.45092645173665746	0.47088980555855403	-0.40433204071957723	-1.5202728471519755	-1.356033083353079	0.030339529661230213	0.33269697343751725	-1.3436584438732135	-1.334254857509321	0.30193921847405064	-0.08976262785183184	0.3958564092655275
76	0.5030859100037864	-0.8760756232077384	2.362301820512812	-0.8335680940563316	3.212362281318276	1.165000316539553	0.5901309832932351	-0.3147025696438374	-1.3931002581709924	3.380518427896896	1.912869090972777	2.1575829928283836	-0.15325041076591958	-0.025533590401317953	1.7416268543140576	1.298346993029362	0.504060386338759	-0.9554170345979968	-0.9169874764178919	-0.008021309020234953	-0.09199470258374523	-0.5342995510916666	0.24708521303736367	-0.0761535612806235	-0.20119471797214233	-0.6520068629015704	-0.047346852600244474	1.1015222044790556	0.6824788433963829	-0.3331906787089453	0.21846884433901367	0.7422218304014606	0.4861667441968176	1.4752781353896607
80	1.2112181156095707	-0.6820107085174989	-0.07784564028397699	-1.1097496719952096	1.4835200272298137	0.5363185988236906	-0.20894840306933404	0.19796715626802613	-0.2533610754768867	2.1764411871319673	1.6214055974078092	1.9902245948134227	-0.36230218319019436	-0.49040639276666464	1.8401386691364452	1.5519593914903096	0.8809712506940048	-0.0005635835681782665	-1.5992208678877093	0.6920095664672603	0.9600391959747241	0.5406616316496395	0.8846969582155737	0.3600123217553171	0.9180874801344445	1.238544937821461	1.7896197989102942	2.408692592261531	2.356663221131296	1.799239630924886	2.9546904489305046	2.5630788738389065	2.2813274802784096	3.514174690910887
84	0.5617136941079323	-0.7859665731613465	-2.5968236857654277	-1.3169908490308748	-0.5485969768024869	-0.5610446915766624	-1.243055459698806	0.24891628262140184	0.8687363245011401	0.6245328172174567	0.7802317122787615	0.8563499429062836	-0.8060176948224533	-0.6285901053770738	1.8686740351227498	1.4635493718389507	0.6443076117460824	0.5427415357238256	-1.4358565771090634	1.6182012517127744	2.0595838971590594	1.376532908778922	1.4632409774076613	1.6261426169347288	2.561250441760393	3.610155573313212	3.8035752677253867	3.924493541345879	4.937037455491722	4.515709865613089	6.364510520125004	5.292359338749893	4.87347744664951	6.134807094343865
88	-1.720085497328039	-1.7240182117803902	-4.883931624479561	-1.7880504086173206	-2.5721850330261207	-2.2490749302347175	-2.649193280207182	-0.5308352695414226	1.0247114870902814	-1.0975364418929883	-0.7711423019966869	-1.1470084161409473	-1.6039804179702972	-0.7643651942981907	1.5353740414955626	0.7552625517850093	-0.2676422887243689	0.2988786689841734	-0.6416566951763898	2.359248632196546	2.7571303774841054	1.7304371551693352	1.9273955773328906	3.3456556712557903	4.214025963634289	5.764483914126497	5.57595728420087	5.492443070849711	7.683537940653422	7.079646569497437	9.68993661341368	8.142410257762704	7.542465190918043	8.71528623287883
92	-5.215684400741575	-3.661779871278576	-6.6657991241006505	-2.6705462865161858	-4.26085184928877	-4.4027657397690945	-4.539112079604297	-2.1229112094686555	-0.22962033690653147	-2.70983003885841	-2.877615682966042	-3.586117258554567	-2.7340493133181365	-1.1063771219930432	0.7812278250997329	-0.5475447760109234	-1.633677359271052	-0.7255604248801721	0.4066120673880913	2.68715118683437	2.819664232764455	1.5699270924031974	2.2151331845623554	5.099176393986169	5.471451745524291	7.132504922025115	6.761675817584171	6.8546099489718495	9.853327726282407	8.847540833069822	12.189187972765298	10.365606281812758	9.575281119013216	10.636859866943338
96	-8.961423851275947	-6.2290530047504475	-7.7047953411124475	-3.8336772821910126	-5.3667898042602165	-6.634040815770188	-6.819725019402943	-4.145102013612993	-2.5693435604075625	-3.916573037749543	-5.070785986495592	-5.83558700995528	-3.9904727835041265	-1.6102902848595788	-0.17987240805512028	-2.0910980648651383	-3.0357596797591495	-2.089089865178436	1.3690420354610426	2.632734530477618	2.3254690111575638	1.0649914714627664	2.3153312147811818	6.581310732437743	6.178503020899803	7.480217437931893	7.191326600038225	7.736259440917041	10.98931214419069	9.494134878983715	13.379056896763121	11.551306695384094	10.539949390503443	11.51670262290066
100	-11.803213089706588	-8.636884667525017	-7.8280272286187	-4.922650324790741	-5.780239090630909	-8.386061647223226	-9.07824990841507	-6.031668170959246	-5.049008833535437	-4.494908321476155	-6.7149166891316705	-7.290347080897842	-5.043329226158419	-2.0148656317385147	-0.9699656938859109	-3.324797383497173	-4.024685372681664	-3.115248195412342	2.068174833798136	2.419161313624871	1.6104525287022478	0.49361434454269926	2.286303276011697	7.6615381047409485	6.426680548654563	6.952028256983949	6.904664022179215	7.950699309302634	11.047789545776446	9.081480003316583	13.163054433014041	11.725770920712657	10.403865787941749	11.320631952314148
104	-12.825648275418644	-10.024565671406712	-6.986274701599633	-5.522994027498652	-5.531899915079926	-9.111015296821117	-10.637690517270832	-7.260682564523763	-6.585722429814299	-4.351825703124025	-7.242823105645514	-7.566280822724369	-5.57832811854547	-2.0219366499396565	-1.2388973204804834	-3.7329137231039855	-4.294694412832476	-3.2531952775835906	2.489068263445321	2.3065891207633364	1.09581362924475	0.10719507905598807	2.2161896172836872	8.3389568118319	6.429160101870958	5.944289192450609	6.101414188239209	7.471795540064973	10.320521328618481	7.95581672567155	11.798380821957558	11.22457692173391	9.45514676567883	10.3070401885158
108	-11.683628052777065	-9.860039686104328	-5.3220591410735905	-5.3523716791440314	-4.7407569765561295	-8.472043969699012	-10.798153849995582	-7.522239666066764	-6.51229570651946	-3.535484305038604	-6.3846316176389	-6.621293051214971	-5.4407791954003155	-1.5084949693740946	-0.8362904765949294	-3.0609278601613044	-3.794557561830796	-2.3943374096500696	2.6837332180929994	2.4394373832147918	1.0847665044099706	0.020585533179523337	2.153234476375129	8.640648820042369	6.359206183590544	4.887763487873206	5.038501249943802	6.439063532784675	9.219081855386165	6.545404894515701	9.737364744397452	10.438892338146283	8.09783647400073	8.85209844261642
112	-8.702811219177416	-8.180415132849856	-3.19342493204663	-4.3817696460721045	-3.555254927242106	-6.494418604666402	-9.175333953580115	-6.76923511703408	-4.8906822081111985	-2.215882057317423	-4.292804230342131	-4.764394271265738	-4.703728187129355	-0.6312432273186176	0.12223780869377865	-1.4345669710179592	-2.736954920534311	-0.9569235419908911	2.6677517823575916	2.7773740221473506	1.6249414641362478	0.17265643135825098	2.052334065024043	8.548940636985336	6.247582896671438	4.053138245839808	3.922375907531645	5.092904078023001	8.052388170892819	5.170008646309776	7.4309811404487816	9.59317300281814	6.647898180389743	7.26339719845856
116	-4.741527545401841	-5.5481662610166405	-1.0963025065399636	-2.8361310887256876	-2.1165623611417894	-3.595708837967606	-5.954123005139404	-5.171140180883335	-2.432587140617341	-0.6456226690204416	-1.503171916981223	-2.5458812649345726	-3.6217002777213203	0.24033483802198177	1.3215903010380001	0.683304963770884	-1.5043113193678725	0.3184725932186849	2.4014983116553053	3.1374277989330044	2.496106618301208	0.370158015747112	1.7795025065316632	8.010045031351288	5.989414199966073	3.4670991810047167	2.8411602902205586	3.668042650498604	6.913991433807277	3.947608460949995	5.179995523725967	8.672966935195149	5.233598219055722	5.675030217147756
120	-0.8851641990247883	-2.765061371497895	0.49997782580982086	-1.0934163304379365	-0.5608575329925402	-0.4751557099743584	-1.9167305182701566	-3.045243255556129	-0.09816305314552606	0.8897379614300802	1.2523201672407225	-0.5716133699290379	-2.5050592359238686	0.7265684586300685	2.398110860491983	2.673516505167134	-0.499783067633509	0.7578738312660264	1.8629741621665596	3.305189362764208	3.3175458824321074	0.38373377822313615	1.182851669186133	7.008703214116249	5.438251004793906	2.960438005602395	1.7607321694742564	2.3054327906576133	5.718297467099552	2.822383396652243	3.08806633169618	7.51987741479099	3.8326132200751686	4.065730084644686
124	1.9262682150844552	-0.5059054481131229	1.3493094410208113	0.4717538940916813	0.9576923823019078	2.117440695184982	1.8190853549806152	-0.7943350056620384	1.3974821532252368	2.1288695281639396	3.3133180057795735	0.7068574410711915	-1.5840738971770505	0.6642487628378562	3.0953006666235936	4.003840436363443	0.002248313737944664	0.11264167697600597	1.1518158883578136	3.1497566620457977	3.7227666284030416	0.05406335727631824	0.1899152095291314	5.6500954485339525	4.524541843435029	2.308695310485802	0.5843411669283058	1.0280942890913232	4.342628468039823	1.6784765677989972	1.1199437351561174	6.015931114266801	2.3986785351273907	2.372259849281005
128	3.1967191615457593	0.9417560672824813	1.5574758013503445	1.6250491101244404	2.273538106900249	3.6560997870644014	4.256549347621166	1.1605650157237246	1.897493953682494	2.9058206008025462	4.336364258308325	1.163291451378157	-0.9238631701985976	0.21427349692128406	3.3549685393505637	4.435705173737444	-0.03938757618258031	-1.3044944968666854	0.5289352522847146	2.6849329403800093	3.5241775423718384	-0.6280411466000785	-1.1155222626178423	4.179973114904346	3.327783337774302	1.3868943417819366	-0.7501114587918806	-0.21138463861024887	2.778037541051315	0.46711560965858284	-0.7813057283702577	4.234734524525608	0.983458754917518	0.6175853594446226
132	3.00352262692306	1.710654015990462	1.54940890874681	2.3280215204589805	3.2536184705604274	4.037249554931436	4.9413080090698065	2.4585077700532407	1.7847936108350158	3.2132925906115815	4.408632267311656	1.0406720612000702	-0.4387916613467627	-0.21353463774651377	3.3084552204524957	4.101910103932003	-0.42707073580682087	-2.778638355869134	0.3197431556258316	2.0509731717779673	2.7920293737491435	-1.509834166529527	-2.4914090570490304	2.9070227072753414	2.060063356920422	0.25697845155684973	-2.1909353677746943	-1.4449176751849413	1.193038579789686	-0.7247488480389594	-2.589081996102967	2.463472836950495	-0.22753076197875508	-1.0280823681623983
136	1.9209740113395821	2.1797587816517896	1.8679280233906246	2.7081723144821024	3.8651204011606985	3.6186149028969568	4.15152214909483	2.904021017372031	1.6756553607596112	3.2306494631263534	3.987706889574952	0.8484714605844085	0.012933977846928681	-0.17944848492138682	3.1942608275828497	3.4310872468152427	-0.8135904649220473	-3.559914341521724	0.7259191852361695	1.4439451658032414	1.8217710210581242	-2.332913154434057	-3.622063389216375	2.0659823365502534	0.9789246296009017	-0.8473010637825539	-3.553464880554731	-2.6210880213364907	-0.12227231978301646	-1.6939496951250437	-4.155106534003993	1.0846663686070006	-0.9859917735001426	-2.2904162349093937
140	0.7721923570210438	2.71846174507441	2.887087337834096	2.9653479978080157	4.219944466426964	3.0657505911671947	2.7554535796215176	2.5589911873105304	2.028778071049703	3.281054726899849	3.69066976569111	1.1365165681754934	0.5177760707180401	0.5417337403925077	3.250557891268228	2.952418081458825	-0.8544156529789162	-3.24417113438738	1.6627207952481395	1.0367499563744624	1.006531593642529	-2.836042873851643	-4.251055706735378	1.7052307085853313	0.2823782556080168	-1.624498720835974	-4.577620971566398	-3.6038286594955675	-0.8924121238111765	-2.212116951125757	-5.2573203907792765	0.3935595740872292	-1.1128745050943147	-2.915407173425437
144	0.3149251929915114	3.5039265067326597	4.5967402342134385	3.2739617741894853	4.54890011592602	3.0649547499521628	1.801105137092356	1.7706589654086662	2.9069268630067846	3.7125053312029968	4.025628556578209	2.2358691635902024	1.0546562645033866	1.8293861104554017	3.6300129798792877	3.069559327958726	-0.35802864937987805	-1.9566025684548287	2.739625923869242	0.9297435856233568	0.6760942322827417	-2.857703201708333	-4.294521797781642	1.6673247772082562	0.04342432309154363	-1.839087839251708	-5.03211687724874	-4.236522663864355	-0.9896714066314163	-2.1332120841527313	-5.69910524836749	0.4554756868306863	-0.6083400830168538	-2.7986020971212207
148	0.9702689623177624	4.488432872884105	6.582249147962718	3.718516340404129	5.107761370160783	4.027093877161667	2.038412804225451	1.080759641779706	4.013053883910982	4.744945990980368	5.182515131263552	4.0844559566372025	1.5143399200353018	3.2783703721245216	4.365895260278443	3.9004528424014486	0.6271857007404219	-0.25667944485708893	3.4260997685716092	1.144726750344706	0.9701760386767921	-2.399642223021686	-3.8797726533209707	1.684886808909827	0.21177621132311217	-1.4228676521616939	-4.820169436682781	-4.43560742212026	-0.48986038441957824	-1.4657688103862037	-5.408611283951991	1.0808827849755012	0.3265083423954028	-2.0505180307116113
152	2.694862358918783	5.4967703680494795	8.23576257533707	4.286865223551706	6.051034435253612	5.911734566067957	3.5971119313020767	1.0240963671577523	4.94266127292137	6.350281222522989	6.968291265060564	6.222280963446745	1.7761537983873468	4.419496048259569	5.38191555571739	5.244739042391852	1.8265361739773067	1.1641110152417493	3.335141888781114	1.6447657305199122	1.7923184588003314	-1.6272211033745718	-3.2818353093258565	1.5384314021369523	0.6674470288591392	-0.5054202663058762	-4.036755074799628	-4.253379334201435	0.37211805488095734	-0.3824908425687731	-4.492236126048331	1.9222946118458915	1.3625948394705454	-0.9685919856412407
156	5.038339125310422	6.370432360777777	9.089731193481299	4.913913714400201	7.343179684219042	8.255031564851409	5.9661521760990235	1.898883695576568	5.460566030067156	8.239489534556176	8.911603905112667	7.977146128541283	1.802767749049523	4.967562662934184	6.533283217147623	6.689110262194872	2.8546867298531557	1.8267583800924683	2.4630577502053272	2.359369987253002	2.8620657848577187	-0.8021160343899518	-2.7833576132119555	1.1825960844699814	1.28948044451354	0.6382234080413508	-2.9412627145894064	-3.8635251424519574	1.3179528679951207	0.8371832349621212	-3.2110545554152052	2.6350219183197434	2.173361772772066	0.0750494075906889
160	7.340456944052577	7.051312905628543	9.079071975673738	5.528760419238243	8.757276512924182	10.381870243563688	8.261125543717858	3.602362385237795	5.62595032225214	9.972351049040984	10.47816464639674	8.755534149952506	1.675557370723848	4.962451922285466	7.653831939446684	7.794891814578823	3.3761019621487693	1.6609965520884302	1.2323967187284022	3.199257842569623	3.837702264633243	-0.18102291180683133	-2.5367779667703	0.7671418766680419	2.0002148100897137	1.6964250760163158	-1.8575351191352478	-3.472608319098107	2.147704595865409	1.9059127521078938	-1.8892067623124258	3.0177259369000176	2.5578739578516814	0.7744243721483126
164	8.96798608423057	7.559617977129619	8.579041459358068	6.078518375308734	9.960515950804263	11.69435021308935	9.640586828687201	5.630931363194153	5.701000199229405	11.131704302339484	11.290418596372364	8.30546281624996	1.5498806199043715	4.723608005041809	8.588683106672594	8.278780916292911	3.2410273470112845	0.9710296367924655	0.3038851015047976	4.060286511660383	4.453984249313852	0.07905985395021148	-2.496559375181779	0.5431526289578035	2.7685189177232963	2.438653462928685	-1.0450983021099156	-3.203630916136463	2.806970589226557	2.627508633655485	-0.7945229987111854	3.068238489033838	2.4989857610551693	0.9961860154749844
168	9.511877035921342	7.903341273380942	8.179009416911022	6.517847044701245	10.6476554601778	11.900668114179776	9.656143164097145	7.265367012754123	5.914003834098117	11.488158197008373	11.252963991364387	6.819805604882476	1.5578775366551163	4.642314899167953	9.219096160500875	8.108289698156467	2.535224669731375	0.2155169690174488	0.24058604179675344	4.830997931681076	4.6184449079257295	-0.028830481620358644	-2.4622876581967734	0.7090053540448945	3.583252182496737	2.79643797168418	-0.5991607889306848	-3.0235659999803652	3.3734564696017375	2.9601333066590723	-0.041714604838671454	2.9382731840335996	2.1382017081635714	0.8102777579830844
172	8.886247612452078	8.001097658937354	8.31541345404222	6.784704191244292	10.653872463030757	11.086775751732704	8.385831811713553	7.870367030300132	6.262184604093068	11.07027241772896	10.540621730894813	4.838447081747718	1.7157872871948479	4.9470834607153815	9.476792311583653	7.480838279910307	1.5300265511983946	-0.25575902993479116	1.2077668874764995	5.41348360602221	4.432833183540838	-0.3689423492176648	-2.21292209066535	1.2935897079232699	4.426470745354997	2.8834142612137312	-0.4209261227947619	-2.7618703772432562	3.9885997671514333	3.0282349510031232	0.445100365945474	2.836917631616158	1.6997917847633088	0.4439812589403191
176	7.307082634597044	7.6885986134006545	8.989770866585237	6.790744764349158	9.997580503017813	9.619084333929479	6.323957904108004	7.173942547805505	6.494788153463076	10.115629170627484	9.476837134276412	3.0047306938603175	1.8971806716703454	5.56842516446891	9.357334113337894	6.7117776701271445	0.5650888071098175	-0.3552652886481006	2.881886474962706	5.759874806166943	4.138525952380816	-0.7177746277806888	-1.6499870973890536	2.147734159769143	5.271804796260285	2.9516591951234603	-0.2676509015955172	-2.2092521134865057	4.782743441904226	3.0822496336365246	0.897513208507465	2.9452531263377546	1.4103832209264293	0.1900680954425943
180	5.188833700430949	6.809241277669158	9.730869268644808	6.4380264119682025	8.833898522008074	7.941985587095631	4.106780518653593	5.384594903702568	6.279360278488181	8.931520439486212	8.370871522749859	1.7964682533684064	1.8863877010402463	6.169851764360366	8.921556450253556	6.088374599343908	-0.08243623355079491	-0.24248440502457314	4.597055423574215	5.897972092042646	4.008900155436361	-0.846801934488465	-0.8750705100854286	3.0373763961399556	6.099808200694436	3.2951128399625	0.13678356970584793	-1.2464988200187865	5.82411573846935	3.4120380792302805	1.6040577847990203	3.372036925385351	1.4405709468710257	0.302233218383663
184	3.0104312820722434	5.337382303113761	9.833768819776612	5.6664132928836235	7.3656225018503685	6.384556754205251	2.225483411892181	3.0909178178950354	5.444883332810608	7.751260737876237	7.399360161219534	1.3594137395869141	1.495149131814711	6.3331827957473115	8.280005434112086	5.760732636212384	-0.2856836609780131	-0.15681950708373646	5.6673488473856555	5.92492483550487	4.236519326004256	-0.6015091523242614	-0.14034588599533873	3.7804093265454717	6.91345070047124	4.13423012643341	0.9801354383518119	0.07428830098231236	7.106130105197174	4.240986813328182	2.78651117574977	4.1541218652747895	1.879873151801323	0.915845570636168
188	1.1845425337448523	3.4513163479451996	8.753611542535486	4.503962505413256	5.773639187540883	5.068877207356124	0.8665229060229943	0.9890308355156325	4.125648964956052	6.668769819588756	6.582957727978018	1.5140905342021913	0.6805880648595917	5.787226662329576	7.566452960938046	5.714761719580403	-0.08024349043375338	-0.22215035501659314	5.71746681677206	5.968071445655945	4.862728106619276	0.051821771878296896	0.30615639609287415	4.3444704899773114	7.737921218409183	5.525629029628229	2.2823014201715806	1.5426890811117984	8.56586168033861	5.638304219315676	4.501867282945401	5.280436025639128	2.7365138461640868	2.0163156935329494
192	-0.03616533419299688	1.5035715065187882	6.424608691207401	3.0878214758160607	4.198598374256735	3.9470057387835475	-0.06623790396417788	-0.4251657713646089	2.699787848332006	5.679142460789717	5.851858601100721	1.90730058665334	-0.40360638397359133	4.552560794780303	6.9090146843996765	5.827517494747382	0.3887739767749403	-0.35399731904299503	4.839407908619072	6.128568633818844	5.776711926180585	1.0235151026633704	0.3881648173068738	4.844362723517451	8.598172166096878	7.331068974105576	3.88919424028754	2.891933195442101	10.108455632437588	7.481382351106443	6.608512384895921	6.703725321056898	3.9436788459391643	3.454916230061965
196	-0.6045296176906284	-0.10549457344600074	3.3254275238001476	1.63903593603212	2.7583262850738595	2.919012062332351	-0.7961595038340067	-1.0528442833067895	1.5643767078957265	4.774047839509188	5.143739687330688	2.207800144343443	-1.4591239653941301	2.936597816682483	6.405702574769538	5.960865482539373	0.9435011720678091	-0.3219684056259354	3.510397186953139	6.434549315419364	6.775701505720146	2.1346619075285878	0.27735742856571577	5.444638715349067	9.486387228856792	9.256776786321268	5.534054265355248	3.9262566467338833	11.620038003193963	9.48336694230436	8.80588433903437	8.324998834572218	5.362068639568768	4.996795641681179
200	-0.6702667457824095	-1.084585783127468	0.26740243963439825	0.3998517383970571	1.581880803882722	1.9524102161704915	-1.4902222118900164	-1.1776607006857502	0.9003368593372806	4.025330056517927	4.474093902735981	2.2454240265421532	-2.1666991655958947	1.395950909904823	6.114928706942881	6.041888698582367	1.4395039045229507	0.07916435579340009	2.3423757493961284	6.8329591578582995	7.657531242110684	3.1780903259146918	0.3158939770829223	6.234513267035246	10.34616086255033	10.954239817619081	6.939377290371603	4.597519862965132	12.975197759293998	11.283558817031771	10.734240504820034	9.973510717006807	6.788203222302353	6.387439234819311
204	-0.5094359504235452	-1.3690113986737054	-1.972667808320579	-0.4389345932845732	0.8197398165033539	1.133540031432215	-2.14829873496303	-1.256806728050928	0.5858046397677811	3.5969970135472398	3.9442396064357954	2.041230434986159	-2.3286318720199395	0.34855425269817114	6.062446578932075	6.095027908195518	1.8032078697454335	0.8564489462210055	1.8054892971230962	7.2284107025752125	8.305713632594543	3.989772071301916	0.8105114081900141	7.155156117494049	11.09101578773274	12.14645954880091	7.918148020780082	4.994499670770227	14.051156962204903	12.571140257567562	12.096693008399216	11.412151307857009	7.984330157148633	7.4171838573110085
208	-0.41936403407075473	-1.1390062541814756	-2.959066621938865	-0.7822953442849649	0.6082422121903798	0.6331512315977054	-2.609001153080874	-1.6294853646145826	0.32735124147736583	3.6611087229801	3.6929902937156465	1.7485332444867452	-1.959709281741968	0.034741386683488515	6.251059039545963	6.219629748853829	2.0407774396870098	1.761474962555572	2.0592236466869465	7.546040515921224	8.731334664234796	4.5070085411721665	1.8156279279645031	8.022626856575869	11.650894135623382	12.728679624845595	8.433670022652343	5.258580671385225	14.757008515293405	13.193882908888355	12.754563299401827	12.388831107332049	8.734870888591102	7.967838267236658
212	-0.6152352675163519	-0.7237067204323376	-2.689407818679869	-0.6367708428518418	1.009637353255354	0.6180742367398361	-2.6533982686761797	-2.3021538199475082	-0.07699594627252668	4.281953323997457	3.8281745813992414	1.5585637053240382	-1.2770012584870023	0.4723260092731134	6.670986635531645	6.533777697279432	2.2266294899990284	2.390042775795556	2.9486677572190256	7.783371905702879	9.055327392603804	4.790822970692421	3.0406305713178967	8.628028847845227	12.019444435291026	12.798622099034242	8.595334985012732	5.482679830060152	15.069815597633525	13.20456978325102	12.757220236040627	12.723780599894585	8.913490272905756	8.030971506823356
216	-1.1615198821306156	-0.44358378536763793	-1.4694937430473922	-0.08643049724930182	1.9563610504348086	1.1549800605223712	-2.1463203375986404	-2.9339957163167383	-0.5402680621811813	5.334129796865869	4.3702297100355665	1.6228579241787395	-0.5961526021211105	1.4928621016004533	7.295904617962668	7.10900209539378	2.4737033781539135	2.391405099553103	4.135586251307916	8.013075808321174	9.435359931011991	4.994654642846252	3.9598925013700303	8.85210797935956	12.265748946693094	12.596159903195312	8.590451218850747	5.655347809818299	15.05369564070401	12.819461790143736	12.292420356232688	12.392395941917774	8.529753663462001	7.687356929443829
220	-1.954768771958299	-0.4617998290323555	0.3025644413938436	0.7404167037389955	3.2451662935340377	2.1622905676608584	-1.130722639090085	-3.0325088424413074	-0.7041423899038826	6.517956717247355	5.237699972280229	2.0225965925649434	-0.17889538362159002	2.819451086555276	8.070251444468324	7.927797297489119	2.893255226459881	1.6803619819177722	5.268558488895434	8.333402612627173	9.974260305017609	5.290040479655406	4.091653336684949	8.720687844193318	12.497007338443206	12.38090798113135	8.58872506834241	5.685114369343975	14.84204383917539	12.309343306934592	11.58866593296067	11.551408738535692	7.729191760575999	7.064168912218399
224	-2.7640099455667118	-0.7052761894539374	2.301031345279932	1.6998826222417172	4.589349258279951	3.4321689519058953	0.1771246786413957	-2.2419745865484204	-0.17189440087788274	7.478863220406016	6.27621887529787	2.77267526880228	-0.10904217483884979	4.144020546940919	8.905229545997901	8.880196548929757	3.547951689345506	0.5316683636593449	6.100998386238306	8.797919251163854	10.655694934644808	5.777228817658773	3.293520203858123	8.374219873266307	12.792627302296447	12.309098212635893	8.664355256139743	5.4839787344758175	14.586268388161006	11.878634422829155	10.821084948875676	10.49074361059838	6.746998769891735	6.293642028177464
228	-3.3150203144300607	-0.9038047767708467	4.290152538912058	2.643588536263813	5.704718575379685	4.69535158879235	1.4735548459042653	-0.5766080603346709	1.1758631438131524	7.958576182299105	7.301112633391414	3.8227004908368905	-0.26330026917737853	5.1806073057983975	9.682640051237277	9.787900899970543	4.404543865527545	-0.5082914816421024	6.517877562279293	9.360087371082406	11.332148523329993	6.416904433261764	1.89942049500606	7.976061800846266	13.143340077595065	12.365145652069582	8.765783287805048	5.046436297073426	14.390155755904678	11.586251229597625	10.05981442772641	9.526821112421699	5.828951344078479	5.482876763805993
232	-3.3750731859825436	-0.7291936259932832	6.033315166499521	3.4274885567913693	6.39890907579377	5.701241001993689	2.488899463091743	1.5327178201124982	3.0047850532962155	7.909055689870421	8.138795832112649	5.0435771814800585	-0.3846502592388887	5.7171854828494295	10.2774390914836	10.450991604167982	5.313412176068566	-0.8649075605490149	6.503674490720914	9.874621366365364	11.779318779769357	7.026483518026436	0.5986918195867761	7.624497394385249	13.441022838989484	12.389254538727464	8.755065895864334	4.476135242605094	14.271068536967062	11.352696390099403	9.28889272251948	8.89384744306033	5.160663114869748	4.711198794868062
236	-2.809872381745476	0.032864894634955864	7.222725849989468	3.9350366493057103	6.621520979376017	6.287549479822485	3.0852765959091557	3.4142255696880146	4.6346201779654566	7.508035163996914	8.659618355822111	6.222702964330689	-0.22091306690230825	5.677413449258438	10.59522816844005	10.706597301154476	6.040909275061891	-0.21551613455242405	6.106528266748025	10.162668202491144	11.797685593382653	7.355495911147176	0.09564239507608063	7.322710972417694	13.532568897413137	12.189426391343797	8.4996413969975	3.9404058356935217	14.17155166862701	11.048245402098537	8.481890656991046	8.680441834468269	4.834669100952814	4.051150788569435
240	-1.6130374629303406	1.3538324798735275	7.535461406756038	4.118543614479607	6.464351160894658	6.420416338923063	3.2954640305286302	4.470212925115164	5.396253095354042	7.063461285877412	8.803181626028497	7.103489381021713	0.34801736386171234	5.174119459440266	10.605134937213865	10.48566148017908	6.35994098964948	1.3467569317193946	5.43645952759506	10.1057586414776	11.316950769462114	7.214743595981301	0.7370073180664509	7.018428307933248	13.310564007531752	11.678194016535903	7.971217612168311	3.589792480942138	14.014225924395312	10.610113117132938	7.68617437329447	8.832588173500639	4.859188544402871	3.5926299004448623
244	0.07715143243861132	2.940704099859982	6.812439901318309	4.029543389637172	6.114041789830862	6.193876727678615	3.275615683868537	4.45530031986717	5.027063833896019	6.864916307283231	8.593749024628552	7.467880230168852	1.2502344815160078	4.508190620484368	10.353534672346166	9.848832105566219	6.15983532304044	3.337315550961295	4.673278319957698	9.716816877628041	10.452273342445995	6.594122393171998	2.3090901316517973	6.6747312377255605	12.788682905333749	10.956899615280824	7.296980362588858	3.4918351085240515	13.766240085177667	10.118103001797996	7.059319478331717	9.212475753413099	5.192778574230803	3.44437526786934
248	1.9856431434089743	4.336843002813952	5.243859277837188	3.8160474204038586	5.76645706628216	5.789859280273368	3.2133507647447352	3.579608669780106	3.8584570787287915	7.038418752066127	8.137529352623659	7.233503800249121	2.2560849132797633	4.079322327804949	9.941611264877873	8.981060005401176	5.519486890208922	5.081185804889745	4.0417566197393935	9.140465713311702	9.476908659849961	5.701171860605925	4.122369278990211	6.3141922791326595	12.109353034917545	10.291329357866989	6.726496679489396	3.613917341644779	13.467035259578106	9.776087736243044	6.824568254406584	9.666685079964083	5.77213476631055	3.7004961874039712
252	3.739298095799048	5.111038195103681	3.401198616977374	3.671406021385498	5.5575270512456925	5.414453492799546	3.2481889642722557	2.3928108154919365	2.663016074132854	7.499465923448481	7.601870040774164	6.521235926376038	3.0938165109724336	4.21951912768292	9.490877127527096	8.14413163989947	4.706006991902655	6.010442241752583	3.7458269501526815	8.585952737111615	8.721323944960755	4.896675574337522	5.364467607305631	6.0067853775955555	11.478708238230961	9.987025235710478	6.5281963183567555	3.8671553037281927	13.201823201226706	9.805644964256798	7.163601857218819	10.067183469150676	6.516372187374646	4.38731621588232
256	4.949683176895341	5.051897989869695	2.0478815980705627	3.751926412646437	5.531406865459589	5.226404653705232	3.427664271283724	1.518019195538708	2.2325673046965613	8.02085492970046	7.169856530207179	5.632662758911218	3.5841433911431686	5.0192322604294635	9.106784797564218	7.593275051019253	4.079353799057311	5.9099311679401865	3.8807582757244883	8.22547338316334	8.438751199397327	4.545338142363236	5.5235552648324395	5.814031109435973	11.061705561366312	10.226052258422422	6.860231382215714	4.170418251952396	13.037028279767773	10.30834481497735	8.100543001703857	10.319921467474977	7.315608006127033	5.417485700280904
260	5.335135923267138	4.263100136484021	1.7962217285582378	4.101800431385893	5.642504677831682	5.278432832742574	3.716400375519945	1.3691170181039807	2.9298264906345155	8.35025975980141	6.97596071389374	4.934010016381934	3.7202520276556066	6.247166617833377	8.84400079401626	7.4807705690340125	3.937940826010414	4.9900879733936705	4.36843346446515	8.106562593973814	8.69298074434872	4.846990573089673	4.6449785115269515	5.7271189545040375	10.890786143462881	10.949144335759389	7.678578834220629	4.489938247788752	12.954084363656385	11.1713962272881	9.441543555263957	10.347573254209362	8.020086268203377	6.580471022204267
264	4.837678897087793	3.114228240733521	2.792245857818421	4.621309268727823	5.801553711548774	5.501236901699091	4.039503564172572	1.9934105822779131	4.479142654554289	8.339824655457639	7.053889733624967	4.696616637769869	3.655595770189453	7.425198059408695	8.70370195098669	7.793200950020104	4.3826799282048166	3.765993108777914	4.976283537698543	8.136672953089688	9.327850318246316	5.738508209998964	3.288776866238873	5.655240521457975	10.849416705395942	11.856514900790275	8.738030411593378	4.835555541227675	12.834049192450657	12.082018821729722	10.8165492738383	10.081331227598843	8.45551488648879	7.590501289276989
268	3.678177109014887	2.0683684296838774	4.611659038344473	5.098288046362679	5.937730774193241	5.7412090156562074	4.324970711278985	3.097975007818624	6.119864925192137	8.015254954128661	7.323638420688058	4.977764117071025	3.6027119068738753	8.039725283351547	8.653200127688903	8.355010011559436	5.269557462739347	2.8087546754494697	5.419642434742011	8.14618299334888	10.03650472014366	6.918305379566649	2.215149635444272	5.479636178487026	10.743141147192583	12.535675017178589	9.689962362620157	5.21884583109248	12.512893645165793	12.654459921358665	11.81279465553933	9.4859857319706	8.473628022734564	8.177560785628058
272	2.3127076567433718	1.4727866612443397	6.4533157185702255	5.306578145934454	6.030405029330355	5.844363197829851	4.535725105278131	4.226851452646097	7.030130845440323	7.54480646135891	7.632780532639482	5.613899216783298	3.709867468050477	7.789865950944051	8.65037534437084	8.905263878273207	6.280251487134612	2.4937350687008726	5.498833642427814	7.992695788231027	10.50135991306181	7.9833888806007165	1.9836752364620385	5.139411436456607	10.419054005066487	12.656000105375773	10.2327680329416	5.614683137069405	11.880263298557464	12.60963055288054	12.14133354936317	8.60270688745994	8.016525248314906	8.18376252969199
276	1.2657312122813256	1.4230604135824108	7.5352721024047105	5.116438852743855	6.119490131186735	5.751472935460616	4.674048411966252	4.98305653267656	6.772907716817288	7.151197415416642	7.838900069472595	6.325116141562355	3.9843327898520258	6.740315897136391	8.671281792682313	9.218860602945318	7.07469938399357	2.8709285186762847	5.207793222630395	7.653751830804308	10.541178676694187	8.611709572984086	2.6929089955051353	4.6964940906205195	9.86927506816109	12.132698028449914	10.242953274615104	5.96217058583808	10.966718646017751	11.916616409732772	11.758400887366115	7.576016406958823	7.159340363546717	7.623105029886811
280	0.8934959150643911	1.7687091782736963	7.479821186254427	4.561026561665667	6.276127322563726	5.546796307864582	4.760293471715545	5.184920297883456	5.504086003712161	7.004691106277257	7.885472277759553	6.866686803647169	4.296319473863529	5.290737615578939	8.718870140950836	9.20892236291914	7.443091373725091	3.6989920045922173	4.732951152296052	7.248281937418842	10.189229939484628	8.694481827718954	3.988287438813599	4.324823368597472	9.251492476947403	11.169360132627713	9.817803358085964	6.202077373104688	9.95825860370303	10.814607592934998	10.876097651678677	6.6281370949293805	6.095873817312035	6.672462923369715
284	1.2112854688579968	2.2424910011894506	6.481040938226788	3.8295693300834643	6.535692675301941	5.4235458237092065	4.814651000264829	4.894918906251137	3.8396122358656033	7.142016869632935	7.82530830314949	7.141971570103021	4.464744556598697	3.974821795918519	8.805960632979488	8.955551124850345	7.380692463360171	4.614092815193797	4.340384949216142	6.970741254373227	9.661834692403087	8.354795434838787	5.313923822338027	4.219511975125565	8.809185959509431	10.154993985286398	9.209968543641596	6.3212194283153575	9.120213485579631	9.699607824631938	9.856043790728675	5.977569564986212	5.0679449907141905	5.5985717632087155
288	1.888259644509336	2.625762455986554	5.156795965526484	3.185416451994828	6.845695001484592	5.573956475490101	4.8491082069039075	4.333630074050091	2.483282798219449	7.450382213855609	7.772669772551188	7.20983026591558	4.377909172449039	3.200604430700989	8.92441938054418	8.641492821810258	7.051266175587156	5.338641630045395	4.231310833738354	6.97220895914247	9.23170754962919	7.85184381409934	6.245655520882847	4.4781842118687205	8.731101014027866	9.465744948330295	8.691533066740071	6.371512873775537	8.663113572182917	8.930197693212696	9.03932950598648	5.732911572287264	4.265279282291508	4.652292716678162
292	2.4226319728720895	2.842304937815935	4.178480614602939	2.845662348238367	7.050842744191741	6.0549616660786585	4.8659877654245225	3.7473478222649304	1.8462213231204165	7.709838847722028	7.8056583207467085	7.193314534145755	4.068223466138635	3.071029655332333	9.012678123607479	8.426080682461542	6.670761568393542	5.799978241582049	4.429207313799016	7.251569729616351	9.07050035093952	7.432513218234219	6.695484144472481	5.022526251510014	9.026277519325097	9.27371881050945	8.422434785559126	6.443018897001984	8.623117425128136	8.65256498059578	8.596945740929076	5.82660721261467	3.747416725234117	3.977725018948909
296	2.410751575105454	2.9307517931376723	3.895576944052553	2.881011478779612	6.9351477447890195	6.705937368628217	4.861633288506805	3.302821627861128	1.8787023973716006	7.676701526333524	7.8795709411045305	7.15932558159485	3.6968068983202684	3.3740372572589625	8.95240876798572	8.33193013948636	6.386275275319076	6.1075553739842015	4.769349086164118	7.625363807499516	9.1482524640855	7.217327099697923	6.873955709268465	5.615432725080208	9.492457365865391	9.467566466270032	8.394567468429777	6.6050357651842395	8.831787087076881	8.740979172572262	8.47866914515836	6.0391330566520685	3.4361808213263085	3.582235804096593
300	1.7729835465490376	2.9315192625418627	4.164884079908263	3.1871108928322247	6.312829478537956	7.179193001741224	4.823974597195635	3.0504088324779013	2.193008655733327	7.175470334056531	7.811089972802087	7.05557201511486	3.4615089805946364	3.738936176396886	8.602991082405513	8.21320436311375	6.218747600113381	6.424453719131376	4.999638544811208	7.798253039698511	9.245323157810146	7.176257592202736	7.066602689067723	5.970410808748183	9.7998065701065	9.72441098619041	8.472865083283365	6.853598100524698	8.99553392046473	8.881863571630626	8.477710702472791	6.105599387966191	3.177533856952474	3.370668402744763
304	0.8083194473839332	2.7746472288650503	4.461467254818642	3.531173697139331	5.125814901761931	7.081182938817288	4.717795360097989	2.9428555891123622	2.35553120972058	6.16541765563743	7.352478485617684	6.745821935788261	3.4735178859750833	3.849779834564298	7.865710238624877	7.827777365948432	6.090482696415002	6.811455232589106	4.912472712511749	7.502252559793985	9.069656349171632	7.190635186160577	7.385860901304886	5.891379341509975	9.647845243891044	9.68753240046809	8.496732690339805	7.099550706104899	8.842831589307297	8.749392487370356	8.36310861383391	5.851230606564953	2.8366939949895253	3.2143354334739387
308	0.014705306813246414	2.272763246520125	4.200154293900025	3.650149813019365	3.5027487189548716	6.166297897029251	4.478331077713077	2.880471222280732	2.152972454357358	4.766045558340426	6.328714354749072	6.123862251079261	3.676578274027469	3.591410866252994	6.750701887252991	6.98152397300445	5.910121902802986	7.1413731394709865	4.4438481218675205	6.635899050171014	8.418718316757476	7.151362401072964	7.660203437538508	5.369509683403741	8.915209747693895	9.152734733361292	8.376974084685134	7.206490975305115	8.260685899859105	8.176051119188998	8.004217127618443	5.281291948335942	2.3744506775988383	3.0186040325246313
312	-0.22706246318709836	1.2484024731588168	3.08715104277332	3.364330998509665	1.7349935726230412	4.483313072329405	4.028985013326325	2.7557933260958793	1.6713389116051651	3.2261068739502	4.7625317453305	5.225067125479849	3.8638815782268146	3.058693878080763	5.406256662070729	5.662980542190386	5.6487188196616955	7.1366128741326635	3.691198101261065	5.326510892771335	7.296481114085481	7.022164327058337	7.529858570161298	4.582378375881778	7.719635467112577	8.162681558981054	8.126487711416184	7.055873376198083	7.342472057878056	7.225401383277391	7.416720371594406	4.570548999690942	1.8596466732757297	2.7510197093171604
316	0.08847672469927476	-0.2846027903523851	1.3080775704736667	2.654304259274478	0.18899333429304033	2.3943459927188955	3.32170080299962	2.4850203928195547	1.167001244459611	1.8523640585861698	2.9156584666071756	4.2561974417993005	3.790781965221676	2.455447190761041	4.091582287948556	4.091058720750171	5.3569922311953535	6.525573713993261	2.8565547394157003	3.8841206929370684	5.923817619626318	6.833203298482683	6.692523462564672	3.800578107775068	6.359488471187487	6.965509397086631	7.814544181167389	6.602419836540942	6.324686988121056	6.135247215039775	6.7150497266984726	3.9596831698581076	1.4150721991097812	2.424525970059691
320	0.5428281412724656	-2.0134720751471846	-0.5465809093026941	1.668284292777428	-0.8220090249288686	0.4418563533594413	2.3830151497757015	2.030960077880131	0.8505976178628234	0.9084194279623513	1.2060308425971547	3.5097627551157515	3.3189871227391374	1.9597983310810376	3.085079900581894	2.6351022653806977	5.113320814574236	5.227715479049822	2.154134506508965	2.660002940137776	4.630093085996906	6.616525156482136	5.13743256225506	3.2488014616004213	5.160862432801374	5.86177442978052	7.479663829992617	5.887918457424474	5.44146822509218	5.164338575675898	6.007325634094435	3.604500284631201	1.1245787115314392	2.0546023793798884
324	0.5023386465741241	-3.3912897024363517	-1.7566966966145718	0.6678437573737626	-1.1550416917249133	-0.8783056117770899	1.3407855000022932	1.4268133604265731	0.7430748324706876	0.513162611619428	0.031216014097794273	3.204833022609258	2.5135745938735607	1.6464014011777086	2.56151151010385	1.6417901474509478	4.943163859284848	3.4630980404203364	1.736116762546353	1.8772889328289657	3.683835735556997	6.338425620288517	3.2146501459975583	2.9931919499166715	4.308896530716541	5.030220019038197	7.065278035445579	5.010983931287691	4.777800547934771	4.433813560735628	5.302264677012238	3.460882654988918	0.9565897559809917	1.6208684403504496
328	-0.5017648922649648	-3.8791527650168716	-1.805149908276602	-0.06696116907379819	-0.8751721956091587	-1.3235698904952824	0.4070093919491609	0.7863607982808957	0.7028001529115743	0.5970646723931609	-0.4087847758939583	3.356294861902757	1.6373062092451054	1.5083284339970127	2.5074386533372945	1.2666484085528136	4.775821196896068	1.7240987972599229	1.6684119659262144	1.5319074353641782	3.163174382806599	5.890311226278296	1.4970339498870395	2.925600759749188	3.7665946388514686	4.441638458481986	6.43462942406174	4.080324162671805	4.222689617939808	3.867067804109883	4.499128807152754	3.2986490643188064	0.7667530755711536	1.0701948377292312
332	-2.431886905252288	-3.2384619631066287	-0.6161900147139536	-0.33466011201288304	-0.2108366037052452	-0.9914358233216027	-0.18415328813788662	0.283969729421824	0.5813344106302026	0.9383100247534925	-0.1991647923924743	3.7542488480196017	1.0383434269438645	1.5322381219325572	2.7272257736014773	1.4006086552543915	4.474050510554695	0.60297924127929	1.928714270490572	1.414894577268799	2.934317342979134	5.151578890191756	0.513647912635964	2.837290279854353	3.3203163063142727	3.902808417957025	5.45981215052194	3.183189622471642	3.5457458406572275	3.2565948880944164	3.465027323557555	2.8307189869937464	0.37692823910915396	0.35758048205694337
336	-4.657834994953964	-1.7004969077092216	1.4086252415378624	-0.07064782065197656	0.5584917054380886	-0.2410935753457345	-0.25560033256847736	0.10816314789166345	0.37586691880696294	1.270132657659007	0.34363338264490606	4.07792710228357	0.9854577754889481	1.7511365369453824	2.9430484697423687	1.736672635462125	3.92619203529911	0.5454632626113325	2.415371888738198	1.2430280415622785	2.7489168574547937	4.0888223544838445	0.5068380223829242	2.536695712360718	2.723914854801853	3.1991717734627847	4.130720128120739	2.3843445717694154	2.551938288921355	2.4137945114228447	2.1487357562174196	1.8822996568840027	-0.3169147960290907	-0.5054783808343855
340	-6.197487338631413	0.1017156985814265	3.557589045125617	0.6449140890051408	1.2276530234812846	0.5039104210528828	0.2449581467881182	0.3893283893769188	0.2596681111455485	1.4140422308506628	0.8413616993642608	4.081655492014146	1.5379638633045145	2.2239539567111057	2.94321822377026	1.9433675955344474	3.1439349571959943	1.6399550396522362	2.959985248721824	0.8310823419568946	2.4052276550601963	2.825616829413855	1.3387200798567511	1.9562317083559726	1.8655114126789525	2.252958053622741	2.6131577425784362	1.7384859279609037	1.2334103553148932	1.3155871596499582	0.6605530364525337	0.5205482231348998	-1.2611786095248756	-1.4231553041766536
344	-6.1828017078701505	1.4269531929228632	5.08819435742332	1.6226202208559755	1.7432912544105634	0.9639143919450122	1.221825596585597	1.13052320194917	0.46732619286804267	1.3828604186430125	1.0486696932065505	3.7423925305293944	2.516221755350642	2.955548278975946	2.710615866493145	1.849355335334794	2.299765819465256	3.543641319864811	3.3516890918033013	0.2141752386646199	1.8799259615164605	1.6294463831769979	2.5800449783035173	1.1926065653254447	0.8630512931014614	1.2004144161434394	1.209510323331778	1.2935254541163643	-0.17425388053768187	0.15645018180447942	-0.739464459936468	-0.9359935498447902	-2.2406003418619487	-2.2337708416808275
348	-4.321060646591591	1.792530174498039	5.511878476531843	2.6355349951006746	2.1942968313129603	1.1159580917793395	2.4653317866070563	2.193878168289115	1.1123157711556009	1.3811294997631054	0.968699214396921	3.282298318205303	3.5859467892709396	3.824195613742661	2.4486582217382646	1.5356017312380297	1.6721384483081634	5.589122758105618	3.3971388254226826	-0.3535335949078133	1.3532397712873776	0.8113046864053269	3.715967645799968	0.4658502626578408	0.029651010334135933	0.34000563535677825	0.23452439845001233	1.0729866000741723	-1.2724813190758066	-0.7297496181183443	-1.7467021898038682	-2.042978520003718	-2.964816085959383	-2.7718493868463576
352	-1.102221963006952	1.2100093334165778	4.770182597514552	3.4905781657782016	2.7245781352872394	1.1550960511608113	3.716725816879597	3.352651826023283	2.07278084231617	1.688376184015458	0.826368210613511	3.0426375789117066	4.403838146535186	4.588077533582234	2.476486438220739	1.2816381422109522	1.5155423841359645	7.034722310425068	3.005263082546107	-0.5299531804056187	1.1106916637988615	0.5843603000192304	4.3528633007776545	0.02279263729062917	-0.27838945318507363	-0.020593076892358675	-0.1302820887852585	1.045353290779621	-1.681427474545087	-1.0368865702199426	-2.1549382155370873	-2.4294955669099365	-3.2026598372662343	-2.9408276006836447
356	2.3704719483608367	0.15603089293186553	3.2406270422179837	4.070367325996504	3.4178948316111235	1.334431883303857	4.72839735744671	4.377383221064869	3.0319588107807087	2.4823574957162924	0.916807112763257	3.276198140455812	4.753136145988987	4.9816803806414605	3.0435032767702386	1.3955148423247472	1.922354574118384	7.353640060932134	2.2619900646320414	-0.07837375978709538	1.3771587575474835	0.9574092602399396	4.322360504681571	0.03416695809678688	0.14779075942872882	0.26724591783761326	0.07531668971834812	1.1041721077697895	-1.2299493520201037	-0.6506582482122873	-1.9583204935222078	-1.970128650459558	-2.8952660487509467	-2.7580361296638256
360	4.844840037511607	-0.7040685993538369	1.5887447555484364	4.3417563328796716	4.212521542403956	1.7874295666389075	5.3055143222371886	5.110620962591307	3.6513252166113683	3.6888584997502485	1.4188566172063055	3.9829020399624495	4.608179080772693	4.854444968365042	4.15952633761222	2.025514120710043	2.756607525541456	6.448006613664196	1.4406123124943953	0.9801542734195133	2.1779177133886156	1.7253812507936723	3.6786138918506985	0.5261400328703851	1.2406388489871338	1.1050963373893432	0.6137577875853898	1.096580025765337	-0.05475702867988229	0.2824581258318142	-1.3519712652404703	-0.8444541671413346	-2.186979049883072	-2.344050163072931
364	5.456413732104006	-0.8752070047216196	0.519664047836534	4.34225558138305	4.903885352151351	2.4370915828209343	5.3289193972513385	5.500505433500254	3.7639183903078104	4.962819563733513	2.2818937244023463	4.884381281918611	4.109602440948714	4.271797646227687	5.544629559823178	3.0614662093115563	3.6982400323956295	4.6883244396096515	0.910482702340687	2.3427720010735946	3.3051640903948867	2.5609633857918794	2.6295120649706174	1.3687859739077342	2.659895174940294	2.186442846500026	1.1706988781935614	0.9016894675377535	1.4424982034503273	1.4173971378780201	-0.6317051633144606	0.5415721522009296	-1.3582437004129273	-1.8619960499482648
368	4.097601403381358	-0.2800938181958004	0.5047653900753823	4.149281491294091	5.244522558322574	3.0383260173381195	4.769847857830339	5.5740895130569035	3.4580473812534005	5.8320741506196665	3.2458300508565805	5.5535330632186675	3.4731013687184444	3.502176752785051	6.737487775958229	4.177914608897581	4.376062858977138	2.757454626750865	0.9634724235051185	3.5451021104952782	4.40484808763371	3.15497469105484	1.450869675787895	2.3180153311379303	3.92716454468081	3.1354169766419386	1.5023083648898974	0.5117449747516694	2.7558252741853986	2.3644070565609634	-0.05462420345462598	1.7264749960225394	-0.7007365209053709	-1.4458117448543149
372	1.4364751541109808	0.7426988463723937	1.5963056047191053	3.8521757028596406	5.08971975948856	3.3297648345802124	3.7152533437387834	5.379584775693977	3.0054268761095364	5.939036831166262	3.985462417076957	5.639310822554101	2.8910367415869422	2.893616430606308	7.318642120957019	4.9984216563865465	4.531704414370314	1.366252895720465	1.644887920041393	4.1730813874742365	5.138724790950528	3.3394157802192983	0.4268850971411366	3.0946326177666377	4.629934776060782	3.671480884819147	1.533296581211806	0.06504984183577257	3.4775507362304046	2.8544719147139275	0.263794391681319	2.3779506623312128	-0.39431565900429605	-1.1530708045457463
376	-1.4219642841677589	1.6728956657134781	3.402371159546435	3.534508457796805	4.508152473511808	3.19730853227181	2.395523065240948	4.946459280876869	2.68035005846409	5.250582681750878	4.288640488287214	5.0580587259381256	2.4769227442193937	2.699868195392961	7.124609452379522	5.282309518828978	4.1277160540316435	0.966311988775049	2.6941740444826543	4.050875653529847	5.327561365028204	3.1285843770192967	-0.18827296745926492	3.4704804332849983	4.587892520765318	3.7067065145367293	1.3523467745016071	-0.20082037100157563	3.4397873791632723	2.8248898911680094	0.3581592729585735	2.3991150795446234	-0.45288681869604824	-0.9686384772640482
380	-3.433227291975855	2.111677879724068	5.232717500826745	3.26052402626809	3.785219182948123	2.7478649546864533	1.1773242920714873	4.2903642546097664	2.599491828077417	4.105895032053045	4.161890496236621	4.046360005653064	2.2595446052723713	2.9573790952402446	6.330329879036984	5.028882490812814	3.350110283976477	1.5821168382754365	3.6424541381425546	3.305206290483281	5.000258909952464	2.669602864201063	-0.22130718771372926	3.3337209140532567	3.9004163643589385	3.3314776336481535	1.118130561866628	-0.06719625724277939	2.733723395121327	2.389222854304096	0.3321911982255526	1.9149402331642031	-0.7617563586076034	-0.8524080493386602
384	-4.0337362187586665	1.9772889564183478	6.380125983342414	3.069775096772268	3.2881476796102125	2.2500636520797554	0.48609626170454867	3.4606242092498243	2.680242293266608	3.053419820705773	3.805803527760044	3.050618640826981	2.212720150129361	3.477540484231529	5.348614679184035	4.447872150635437	2.5152053769504983	2.8244283128000345	4.028309335074858	2.27650308034247	4.334424961590809	2.1473569815779565	0.3470943561373734	2.7173151901304053	2.861936085151015	2.714426987470461	0.9440721249586711	0.5360320792969787	1.6176695782827202	1.7274506048457599	0.2512023144578619	1.1701109379789814	-1.1701184481642042	-0.7924410680790821
388	-3.3024771130151964	1.4885535202590976	6.415804846777724	2.97022413457549	3.2700180924825233	1.9776642272609062	0.6618619544484966	2.5848035747117915	2.7265238693063747	2.5664379531913877	3.479789725101094	2.511379474021315	2.293515914848467	3.9504926104941047	4.605387676055619	3.8218841456241077	1.9296313475527707	4.088105191399718	3.628129234690562	1.3333039250089753	3.5359961897266428	1.7007936196301643	1.341712233016921	1.7859789087980267	1.8021001770297242	1.9884937951428048	0.8354937413102282	1.472198005774024	0.37951698803450273	0.9729341840021649	0.0850900707480741	0.4056459655056886	-1.5766215284595988	-0.8217055776830833
392	-1.8262836887026757	0.965201554245687	5.360112176713599	2.9238080904574497	3.713891735236972	2.0430755563651677	1.7826989844136074	1.852545018287251	2.572866671742051	2.7796513964091787	3.335221043749176	2.6480188302894927	2.456176274774093	4.0917692081141	4.312121857246484	3.341963044311988	1.7643904641427544	4.828193652360764	2.5702109271961437	0.690298674747947	2.729976647160206	1.38546049245084	2.420778030005677	0.7809085826231219	0.9359560585233212	1.190324303482757	0.7091199141718636	2.4451711116091293	-0.7746111134999224	0.16095130104913477	-0.2627133124394348	-0.22974500002076445	-1.9632338235879279	-0.9882648562275579
396	-0.3734911968815035	0.5994850978020889	3.6545679476975415	2.8478019165618225	4.297339905379507	2.320350641114334	3.541160574555523	1.4367631637538083	2.184819215980444	3.3959755811781833	3.31910752412128	3.3482322608336355	2.641939156537753	3.7574324512983073	4.362519253206889	3.0137152595724968	1.995563621251054	4.77640722976202	1.260502692854829	0.32788360036083314	1.9260302733431125	1.1889445751689798	3.18607401043433	-0.05682104439098546	0.30175077839006903	0.28646519707833484	0.4772165405622644	3.135071269703114	-1.7527238086317436	-0.7356349211239626	-0.8573389031699	-0.6939441544178507	-2.3603570401679907	-1.2955611911488834
400	0.4464003730470654	0.3458136907429627	1.940853948461326	2.6352472238764255	4.529129970559675	2.505861037603363	5.269936548279162	1.388564702342905	1.651570554378159	3.8411810301121307	3.2092916884457794	4.2210330856563925	2.7633149554103853	2.978797666658336	4.415547836599616	2.686463587653977	2.4326705871198158	4.016957749715334	0.16780909853529186	0.05374015481612999	1.0721735927214886	1.0746386024045962	3.350204220896406	-0.5561884031558484	-0.19016426753669657	-0.7390190344271861	0.13680861855775153	3.3537444983685467	-2.531475537584469	-1.7171574787654853	-1.6318467814253321	-1.0007038091189735	-2.77357625261043	-1.6549770790277614
404	0.3846773197475484	-0.013960179837564774	0.7464212756385082	2.182734483930043	4.0020847219513715	2.282879585224442	6.147616370892335	1.5615067442570374	1.0912811728581833	3.5902779011679637	2.7606244017520174	4.778947341297355	2.7021734646284736	1.9148911189370321	4.120411862460729	2.1817810480346234	2.8131353784108217	2.895110361419187	-0.41448748007076824	-0.3367036572538479	0.15320020875398424	1.0200285885806812	2.8759107517111913	-0.6551617963462112	-0.638798592861981	-1.8015482380204977	-0.19761396894630126	3.132252685268092	-3.082276574935895	-2.683084481140902	-2.358191722638057	-1.1545979947503255	-3.129958860124347	-1.8935452651853832
408	-0.43305385003426866	-0.6801203472132201	0.2490429573923909	1.4333136045507866	2.6302547388426434	1.500545497920471	5.525580392238216	1.6420487123993306	0.551594852008541	2.4842162069542755	1.8750134659157653	4.652688968355629	2.3407618940382644	0.7744709233757646	3.3499910746872272	1.4394398891346234	2.9153716490572408	1.8167362167266585	-0.49069908137409524	-0.9010374523302016	-0.7356293182873679	1.02801215389103	1.9993421980924049	-0.3939659585542818	-1.043546197163883	-2.6978981426788184	-0.341104417178116	2.691597693323388	-3.3274648105534266	-3.4284891995653326	-2.7200481822957463	-1.118462202109321	-3.283431283290333	-1.82090246217665
412	-1.6492720800721332	-1.6620566802977288	0.2375666195116674	0.4120475639430478	0.7305782418879196	0.2651966207484422	3.239738694594494	1.2856588331187695	-0.013982295023365758	0.8483153560201359	0.6911120397284986	3.744491567694505	1.6085020263115424	-0.2488567524825827	2.2963874282079164	0.5878740534245132	2.643932097435431	1.0511233780071794	-0.3096292309096218	-1.4913947544590775	-1.3935350144488865	1.1114799948286704	1.112962958386938	0.12559330431700164	-1.276066300031416	-3.173144570922296	-0.1399106528802877	2.315204852934577	-3.1593568245276633	-3.720934858464429	-2.4589149889853177	-0.8323572257007766	-3.0841550749158935	-1.3266108002547556
416	-2.8863291667544675	-2.7471859385748867	0.27957466174111756	-0.7738506178391532	-1.1124777765796914	-1.1108776302900911	-0.25240176852397117	0.29166027829919683	-0.6817045194580608	-0.6726917607489737	-0.4670959103235343	2.249829048198512	0.516123174317947	-1.0163243983358219	1.3668343986334255	-0.1087148335811504	2.052115435187559	0.6294203384720541	-0.18725669336724915	-1.8346987916401087	-1.602696176297209	1.2676161495629437	0.5625283703906655	0.7876009325169614	-1.1539332837534686	-3.040457956267063	0.43233743200819963	2.1974694673370547	-2.512692206714534	-3.4168238553565033	-1.5163999757628277	-0.2722192995827929	-2.475298636862654	-0.4569534349825492
420	-3.905647506389798	-3.62980603255315	-0.0010958968168395498	-1.9600086162672743	-2.325154298633944	-2.2675554695099582	-3.995960463925452	-1.2668983904323705	-1.4657524787135763	-1.4684582911609685	-1.250798699082027	0.558993755359764	-0.8322960117307469	-1.4574614726462523	0.9444724893566167	-0.3904888322031211	1.3060818877623357	0.386875270820414	-0.3073262266506048	-1.6996227459911526	-1.24469470663528	1.4672361575275794	0.4731445598577472	1.493473645254305	-0.5661222920429686	-2.278307432144555	1.2464541165353178	2.355354064716755	-1.435199733925297	-2.5419213707642725	-0.0854168010581661	0.49926957362006547	-1.5500872096026415	0.5841099605118059
424	-4.642767417629946	-4.104904164440801	-0.6962354761665214	-2.970357410560871	-2.6265587740387426	-2.9689326211357576	-6.885258657237975	-3.0426528377007305	-2.2718920650342875	-1.3056647744592507	-1.4634675942665254	-0.9006826258807497	-2.2529947700838298	-1.5772771795504728	1.1572293013919366	-0.1464787866947289	0.6162962897953198	0.11153368623707365	-0.627489982451232	-1.0478242609271908	-0.3748822500777595	1.6695915418433414	0.7083128672836424	2.1653041784930935	0.42972743402704205	-1.0472956869386574	2.0759010262529944	2.6477971010114882	-0.10395301852206687	-1.28545379314126	1.4628971778174649	1.3303338255673165	-0.5286594019893905	1.5164300165037188
428	-5.153000818593927	-4.190629471688965	-1.5588531454783365	-3.6610360053136572	-2.1574013178715665	-3.194485656302375	-8.088578203760433	-4.544996250121668	-2.9342904016797635	-0.4619544732828348	-1.1545819014962768	-1.8108917429026083	-3.51689147061289	-1.4558845721680558	1.7942041113376848	0.5208948241433936	0.16368854004540537	-0.3023615173812181	-0.9365339851576042	-0.07669798265404679	0.7907859663071378	1.8484468413414212	0.9814914440170285	2.7317602565459613	1.6015425880051386	0.38535433910352035	2.708569519833883	2.884924881327105	1.2325810162895823	0.09231108403741421	2.7443261077257834	2.0390212484377814	0.3428869536802684	2.1142690128352015
432	-5.516969666857124	-4.09548281589281	-2.154784435553955	-3.94716905550982	-1.3843684161520224	-3.1063632886659756	-7.362264137753622	-5.337630735272557	-3.3157904064386146	0.4312735189039674	-0.5791997894922509	-2.0391495176330143	-4.39910696826344	-1.2300546138225112	2.418948882671428	1.3475018705679165	0.047842383263914184	-0.7841829041709464	-1.0133252118275862	0.8702866413078338	1.969981546196624	2.0092534968192126	1.0433077785853835	3.1133670728279803	2.635259860061086	1.768721933667646	3.0474634093591173	2.9494197294156135	2.3557889402039383	1.3826355899234875	3.5289888292859604	2.5004751619150567	0.9132490135023733	2.314147466538931
436	-5.757498249776458	-4.049612511900955	-2.1366670077737693	-3.81385587683029	-0.8306931832321386	-2.919485561629252	-5.110638128728959	-5.216221796217513	-3.3938021574165806	0.7599639873390879	-0.04759966197513071	-1.631362910920267	-4.727068412290153	-1.0486606333005675	2.6250626974586577	2.045791382392857	0.27427700092685614	-1.1298043699349938	-0.7797077874525086	1.4795656166868192	2.9375405237418706	2.187069648942902	0.832402286812113	3.228146306470686	3.278091660806256	2.9666845723590844	3.145300141976483	2.8562176155457015	3.1622309604914762	2.5074219640367996	3.8213176630815924	2.7083771160410333	1.1936148374939195	2.236657375410722
440	-5.811320290198432	-4.11851452741303	-1.46844374762768	-3.311886063797105	-0.7788044790632183	-2.756147139266373	-2.174014801258577	-4.279891956967749	-3.2564482606686393	0.3002129487564242	0.24692587492112014	-0.7478551249696049	-4.417416561417896	-1.0011647914405026	2.2836408557455914	2.4504988131642813	0.7759292106111575	-1.121649500875993	-0.34385174426048937	1.6275097090638455	3.610215654794994	2.425460094050252	0.5000467287790072	3.0249342842023745	3.4524164112663964	3.978334416835554	3.1567997852732548	2.720839255139208	3.6851556208075706	3.5109388739634904	3.8157844447117735	2.7769844461900823	1.335404511894846	2.1122088378983865
444	-5.563219056388792	-4.128381241865657	-0.45366445069214706	-2.539556735302713	-1.1365628213797223	-2.57612919157024	0.5340912924633472	-2.8569705414166036	-3.009182445558062	-0.6432090385410008	0.3184162966318366	0.41049712792706483	-3.5014169127753725	-1.0639463636239133	1.6220042664584218	2.5843880111294664	1.4479523860613737	-0.6572201831436876	0.07258005421910436	1.4240694010066213	4.043526639266174	2.7445588042583995	0.2903636388600267	2.5182456906635253	3.2684562123747725	4.868217455970651	3.234443179547439	2.6576669149056364	4.031886090589509	4.466363895583867	3.7526328468945316	2.869257919696738	1.5217914542877287	2.144085401843785
448	-4.927364336924835	-3.7662603760044124	0.439278810107282	-1.623567219449776	-1.5243768653529786	-2.219520801662484	2.3696095883624038	-1.3421212400883373	-2.6689760617581872	-1.4038492405733582	0.3525696685949393	1.6576758581270876	-2.130457872733904	-1.107072231358659	1.0957078906051856	2.615347378803377	2.1811942999129355	0.1871126438423519	0.26543089680414034	1.1240398855440301	4.35254143569668	3.1186737935482247	0.3664498617933852	1.798976178395644	2.9341251776048636	5.658334717769742	3.4311566266215863	2.685327761546005	4.276914108922289	5.3615846498544135	3.7619206810385624	3.0857784670168975	1.8361518336667746	2.387527459792385
452	-3.9288427730548685	-2.8064081597998767	0.8461469986533265	-0.7097350341043925	-1.5229754409485579	-1.5376633366863157	3.1200890462301984	-0.05195492865438893	-2.1334626620787347	-1.3366694416630758	0.5681942686994196	2.839655868990226	-0.5577200637087745	-0.9728230809445841	1.122168776539965	2.732056849257615	2.8764343189095767	1.1878503531029558	0.155724569761977	0.9590703820809909	4.6065163496062365	3.471366396722703	0.6945575458156856	1.0094453070903726	2.6158335142849376	6.253064616628301	3.6609179881173	2.6975378922067055	4.378952492148554	6.0400433387847805	3.7835748100122113	3.381403199241708	2.1892490331689665	2.7126305034814666
456	-2.7390625407682476	-1.3123047318704648	0.7260003667621485	0.05736967534243539	-0.9410154795730168	-0.5269907699631163	2.9542303010740003	0.8515455701309379	-1.2641950813800527	-0.21057265943768497	1.0633834573600758	3.8311386011671487	0.917139051029173	-0.5870475158174996	1.8208087636752996	3.015490524308005	3.445016137008347	2.0806095547597834	-0.19469425033051152	0.9891058777632152	4.764298903834339	3.693579664441698	1.0642544004273349	0.2871246628664648	2.333179467986241	6.4508838490695295	3.738064994911048	2.523116343803694	4.179098118721252	6.243341906997086	3.6072187332632537	3.564715614855549	2.353871577995644	2.8728408740944302
460	-1.6415039259474589	0.320725917006407	0.3888140310961282	0.5649594054263368	0.06827525777268227	0.6212900861312834	2.233974927984023	1.351126905844714	-0.03967547779198946	1.6405202108925694	1.7436250404204627	4.536071289054113	2.0199973532221405	-0.034817088307452435	2.9304549620074405	3.3877992544471174	3.8073761367038275	2.6704757146169498	-0.6585117561880646	1.0739188167161058	4.696117866103648	3.6774265673297704	1.224336621054355	-0.28837734388022407	1.9609389255605798	6.049141391740325	3.4735436351815614	2.0359222837544437	3.4972093017020116	5.745591149129031	3.0098960323635118	3.396718493468788	2.097812170454266	2.646739476197264
464	-0.9190613604229708	1.524060245480731	0.31131350915511	0.7695106248500801	1.0985108586233163	1.5878277976955268	1.3190727200583334	1.5146477184201448	1.3375714983548292	3.4770407588909937	2.369535201765912	4.898691641837315	2.5742158824777803	0.45740562561899606	3.9414548774389195	3.6622781661076402	3.8986825844560893	2.894314520204155	-1.1328558893212104	0.9755893325016259	4.27635144107703	3.352819434283968	1.0403352949579396	-0.7098487597663369	1.336130734884956	4.982594000634271	2.7762899328709127	1.2418953148958267	2.274641746500124	4.505163658211737	1.910863037053281	2.740730517143431	1.340367313815605	1.9726974914336022
468	-0.7120078188085848	1.8439481211837119	0.8538010098835442	0.7255554180900237	1.739442344088555	2.0795454926439394	0.4759755420588516	1.444247480560779	2.4721338686516505	4.542824733708692	2.6955375603330936	4.918235766391242	2.5535194809339643	0.6438730938867668	4.375228870789546	3.663186064054567	3.6868915464776264	2.8112819123815656	-1.5770938356636066	0.5321724401389377	3.4907088191592197	2.7168543270181655	0.5789735302612549	-1.0114884350988251	0.4069609631754032	3.413360110248061	1.70845830009177	0.2923511855373664	0.6792129261034505	2.744962923748956	0.4543950248213145	1.6817523198582927	0.23859594702085601	1.000367042876843
472	-0.9243100858239952	1.1994646757359861	2.037280554396156	0.582179246863116	1.8383917762117785	1.99045860264822	-0.10286058459538164	1.261591192874969	2.962262861402231	4.484585750701435	2.6208581858268167	4.659434783615697	2.0822684712289834	0.4292354870926304	4.067144860489503	3.3464317237288066	3.1974422850943487	2.540820830605918	-1.973407978797531	-0.1967773283520238	2.493818753621926	1.8471016837215264	0.05634979516941982	-1.2086455791475599	-0.6656041128519818	1.7146112875563986	0.47032159448134486	-0.5881042465620545	-0.8975965954052952	0.9080547667465362	-1.0260797713122907	0.5400760756208445	-0.8542743303665106	0.02753406569860584
476	-1.2434021203119443	-0.0362556054272813	3.5156743437696494	0.5480723367204984	1.5943152864257906	1.4746464453659258	-0.24219021139986577	1.1260610790432606	2.646113389010124	3.5387179762187944	2.2603039684448922	4.246631134755582	1.3963271344216954	-0.025000153046311948	3.2740960038491806	2.846827261412916	2.53044080095378	2.198494190387446	-2.2458958569090037	-0.9127965546450257	1.5760989149355278	0.8957297183309987	-0.3095628909401543	-1.2516626088012204	-1.5285062751325917	0.34608530910851837	-0.6686631424234212	-1.2065856426293233	-1.9690558860655991	-0.49835452311578393	-2.139544958434838	-0.24524088141989642	-1.542037483136759	-0.6388714297377127
480	-1.280329581842857	-1.1900520294661106	4.757185923963381	0.8192040303528207	1.4453812801108339	0.8928579665529708	0.23127071501038926	1.2239729135128539	1.7461289123318657	2.4073860584513533	1.8978568267589702	3.8339178465367185	0.7762235383463153	-0.33663639341238866	2.558680766321324	2.4267358718638037	1.8520262194604358	1.8618626547535944	-2.2127251569195097	-1.2017302482781786	1.0533041927447153	0.061593718671261594	-0.4280584741752224	-1.0270502541360733	-1.7771748259497715	-0.3197208932910642	-1.4564046822970527	-1.4725643359198888	-2.149760002430654	-1.0956077548022156	-2.592848055968947	-0.30865910571370686	-1.5680078228462755	-0.8181908706034866
484	-0.7796280364380005	-1.6089025695234218	5.319253908078964	1.4893608055658973	1.8216991378567065	0.651911733888749	1.408197995445191	1.7018241839357289	0.8076018074626494	1.890880460733493	1.8466767026053508	3.5657198339081893	0.4618063855432642	-0.08176158347944679	2.5069825585966248	2.351962798856176	1.3536932434236837	1.5785776336868989	-1.6400339562017194	-0.7385097127388662	1.1312710018206342	-0.45941644791006175	-0.3657097807234001	-0.41711860789844535	-1.150380608515246	-0.13883753085846093	-1.7300947860906097	-1.4032465184069112	-1.3273918595179204	-0.7730584125074437	-2.297201866072071	0.4666257488867331	-0.9327070689494623	-0.5228399621160827
488	0.20012995550172422	-0.9795331930225218	5.070494638992665	2.4942488607375393	2.8926367686672534	1.0171226237366386	3.1767446914576403	2.5684947902681037	0.43491473684178045	2.4671928820308247	2.2902440966957167	3.5428421407896806	0.5783572182358333	0.9710684394161162	3.4194409760926936	2.7598113943993337	1.1913957565745343	1.3919503653668888	-0.3768764724752972	0.5285733924871968	1.8125706865324025	-0.5332893715745638	-0.2676702135003757	0.6108787044360731	0.3184663943356439	0.7622047047444719	-1.4505019151305594	-1.0710878345150014	0.27508580615209377	0.2893199317303223	-1.3799490893809536	1.8782300901675928	0.11496160895409646	0.07450118642117078
492	1.2575622765261933	0.5133017288599825	4.231597412869711	3.61022423786382	4.451830375875687	1.991667742469081	5.164681421591781	3.618606081409552	0.9678553318383216	4.047518243107414	3.1906883636026113	3.8037273787784693	1.092804309946928	2.6968355110744455	5.143575178511524	3.5906128792707555	1.4283915722069513	1.3505693639988925	1.4982787332853862	2.3178307951581716	2.894033901537261	-0.1354429718412669	-0.23177425504818044	1.9400474976195512	2.2804324569347223	2.0618722386754986	-0.6951925140948748	-0.5390970693328805	2.185853714192554	1.721810574952773	-0.10699791434214947	3.48614977910115	1.209671613500133	0.7504422645695488
496	1.8274252368565318	2.2656996192949173	3.22696971078579	4.516654956858261	6.008863433925758	3.3175425445720084	6.81491707034892	4.4550127870615	2.277654642076623	6.034442886375825	4.308181274981042	4.320346821367563	1.8187122299052634	4.617420184875338	7.138478261090844	4.616003501681893	2.0071878382550916	1.4920054636479043	3.61065482181659	4.118414868447217	4.055335034622103	0.633341966460505	-0.22338724079952682	3.3093399917973074	4.201266754987303	3.3924248132885886	0.37372532392559016	0.16550628799136988	3.880480518080536	3.1318902890287723	1.2316693036453998	4.808894622105535	2.0478413053307962	1.3445188965230186
500	1.479800339777352	3.5230541140299483	2.4436621604258053	4.905148016943084	7.019129735391194	4.58694504533436	7.588410358343547	4.635872352339737	3.8085482024357318	7.625274638951157	5.308452592798617	4.999131190076161	2.4575290617884997	6.090127452733037	8.722078301343126	5.538807854973374	2.757992022226803	1.7953163340063856	5.363483892250741	5.401883111666732	4.987292753979341	1.5663248261006468	-0.1083198559529629	4.395233620037135	5.576098427999342	4.479714382305531	1.546348567873189	1.0212122176136427	4.9880781047769185	4.247861851457797	2.411067002884809	5.530295358046624	2.512606852863431	1.812948341560746
504	0.17027154521868051	3.712013950512709	2.0556809850290207	4.597754943683532	7.125150185715559	5.406966672597501	7.201367360053158	3.8931987187320196	4.85636328424765	8.192657450018654	5.900417312983738	5.681509480437062	2.678401701840591	6.590657217552085	9.378324484989	6.11324594861583	3.44317077721076	2.145825380629675	6.153313621244162	5.842174038442067	5.500923619686942	2.4062836109443713	0.2215358311305104	4.940299021645596	6.130129798670859	5.213786588856718	2.6025037699796028	1.9541205118433584	5.417347417505374	4.980334269347251	3.3047654545316356	5.624748215779345	2.691568367838232	2.204763645327672
508	-1.7057915882912518	2.6818263463021594	1.995964998927958	3.620393505492564	6.302014334980057	5.543281541180341	5.761697277780994	2.295950168534948	4.9254755849459615	7.5654206084931435	5.941332802077214	6.15754555101253	2.231824630824535	5.94972656655187	8.981799102994524	6.23232458448462	3.8289701841956947	2.353557103890603	5.642302022039957	5.445509419997748	5.575617299307929	2.92543839669723	0.7265937309993895	4.871326434234287	5.915472492541674	5.633059964262999	3.3545281802360747	2.8089520860324675	5.351732717353652	5.392272458767413	3.8723204038128083	5.340279565679688	2.788791887871697	2.5896274978105738
512	-3.501999607781226	0.7506609540106776	2.063220495736914	2.1992125455644653	4.838952529134137	4.980860220731421	3.715852489626553	0.2582629614508387	3.9737110037612893	6.066289886417489	5.464888082058197	6.204565032552752	1.0566701862359729	4.428969372057673	7.825890998155343	5.945507511386742	3.7589509392247713	2.222847932925446	3.942384948313647	4.526797283187634	5.332427488215382	2.999548904475207	1.1937407225033674	4.339552391540021	5.257812009888142	5.847286686439412	3.692397823548075	3.387710801154494	5.122677313268875	5.611155495781925	4.130601872505803	5.04784201301226	2.989225618444752	2.9925057812477496
516	-4.664974200868556	-1.4479452335040186	2.0847423023994955	0.6836642009640383	3.1973111548761737	3.8939709565077796	1.637791391052352	-1.624431486796837	2.4111025272530053	4.325546253727483	4.638589847297475	5.658702359217789	-0.659893213036536	2.5988845759579786	6.464853270420979	5.4137992722201425	3.210700265407555	1.6463384586729848	1.622126575189192	3.5567431360091004	4.959984289997996	2.6532013349303387	1.3389711346199111	3.6621761229560423	4.590851772161655	5.955614551766497	3.6227059272854314	3.5459530264019437	5.036155687968523	5.743525967402067	4.1356973543654965	5.04641674674999	3.3563363467354157	3.3766610537153507
520	-5.033949362443088	-3.2423539079820562	2.0141830393482705	-0.5790677652044068	1.821127171686886	2.55537461589327	-0.02105002099921434	-2.8515150475033755	0.8622676112339333	2.98038768015835	3.6840770151584383	4.502413738327323	-2.517925732931179	1.0856275531062218	5.453641400873213	4.8333535072366525	2.3145995081637665	0.672893999308186	-0.48384079214962	2.9547805711531776	4.634463298540804	2.0548872895811954	0.9790835355834716	3.1903304973162836	4.2625536811021005	6.006141647433607	3.2793443120176926	3.2866523182858627	5.241033064007654	5.837177261873872	3.9795696634907602	5.427576528197322	3.8171150587983798	3.680283060318774
524	-4.901918875715886	-4.190190781504525	1.9115147542376099	-1.3592174018875198	0.9772537922027763	1.2343019215891926	-1.0838503810220859	-3.246401540189244	-0.1646025921718894	2.398588174486139	2.8022875715076676	2.926932565928687	-4.033764828988086	0.31059053461813224	5.1041793694374045	4.365374077265844	1.3266040053252683	-0.48604193207097307	-1.603127594715004	2.9179141447783605	4.466893661665293	1.4624119960102182	0.16795381861244113	3.1562259117548064	4.3980350383345055	6.006962761017959	2.889571182584905	2.7862834860073025	5.6895146226287645	5.894847378152829	3.7839448356460426	6.0523109283229	4.223945130174187	3.871520032644785
528	-4.783627497993303	-4.219343174771987	1.8416113806958372	-1.5976742465689824	0.692587075869031	0.13605733181457694	-1.6162940222940667	-2.9997410698494775	-0.5104390369879377	2.5651206905451773	2.13780784067189	1.3262186016931239	-4.812211024532464	0.3478119364540126	5.381250367883376	4.1045770541510995	0.5625624642473909	-1.5150898656739724	-1.3435276712829065	3.3676736269802294	4.496232498261142	1.1405432195477734	-0.7912808040668138	3.576704493075402	4.882931220124176	5.970438465303289	2.70051025662486	2.32921814330447	6.20100115164134	5.91803787644633	3.674760809203566	6.64818619003257	4.448832500669633	3.9761042494522685
532	-5.024660097787586	-3.5957634358220827	1.7834715798172354	-1.3871737683559382	0.792556760694299	-0.6076320394433546	-1.7635391906082216	-2.5026535924668076	-0.38639521501260504	3.159420005450966	1.7771987870169106	0.19228596936792577	-4.69682453877032	0.9431645250349677	5.972781643092784	4.082869996253024	0.30071619077099226	-2.0992021507669185	0.13086011972766964	4.024613847108114	4.71120547058826	1.2704899278988886	-1.4816703758978138	4.251211632485717	5.456353173785067	5.946385845429934	2.882340662354747	2.171494240046679	6.578715307792196	5.9381599276345405	3.7307736779433727	6.9616060081194355	4.447204578615638	4.050310601498802
