time	FP1	FPZ	FP2	F7	F3	FZ	F4	F8	FT7	FC3	FCZ	FC4	FT8	T7	C3	CZ	C4	T8	TP7	CP3	CPZ	CP4	TP8	P7	P3	PZ	P4	P8	PO3	POZ	PO4	O1	OZ	O2
-200	-1.1023009987657246	-0.4198932637103792	-0.21810103897819455	-0.5378826246986481	-0.5370615111142953	-1.0313756439872133	-1.2444071738296094	-0.7620154003931432	-0.1733890916499803	-0.44421824700734774	-0.9944133137391952	-1.1670424908736914	-0.20036281594711255	-0.3810780634795513	-0.31681182900550114	-0.6569564325912224	-0.17333807007418137	0.19754613886071812	-0.2480279946025569	0.37942933940458184	0.13650040294039617	0.8013502339158111	1.2421673504938948	0.6742572767400469	0.8802851416297276	0.616822062365556	1.4624727927477357	1.6211246211130474	1.4600337706896847	1.1980700462610525	1.2606363264680782	1.4332301580483118	1.296282645767423	0.8888143874616173
-196	-0.6076769813454018	-0.0963054222417269	-0.20585614390851636	-0.2823661260628356	-0.4402285505147352	-0.8636775591025353	-0.9534908509022983	-0.5071130382132234	0.2726942889958088	-0.4533424664018833	-0.9396853423235675	-0.9544193720562651	-0.09043116099652533	-0.21922565941297723	-0.322206824204435	-0.6295318587621473	0.04657228279276327	0.42577296387940283	-0.5478093610284134	0.2720229618833985	0.10177139912182846	0.97461300842267	1.5570732315805478	0.29824593587915776	0.5667763934130824	0.4456380892469576	1.423880335073871	1.6703442292956647	0.978387472543542	0.8063967803622677	1.1070125075047448	1.0022113297908266	0.9792451237750497	0.7760085443931533
-192	-0.04614801320703292	0.16330008167522372	-0.19361755203000727	-0.055641151824184054	-0.3386800578626427	-0.6202547534541489	-0.5601121769115057	-0.24557815430150645	0.5482264743314984	-0.45588037256536706	-0.7964285591998435	-0.657692073115183	-0.094664953410038	-0.11359172285726288	-0.331657855865449	-0.5615259990820085	0.21594041531402527	0.5495089278652479	-0.6367325170653481	0.1924459631352602	0.08612183459711176	1.00945210201986	1.6161006648269036	-0.04614574450524689	0.2752096646036243	0.23446805715968064	1.235639688233154	1.4237480127628037	0.4165654171916816	0.3456697753285159	0.8379190543000156	0.46562930824021626	0.502910076302143	0.47302454590579496
-188	0.4899440991429539	0.27393215825537875	-0.11329221696860332	0.07159011047885165	-0.19796979377355078	-0.3038599483447659	-0.12214740334904382	-0.029610926210625683	0.5344452248431298	-0.3876372267949765	-0.5506042824195196	-0.3172361842729082	-0.17405673817558498	-0.12407025663522378	-0.28129634190110786	-0.4433969844113835	0.31178200166186176	0.5393333421441736	-0.5381432758095928	0.1737267072582969	0.08659291990590469	0.9036407447888389	1.3923249209537116	-0.34437206300574247	0.04131080199778918	0.02115694055580055	0.9233389473491216	0.9014450288901468	-0.16856069820285075	-0.1279998418437321	0.4687336373415705	-0.1262081262263075	-0.07696794699071413	-0.0026200013169062697
-184	0.895140288000303	0.23989719091882344	0.09996364985499977	0.07689941655055665	0.025203239109065006	0.08789937175969621	0.3099003724380205	0.12366814880142303	0.2511206858970481	-0.18909643542708027	-0.18854787898143613	0.043214525918334835	-0.23459458291905816	-0.2234853202422571	-0.10755646946692944	-0.2453452193503123	0.3693946292610785	0.44131192453543744	-0.36293044594686313	0.24686261949201196	0.13334824111173046	0.733151016768509	0.9613264774846881	-0.592943607263795	-0.0970480663114309	-0.12095663665988866	0.5815890416720402	0.23427535534360833	-0.6840429884806296	-0.5264560566961863	0.07542195897133629	-0.6743369681499103	-0.6330451353302731	-0.541505991045396
-180	1.1175651522077161	0.17478467479922777	0.4674144077420875	0.0028362802623873775	0.36171367673149035	0.5524143562674888	0.7061337214761559	0.23796233474733214	-0.1587462570235588	0.16752524631642693	0.28962322996449613	0.41827362670198676	-0.17806129112587027	-0.3089049450704623	0.21954995338322017	0.06673991663295055	0.46213680389074235	0.3507222822394351	-0.23238319099882962	0.42477679145378683	0.276647805469134	0.6150017961233561	0.47214895367625515	-0.7851313928808624	-0.11274170847084772	-0.1177769896394703	0.33520442162759767	-0.3796231141042574	-1.0331457827232837	-0.7622173409291324	-0.23536905586899184	-1.0655822727002884	-1.0179651949930564	-0.9845318769393447
-176	1.2083848684319707	0.265845774933052	0.9551204418863433	-0.04800830024280818	0.8165909031278203	1.0743743154103294	1.0646301481070501	0.3682368984462067	-0.4952756451976846	0.6674577576951717	0.8583921172404221	0.8112343529246695	0.048936977858967064	-0.2596029930712958	0.6799369437217092	0.5053722845669532	0.6579258425314018	0.3591037085526551	-0.19554030845863973	0.6929889303830921	0.5543625936816984	0.6445421560226814	0.08574317374039032	-0.8992956854049727	-0.002377787831755323	0.06319523586768812	0.2776035063410497	-0.7552221994405983	-1.1557375163462644	-0.7874686102058942	-0.37630298638703874	-1.219985481996737	-1.1318674058947509	-1.19443154033457
-172	1.3008950915870767	0.678429303840567	1.488342758235704	0.04773132118452654	1.3605287040692677	1.618538375582773	1.4019186461339577	0.5721300229886466	-0.5892913922690487	1.2548936573770473	1.4594901763307055	1.214562055382317	0.42917904149417063	-0.013722310739382798	1.2053806751335863	1.0357124779301212	0.9716736053729929	0.49875149004898583	-0.1960763330277515	1.0077218983956882	0.9541750526179477	0.8369120338290779	-0.09279515570815479	-0.9041269994796889	0.20438308962241766	0.38257339500157855	0.4145246435666919	-0.8037464002343767	-1.0593814823106704	-0.6229863151080189	-0.32838115013183955	-1.1308116884291546	-0.974026319905627	-1.123996493362743
-168	1.5210002622349779	1.4448308908223675	1.9825090119853075	0.37373593355233337	1.9274111937497824	2.1271572059331554	1.7302989916030946	0.8748239256706154	-0.36785060074439274	1.843556399459237	2.0061674067391135	1.5928956230001148	0.88179355637125	0.3865753402486615	1.6975681738909323	1.5678057631009972	1.3406945433145956	0.7181299310672978	-0.11495869577709042	1.3032176461695306	1.3951908314765662	1.1061860295023758	-0.055722091206294386	-0.7812052349394201	0.4461052108468829	0.730933008732727	0.6465715749628701	-0.5742056355284195	-0.8227459767550109	-0.3592091789713189	-0.1606668825861459	-0.8744387008524046	-0.6492857320605097	-0.8435590841930025
-164	1.887730832102224	2.4048569141706295	2.372069352836784	0.9204688048964986	2.422775739274925	2.5274195607270333	2.0350642152904235	1.245885369016307	0.1261211928521221	2.334580892390662	2.402855151785547	1.8809051466183586	1.2963116136247108	0.8085403421969131	2.0562751241266417	1.9781883905057376	1.6400867659168572	0.9059884525313247	0.13693265582321595	1.507897730834953	1.7465624765168672	1.2973229852347061	0.1102999520497245	-0.5519770965945204	0.6450348480151509	0.96826952451382	0.8058870414414355	-0.22971254529176618	-0.5659136757867815	-0.12304018406797736	-0.005114194458476955	-0.5814641103369064	-0.32259070791814176	-0.5100381957528352
-160	2.2789068164509034	3.2482075609213785	2.6198344164507397	1.569354172559063	2.747901432728964	2.7513797213706948	2.2674562873813024	1.6015526015854358	0.7627490143591865	2.6404311590287426	2.5759415561489605	2.0017561861997137	1.5751862486170312	1.0951845618253788	2.208390945580965	2.155698770802501	1.7329499677774318	0.9487790441400551	0.5354267345261682	1.5651535948337674	1.8791571808100886	1.257174607917553	0.2688397460348832	-0.2904992394265483	0.7322117667785097	0.9842616890852601	0.7323094587910499	0.03002765022087555	-0.40053778785668975	-0.023678453579367317	0.0037564455902357684	-0.3815557649038976	-0.14356745743267013	-0.2918447546743109
-156	2.4949486192654353	3.651005020460443	2.7109250953894586	2.128567690243559	2.834596626754464	2.7632186343046716	2.361686700580283	1.8346184445791542	1.3793629373057124	2.7101006439450073	2.5043024953557107	1.9005119752584312	1.6620302158355154	1.1481705875018438	2.127798075072162	2.051312679833751	1.5324211081915555	0.7924364785214459	0.9268236136878274	1.4515548907825029	1.7260129408174072	0.9098416543877461	0.29728826805396946	-0.10618140521659408	0.6721351725774664	0.7500635962622468	0.3534609666483378	0.06329292788022833	-0.38313802980011025	-0.10287601474775891	-0.20353850670924395	-0.3476743093295737	-0.17841936602845437	-0.2883745126596044
-152	2.386431211168444	3.4390404137568327	2.642973893168441	2.4097807346538036	2.677136652863072	2.581950658001465	2.2714960517754	1.8609214974149673	1.8324254704941147	2.5478885109469607	2.234668726047457	1.5775794943080104	1.55194818581712	0.9788992380222914	1.84141230118279	1.7065896944827792	1.0463849279687887	0.47263735413431157	1.0977461310327787	1.1862438887210256	1.3205057349244054	0.2995465986318401	0.14032611215448443	-0.09777585392346212	0.4770238089438698	0.33628091131184573	-0.2706310146174731	-0.14949457309649283	-0.49274715656805157	-0.312487661049576	-0.5886347875038608	-0.46526548148942587	-0.3810654272948908	-0.4821107077347375
-148	1.9625554035228072	2.693786375874014	2.4245965419589264	2.311898940925101	2.343510383411208	2.2845041694183386	2.0059175440688457	1.6608444410353476	2.034011835684926	2.21500539220428	1.8694529486187081	1.102557894784058	1.2849746910077648	0.6993014198767371	1.4174016678310117	1.2411026923316049	0.380663215152962	0.09647614484509379	0.8950559474281587	0.8243136385132905	0.7867860774202944	-0.4237790395050882	-0.17221449272067962	-0.302335082721327	0.2007304424939978	-0.11685135186018729	-0.965782341902912	-0.5052491413711581	-0.647059915816282	-0.5361306057745436	-1.0145837042941963	-0.6451297982140383	-0.6211376770549776	-0.74906754304592
-144	1.4011356795221648	1.7255753235165712	2.0828707165582734	1.8665595007500368	1.950655217014156	1.9789069841013354	1.6379679400097311	1.29119658144158	1.9615277002401845	1.8055977775763137	1.526511665304864	0.5949868544815368	0.9273778772781943	0.4529010940084359	0.936876473445619	0.8003307560741467	-0.30328079981526795	-0.21495816057292919	0.32656785763306073	0.4341301311022605	0.2835209958547655	-1.0707086297658979	-0.5493416772324303	-0.6670681817379034	-0.08658622183396496	-0.4636830377792793	-1.5187755784789978	-0.8405100085972156	-0.7487570028474243	-0.6461574418920163	-1.3062258925837495	-0.7731584291011242	-0.7540111522711095	-0.9241691804441019
-140	0.9445111131663335	0.9185342765505528	1.665214415160667	1.2203053205197942	1.6087521274003884	1.7537200406620042	1.2744106022130255	0.859054920888651	1.6449464518024148	1.4038201535067814	1.2858194080313892	0.17622096792075406	0.5478997812743093	0.3303342751269084	0.4613269853865461	0.4878500091633472	-0.8559653141345192	-0.3912551691190635	-0.4205350865237002	0.06881859136134116	-0.07074650359173366	-1.4964764080412183	-0.8887506700965133	-1.0635973188249899	-0.33039900577097103	-0.6192287787062204	-1.7727631285732146	-1.0223741505559605	-0.7373238187294092	-0.5674394950845344	-1.3334122862529034	-0.7707575540156332	-0.6953923088636574	-0.8885668493724901
-136	0.740145681419886	0.5246531950102169	1.225553509479017	0.5615694508679401	1.360336538694997	1.6266083676278278	0.9980799530579407	0.46905213476012364	1.1439647645678213	1.0410716507376356	1.1476705045334408	-0.08669328667687244	0.19610743175108453	0.3179306677897552	0.009581391675421451	0.31526181022203054	-1.2015840976895584	-0.4486703861352826	-1.064335105116157	-0.2559814744685313	-0.25346419151208777	-1.6627545314769971	-1.1255624265863287	-1.343547460024922	-0.5165226446462231	-0.5963806494914454	-1.6980893569035325	-1.0178298924497577	-0.6213197692443067	-0.3184910408561963	-1.0778156491723927	-0.6363202913431222	-0.4639281320779769	-0.6325244887594745
-132	0.7320309858913624	0.5224621282738054	0.7980421761391289	0.031783550897461155	1.1507813901457038	1.5234116277379228	0.8158685544396111	0.1721391375487126	0.5276254402190823	0.6792612654702413	1.027840373305221	-0.21431775336991807	-0.11110471160970821	0.30892908495153537	-0.4423378992833659	0.19946196624941293	-1.3625091279915746	-0.47760173557815283	-1.372128721587588	-0.5640994892183333	-0.3423362961709012	-1.6449863869143135	-1.2547086445601314	-1.4081811869354068	-0.6736776215710697	-0.49279624099290015	-1.401238795557366	-0.903944251639269	-0.47203943014175687	-0.005191163146800437	-0.6464429481397695	-0.4440237570519367	-0.1684487904825675	-0.2610510283078132
-128	0.6773149354046597	0.6268146022229872	0.37267300392473746	-0.3340909174590375	0.8510892369716896	1.3047968116242228	0.646054683484683	-0.05583834634034497	-0.13897821272093686	0.23302933514888588	0.7962729314727279	-0.30456143540735636	-0.3923686434853013	0.16876827137775696	-0.9375334358386747	0.010502965162999107	-1.4347799980178486	-0.5868010506119756	-1.281151768310813	-0.8985924698076881	-0.4649379241648897	-1.5821148117175192	-1.317799803267724	-1.256224509882232	-0.8524275400574526	-0.43443876395212827	-1.0667051049957323	-0.8155614713105036	-0.3824650933622951	0.2309681171307898	-0.221930771505795	-0.3013127736590429	0.05172400908524119	0.06008871257035365
-124	0.2974580220818612	0.4568208742529034	-0.09947320793786492	-0.6022094472939594	0.33138382351178597	0.8374497869328837	0.3627676358600702	-0.28891172932160863	-0.7965576628601011	-0.37373512888963095	0.34584471496048996	-0.4775995004039794	-0.6855306012011779	-0.1804508264277215	-1.4997572860999515	-0.35229277521833435	-1.5259057244876073	-0.8341582396427627	-0.9281131601742871	-1.2880080905820155	-0.720562098591217	-1.5948897559906854	-1.3632075752172894	-0.9835337971651008	-1.0911166640390184	-0.5065983521068874	-0.861620125979373	-0.8602310397363896	-0.41577637090613717	0.28193518448219757	0.025046501245443244	-0.29000744150374824	0.09842891966287545	0.18871565115489408
-120	-0.5269840346382737	-0.23278209508298178	-0.6681948883352479	-0.8770741798191394	-0.4508503664077938	0.07685746233132129	-0.12210173874068057	-0.5936574920924675	-1.3852592671705863	-1.1442258329112784	-0.34042069229962374	-0.8016438463952333	-1.0164686415758142	-0.7039701920855611	-2.0989832825118557	-0.8938968755087828	-1.686661954436046	-1.1822357147885794	-0.5649113044781245	-1.7145172314271806	-1.1144782276625924	-1.7140635208722959	-1.4037841523014278	-0.7302879076639517	-1.3837294543616436	-0.7048936468447348	-0.8486874678165292	-1.0462329361249953	-0.5673866853693967	0.12895168331490833	0.021907508317949357	-0.41914343728099795	-0.03497139355651544	0.08245742300195906
-116	-1.6471381145852726	-1.3869395221025624	-1.3307577337998886	-1.2204462258996875	-1.4002394640855849	-0.8848635531973003	-0.7865132073572015	-0.9724500750785215	-1.843580241317087	-1.977192635312634	-1.1609169215455901	-1.2410730092185815	-1.3652914728026653	-1.263479944853843	-2.6431291036630444	-1.5048654041443057	-1.8743330192927274	-1.5044250450298169	-0.4118105758760192	-2.1044676250730827	-1.542832132258898	-1.8574566794229215	-1.398395057962312	-0.6053462013219896	-1.6693611102872215	-0.9331487989707775	-0.9530625319260239	-1.266250607154587	-0.7623302917306966	-0.1448490466990725	-0.16622008341307543	-0.616212843292845	-0.26134073668301255	-0.17456202164923146
-112	-2.6932101181697807	-2.6451120309804255	-1.9939076850140849	-1.599031205908513	-2.302153343110351	-1.8352662278569378	-1.47871696575665	-1.3401020731470241	-2.1094052738338096	-2.6896438530725835	-1.9234474848822263	-1.656450029005732	-1.6487843948698124	-1.6794487195528294	-3.0041780395953555	-2.00181078405419	-1.9660825679731304	-1.6374535519266182	-0.5327487574478159	-2.3502640664843666	-1.8372334195481381	-1.8670179796764914	-1.268167969362881	-0.6291963442175538	-1.8513910723673128	-1.0491243574357494	-0.9991773937747744	-1.3460649217952994	-0.8902103878433772	-0.39251804252705363	-0.36545336154222374	-0.7621558289358794	-0.4455785442069773	-0.409760980763625
-108	-3.2555644429981414	-3.5076665789735832	-2.483165734697406	-1.8907083225198165	-2.906807892136113	-2.5201461251527455	-1.9688032815816787	-1.550730820555301	-2.125588411686628	-3.0874352377188914	-2.4193482337904144	-1.8612458658910158	-1.7353340343531387	-1.8105184986179672	-3.0685212534679387	-2.2075297776754246	-1.8173527671706586	-1.4546898566711943	-0.8060653189335086	-2.3551106393481067	-1.8456871462952882	-1.5874892433140575	-0.9397159791109047	-0.7274191361181551	-1.8383669806796146	-0.9332778430263904	-0.7988459447718957	-1.1332583398817178	-0.8586909153239267	-0.4715988028063673	-0.37716871404789315	-0.7508163433192148	-0.4726203072059489	-0.44600754863666503
-104	-3.1033160608141723	-3.5860578923285202	-2.6094064646643234	-1.9488855551152426	-3.0415553969838967	-2.752272837365754	-2.054599756775525	-1.4672814570574944	-1.8581525040442726	-3.0529222411324444	-2.512323611592173	-1.7123160319011828	-1.497792955431693	-1.613248105744445	-2.789882176031176	-2.0334584661642285	-1.3390319313574286	-0.9263130403019705	-1.008030650454845	-2.081095213404187	-1.5098028144864541	-0.9497451162201356	-0.39377784629584556	-0.7775565366187066	-1.5884321887920234	-0.548105774926133	-0.24894677039712748	-0.580262838329136	-0.6391426308707561	-0.31070229332680394	-0.07755367438286248	-0.5430814014074767	-0.3038925520853757	-0.19135357391205843
-100	-2.3114571512991415	-2.8010187078328928	-2.264158243184917	-1.6877870517079856	-2.693546288365465	-2.4965369638354	-1.6671210485329284	-1.0380032036323457	-1.3207063641582129	-2.6044490271615808	-2.1990027372153857	-1.1872879236762752	-0.8835211969957028	-1.1531300515625034	-2.21784495747421	-1.5229468307191378	-0.5536065087646315	-0.13910588586972342	-0.9552227830611641	-1.574834938841612	-0.8980864263748227	-0.01669732477025557	0.3088495127509611	-0.6799170357704045	-1.1341381044363812	0.0405125691463919	0.609090088260169	0.22173573020742116	-0.2796795957179797	0.058006416859802075	0.5161038624130885	-0.18605585349315237	0.006823195592968486	0.3102596990381417
-96	-1.2228532998682196	-1.4267194235066443	-1.4939935169647234	-1.1412991256509064	-2.0207405039313238	-1.889390583036449	-0.9189637876197199	-0.3390820911906377	-0.5950480088469219	-1.897005434015148	-1.6128957230854226	-0.40871211783216055	0.031322292904450766	-0.5698612914002888	-1.4872531853319608	-0.8357759096978826	0.39740136165420503	0.7330639939873567	-0.6190251096355371	-0.9564691757849155	-0.18047179236146832	1.0290861103778814	1.0381020281331337	-0.4124156524259289	-0.5747127518448882	0.6878232938566748	1.5946742255957218	1.0740088197294895	0.1194105517829633	0.5139484392541628	1.2436511485171873	0.21112491137129585	0.34321841510902745	0.8916587807077624
-92	-0.27147075465327103	0.03815112998390074	-0.5108786212420463	-0.46530592324080383	-1.2853761878939582	-1.1833894222899388	-0.06946734321459977	0.43844747432637615	0.16438499051552505	-1.162812826081819	-0.9712160205162075	0.3976604332420671	1.0348296139339372	-0.021693076883620977	-0.7734621147654881	-0.18412792636159872	1.2985181775687247	1.4912424049874162	-0.14466415309144606	-0.37692803049289775	0.4409754861188522	1.949269409026627	1.6386370617502903	-0.03828193237653009	-0.039166211983024	1.2265757291343342	2.455416196345836	1.7529963210669686	0.4539705801469405	0.9020634866827747	1.8673319769443755	0.5312674032149531	0.5850517138968794	1.3357448544156543
-88	0.22415474000603938	1.0960776778204384	0.3764741113217568	0.12160199849898422	-0.743656991034739	-0.643508849903464	0.5800101146359266	1.0561035844841684	0.7563455681778438	-0.6194109901048388	-0.48930516715489725	0.9925367807124693	1.8381574107491132	0.36326602009610137	-0.23086066485769224	0.2496428036347348	1.9394373844771706	1.9767152021091885	0.23931404887813568	0.0398493482656506	0.8120884278774998	2.537479871065403	1.9885975072244522	0.33645874176908414	0.36458188203316305	1.5298370084284874	2.96551417555723	2.1029334015204375	0.6642503721632611	1.100472089850054	2.174019569630147	0.7057664972606219	0.6662491543161125	1.4753595553342183
-84	0.18277209951031606	1.447707291762676	0.8796414114677786	0.4254969943747895	-0.5512677417188395	-0.4481175530563866	0.808974800451584	1.3186336722460263	0.9887524222205896	-0.39245787163830476	-0.30435180587221056	1.2164534299655545	2.181271309113791	0.5120406733936534	0.05626630396346149	0.3741936078160857	2.191332811545053	2.1150665229802827	0.3608113518188363	0.2417489284133853	0.8787518121467519	2.690462105633994	2.0445902295943754	0.6272957309143995	0.5898770079024884	1.5518652161518023	3.0086619778011974	2.0914153999931213	0.7577918748796671	1.0692946883861059	2.0640768952708846	0.7437366228399579	0.6027787908594164	1.2697297302613426
-80	-0.25538226897611715	1.0739755603377887	0.8382478335197666	0.3503654590343881	-0.7232263069966609	-0.6368253811016736	0.5584006295411017	1.1456232041998646	0.7521657328688779	-0.48461383458808266	-0.4388760317212292	1.0428031656639891	1.941016192303995	0.41203257337492466	0.09193038917219495	0.20644997008175311	2.0465815015620046	1.9245294283914576	0.21115364081000507	0.2603777640444526	0.691261647386507	2.433329576070789	1.8509414149282626	0.8195145109466718	0.6630385501333922	1.333196398230072	2.6106042796027054	1.8045176222064212	0.798072336089309	0.8598142840611722	1.5862374265676453	0.7207607608717518	0.47881841538655867	0.8197913745209545
-76	-0.845298049699934	0.1886351252800058	0.27682128478731477	-0.0693410037197367	-1.1530507773851524	-1.1167173357425715	-0.06027917921225253	0.5985270127443882	0.07790616880059358	-0.7943314293833609	-0.8099841455036622	0.5737389311610066	1.1935896843338878	0.10578937056773494	-0.045089717840556605	-0.15251710972426052	1.610231633889268	1.4955712519079445	-0.04595684248526941	0.18808005702693642	0.3676674654737827	1.8950651836233183	1.5113093814839933	0.9703793501196077	0.6630876047559184	0.9741751527032555	1.9133573722215442	1.3895796502315778	0.8660236575196162	0.5841092452560703	0.9063363648420002	0.7345083337359073	0.4002437879470774	0.31637930790178054
-72	-1.3766177857928679	-0.8942441321683675	-0.6133434757006021	-0.6868143660371091	-1.6729879337033575	-1.7156072811680807	-0.8252994993353865	-0.1460076417812914	-0.8482087829155466	-1.168599364191294	-1.273501273754628	-0.013413184288551747	0.1957222963398407	-0.3185198597018724	-0.23739841520453592	-0.5655532465007347	1.0506031486688931	0.9553099250516058	-0.17279975072625156	0.1321574744225753	0.03799532716814153	1.249846693698078	1.1392523021544871	1.1630594701012769	0.6793197376266183	0.5911475405073128	1.1083513470323092	0.9795173977916963	1.014294860186344	0.3613152196821729	0.2291129821714843	0.8505146481975056	0.4397043872699038	-0.051519427318437075
-68	-1.7489997104355797	-1.887384409907664	-1.5562727412032353	-1.299680825766778	-2.1184310859600695	-2.250539535562441	-1.5011112652072507	-0.8644406177630234	-1.7280900434732958	-1.4610941373175617	-1.678858752780332	-0.541000186031109	-0.716144381145553	-0.7358425241011911	-0.3721085181378173	-0.9080603099784863	0.5318391905708398	0.43031838427617564	-0.0008551529004999752	0.1674399520699687	-0.20470060356433453	0.6510454399837707	0.8110396245506799	1.4436908923892715	0.7670314888661965	0.27390962769971056	0.36159881858129816	0.6387352331247448	1.2370301453829637	0.26510450177017436	-0.287606834639158	1.065647003344351	0.600077627574305	-0.1828784192951657
-64	-1.960147375879961	-2.602557890996922	-2.297037595671485	-1.7221121744545749	-2.373148673741652	-2.583976977500133	-1.9247684430164034	-1.3664773668121224	-2.2535233440723634	-1.5753290613455524	-1.9144136857335867	-0.8921334720975551	-1.2643457619216645	-1.0086979840560657	-0.37791278862906813	-1.1010737391328977	0.15780486126635307	0.016649851533456977	0.46531420828640674	0.30567055863453657	-0.3289306751529588	0.1852295394035562	0.5436312542541415	1.7782666638300104	0.9199867821354171	0.05870787039477996	-0.23641739725981578	0.354600607453566	1.4676861725944974	0.29486146494806653	-0.5867318496195661	1.305688377898522	0.8120201805594043	-0.10325524184860428
-60	-2.0385591932326492	-2.9579105302517203	-2.6814148358356693	-1.842213029978681	-2.3837444722073315	-2.6500897340623406	-2.0467379041495	-1.554693098911386	-2.2255334797936657	-1.47996592148012	-1.9297414969360376	-1.034723160038637	-1.3415410484775585	-1.026766178399791	-0.24280220208855197	-1.1213721008599087	-0.05063850047320331	-0.2370182865834406	1.0439352962839945	0.4955607938175701	-0.3592258086671692	-0.13731205428741464	0.3074301473485083	2.057463879159041	1.073602435262437	-0.0739507002751569	-0.6770195347858987	0.07511489819397052	1.6066408116784852	0.38257259033887614	-0.7111176234411118	1.458675380838683	0.9667285060316878	0.06243663265438582
-56	-1.9875401208288064	-2.9484999105397622	-2.682509415529561	-1.6493632751784093	-2.1539671366668585	-2.4545278487223463	-1.9209628056663925	-1.4456800185896939	-1.638926621113878	-1.2032515972275846	-1.7368901924150058	-1.0089998219764462	-1.0450166437467794	-0.7522132973752885	-0.012476626752108935	-0.9949688886317438	-0.14295992219116965	-0.33468663607974114	1.4737911187155586	0.648460028918521	-0.3521251669576491	-0.36081126241186934	0.06067819505511336	2.148616070091013	1.134641882892751	-0.1811416889624076	-1.003302333206041	-0.23614919126016487	1.5636923273661434	0.4278891671821654	-0.7578303198754502	1.4255561792621447	0.9657160019334445	0.1633898164677065
-52	-1.785267586969073	-2.6228456430971896	-2.3772125184121777	-1.2283296554070666	-1.7344832376557628	-2.0591878839001714	-1.6600478845645803	-1.1489897937375684	-0.6957088691312603	-0.8176856020310013	-1.3972028458605246	-0.8925451613779793	-0.6166670306848867	-0.25162991817840097	0.22737938108256897	-0.7816266397769182	-0.2013368899507339	-0.3260125211590905	1.5564111431880543	0.676422653874625	-0.3671631505756114	-0.5458410368489651	-0.21531885807987677	1.965554113193886	1.0234882805732892	-0.3275414100960416	-1.265450712823721	-0.562834499845459	1.2969388929047432	0.34499782236733706	-0.8163381198299661	1.1646492451827122	0.7645795326002619	0.1027970758465338
-48	-1.4246598446162755	-2.0731291718593576	-1.893088455188978	-0.7224553209184378	-1.207373377612686	-1.5560879668048981	-1.3775628770380404	-0.8136077502689886	0.269912301812586	-0.415288953924717	-0.9959723924286488	-0.7596070151224293	-0.31679949084406384	0.3137727669900112	0.38506823680932084	-0.5518914447201945	-0.294675707073093	-0.28575149106359626	1.261435505543209	0.5304915295558708	-0.44108050950268124	-0.7313456516874652	-0.49764919155361514	1.5191848239689925	0.7133939844239815	-0.5523535595299713	-1.4836037121508672	-0.8350131490606177	0.8342393019594526	0.10281008456022318	-0.9213619208915582	0.7125575524459602	0.39385899801950236	-0.11542167485421435
-44	-0.951902029495177	-1.4241756164833428	-1.3533657755061146	-0.27733942796303906	-0.6645369512946175	-1.0369877789065158	-1.1430504293192754	-0.5646349177409988	0.9325764751730892	-0.07761922459078872	-0.6116538032347754	-0.6518248899215305	-0.2957147352381943	0.7510275225751207	0.4029599418003119	-0.3617469957278357	-0.4451267111983982	-0.28439414429387566	0.7353526931316636	0.22511650565054567	-0.5729473814803878	-0.9139461494259062	-0.7302649002711266	0.920913217126822	0.25028523739566316	-0.8458968975644804	-1.635731216115537	-0.9636979674803792	0.26935973695459087	-0.2578645938084882	-1.040839907879334	0.17407129661003462	-0.05017243685572004	-0.39306569000186725
-40	-0.4650765645682872	-0.8105952719250012	-0.8460890033341065	0.010062218618320259	-0.18399055255689947	-0.5679346308674335	-0.9657145714219736	-0.45729103568970464	1.114547249841068	0.1496556695497528	-0.2910027496620172	-0.5698430523790337	-0.5270020948455951	0.9169536805843896	0.2846855514014468	-0.23388065338690223	-0.6213743074941385	-0.35940417556620924	0.2137494230834196	-0.16383713442445524	-0.7252989989088473	-1.0528343889357819	-0.8549479820600613	0.3344877055783055	-0.25889488989315196	-1.1480598420721306	-1.6751658874179516	-0.8925924278611669	-0.26799622110415156	-0.6388054473961129	-1.101945159037314	-0.31596636692381924	-0.44233685620208496	-0.5915901645982974
-36	-0.06052312984683139	-0.3314145795084124	-0.4172850240662381	0.12679557470256939	0.19724337706834594	-0.17060196356615864	-0.8044620135977434	-0.4629997301332994	0.8591728784803636	0.2755170457559549	-0.03436637661125036	-0.4818949687235177	-0.8337191322258111	0.7835766057258219	0.10240232173576365	-0.1479833420355119	-0.7566614131897113	-0.4995828854345363	-0.10313300017305918	-0.5205533491343375	-0.8357753136514363	-1.0925252410007942	-0.8440561869291742	-0.09223651117640788	-0.6790839416524822	-1.3661363090355787	-1.5614008864081834	-0.6322123988402185	-0.6520406587350728	-0.9198117828987984	-1.0328937742858095	-0.6375924332733516	-0.6722659451677734	-0.5982462152635604
-32	0.22651214840443779	-0.006991118640683139	-0.08181343206968987	0.143018900987026	0.4937508689812126	0.17654536619912511	-0.5996594413876167	-0.49424546832231003	0.4020781208854088	0.35889658241258354	0.19701421211092432	-0.3468255093877928	-0.9932733153060992	0.45421510820151423	-0.029076002464794342	-0.051218606402305474	-0.7853045443734978	-0.6524072869041605	-0.14543198012350406	-0.7285841088973489	-0.8403007962945821	-0.9953386758469968	-0.7196454387615306	-0.2857249967990605	-0.893804845937482	-1.410539981141793	-1.2894045081962877	-0.2607123547170545	-0.8003042916119332	-1.0046937440301646	-0.8010138849061927	-0.7239563446840268	-0.6817490441275955	-0.37436848784341514
-28	0.43941205629034097	0.22436739447689988	0.16287669498329185	0.1719009871911138	0.7540608625447267	0.5133085237894698	-0.31251105587259126	-0.4560372221876975	0.04368097324071788	0.4767923641087913	0.4511479127937613	-0.1416002061368252	-0.8621088840652972	0.11176305236017085	-0.003705612840088378	0.11137939961446208	-0.6805003864273484	-0.7545336465858914	0.011675722867574399	-0.7145736795503976	-0.7016680222915689	-0.7689090947765256	-0.5483705983622015	-0.2673096650050396	-0.8485267736946204	-1.2358615367204477	-0.904292402368523	0.10558295223281831	-0.7013126594003152	-0.8617240168749541	-0.43314552197770173	-0.582184015234686	-0.48582211014159643	0.028860203848929882
-24	0.66277909111534	0.4626711297274823	0.3319422296249544	0.31376519720014384	1.0231691573059674	0.8623921849411993	0.04784468549331282	-0.29591688439043967	-0.00400299251931546	0.6804632527337472	0.7495700698047526	0.12094299464685014	-0.4532357442856824	-0.06925612670579084	0.22472913506512843	0.3630739143264753	-0.4723095583911969	-0.7675709109000519	0.21566142087369725	-0.4750843632147424	-0.4283770610007425	-0.4720628547670945	-0.41285657778454166	-0.1262718584925727	-0.5682263956028724	-0.864725110731818	-0.4907238769062592	0.3591261795036787	-0.41577061905793083	-0.53775042159687	-0.007963988909879814	-0.2859794490269642	-0.16574248629685723	0.4930211591193922
-20	0.9509570574592937	0.7736228088873969	0.45024782305528066	0.6023305043271926	1.303208705472837	1.2003983228893906	0.4184932400151072	-0.03279507151906808	0.2783507697707121	0.9591060852631212	1.0625401708479225	0.38942435285476495	0.06996192020395547	-0.006183370000903746	0.613916991591183	0.6732856614280163	-0.2393740558541118	-0.7019210440080016	0.3364168099015905	-0.07979562113404186	-0.07784922401323506	-0.1978199476969638	-0.376920997144832	0.03182776264261168	-0.14661236070333333	-0.3851944794466364	-0.1447047140521133	0.4390930522323085	-0.05384287969585072	-0.1422541733964885	0.3712924113436131	0.05295224474412368	0.16025589366029602	0.8770299531728277
-16	1.2700213161828477	1.1284838886379736	0.5478914366240618	0.9805099939386348	1.5370547732646955	1.454296585225959	0.702431557789214	0.24964216288480506	0.7138015609839266	1.2342417208981213	1.3119919266954734	0.5894923195260793	0.47764417408512577	0.25741124088147116	1.0455219719239095	0.9620778536348297	-0.07666956613972187	-0.6142407640207854	0.336153983221117	0.3526634863055789	0.2603366368396614	-0.038779668412050924	-0.4606261539750465	0.13383763994758438	0.288892208800494	0.0795713810103824	0.06019766986072797	0.344168185318803	0.26378178529898083	0.19352494131342132	0.6111696347064872	0.32399013556696754	0.3783637871726224	1.062256452739508
-12	1.5091612300917117	1.4074357712497279	0.6529149992670754	1.3248063292433814	1.6346068340993327	1.5353277882913334	0.8121069649219781	0.44533026105979223	1.0353543732252148	1.3967910969754556	1.408906575460492	0.657066939602357	0.5896449670209636	0.5859844073759698	1.3783131803045785	1.1362217636031786	-0.05011794703466201	-0.5743666276735514	0.27335372498161636	0.6997805816148767	0.4992818521768582	-0.04566016036664895	-0.6344053133206133	0.16241006512168465	0.6245762093987436	0.42029315127116773	0.10166883442959017	0.1215567660242945	0.4495915461156381	0.3699754169183036	0.6612231714720515	0.45656800154808225	0.422070055134403	0.9890684460463908
-8	1.5514010151794635	1.4632734023343374	0.7721523623045005	1.5005308351778934	1.5284469089065453	1.3919267619276172	0.7130662780878337	0.4766812908535328	1.04022717213259	1.3678655589854363	1.304640409036727	0.5715498313778677	0.3600234976261843	0.8313699343672097	1.514929290761353	1.1376938791161244	-0.16276000399027746	-0.6236745103348581	0.24534185168789102	0.8808160401994015	0.5909724816660494	-0.20014396259321107	-0.8343471267615791	0.1466709222666773	0.7989980558249785	0.5855166897295982	0.019579227964321093	-0.1574608977633839	0.47968405364044614	0.36175575761059553	0.5350388871035939	0.4435665000206967	0.29967313929237877	0.6773656589572356
-4	1.3526030744734943	1.2111692398009783	0.8769733883650787	1.4233947956387565	1.2237758605577238	1.0499899360849922	0.44529023654092664	0.33033445394084227	0.7043628674843501	1.146649357761727	1.0258436177102868	0.3715226342834768	-0.11033952208317485	0.905215797523052	1.4442447387471262	0.976825592435791	-0.3503587535118678	-0.7469259481645473	0.3099372081083987	0.8807882644350064	0.5452972636760521	-0.41640818013916114	-0.9890935396017779	0.12931798365845068	0.8151678422374008	0.5988803490777247	-0.0958263648117154	-0.4206983436453278	0.39671769638035737	0.22893334867374598	0.3104071609289437	0.33869603190740216	0.09229528135600804	0.22475755157945335
0	0.9822207664486587	0.6938963514928617	0.9099481082830462	1.100724455915396	0.8133905509439754	0.6169514640490368	0.1123413887763857	0.06278178825024748	0.19898183593579818	0.819046674091011	0.6728632433115596	0.14481106363928528	-0.6306532605461203	0.8086373189537178	1.2399964301273667	0.7325798850637132	-0.5077761994893201	-0.874806044277228	0.4411593962498423	0.7460677008865932	0.42419657004068567	-0.5716307744852683	-1.0442510816912172	0.13465289737560265	0.7261686306739247	0.5429885373711512	-0.13382750715799815	-0.6077948793324698	0.2852370433758387	0.09096124000233576	0.10716828676822919	0.2298093581357982	-0.07890633473739946	-0.21859389488343672
4	0.5868909940207147	0.07153471541225338	0.8103628138109642	0.6272971614258704	0.44101440795179225	0.2397422784474433	-0.1610489185558692	-0.22784176411324666	-0.2036445582731928	0.5172355161959369	0.37745284938882007	-0.006088160894341186	-1.0118044589246262	0.611030636675222	1.0158284876925427	0.5171695934589817	-0.5346511588903089	-0.9179967022606808	0.5443605170811272	0.5550696835808836	0.3134954563808939	-0.5539674148878352	-0.9751182173905106	0.154778569545974	0.6032588466672254	0.5184634314798545	-0.0011620931298002956	-0.672885893076517	0.23134492279294727	0.07450628261828621	0.04791528346958073	0.19951622137718275	-0.10358092162683476	-0.4931159007020235
8	0.30408549232002646	-0.45181935911546084	0.5560668096808136	0.14607493542507288	0.23228917957309497	0.0391622967029302	-0.27975326705873604	-0.44249674566129127	-0.28226083445810574	0.351499258584443	0.24249193011095704	-0.005046289401426748	-1.1403585643587253	0.39345878263316847	0.8622556903050083	0.42465311181619014	-0.376293568853188	-0.8128583410721196	0.5167730437582922	0.37992241882724137	0.28765422033163474	-0.30552604717364346	-0.7836241702322325	0.15791413148111166	0.5031740056685421	0.5993101581701148	0.3465168467356027	-0.5839631542720948	0.2840659015159263	0.25780415469883855	0.21328008121048195	0.288979768023448	0.06831207854189932	-0.48427599546234873
12	0.18461607349991552	-0.7236844878998926	0.1928211892743351	-0.2125694299337804	0.23061533214041613	0.053567621721682626	-0.21574215536484168	-0.5177173601430847	0.004398650944303285	0.3524543038052678	0.2940363876548463	0.16648906427310645	-1.0041129563729396	0.1945426757192304	0.8017777780317055	0.48894604917103224	-0.04352479044534919	-0.554265557320249	0.3145108513044014	0.2582181089557585	0.38183724783813866	0.15536694189422756	-0.4895049023190353	0.11074298592264083	0.4496417630287346	0.8039463738170933	0.8885605908848045	-0.3281324497521421	0.43597033509808747	0.6360629780922765	0.6071416720320255	0.4808870541829106	0.40080347556010526	-0.1711031641216483
16	0.1692948486106957	-0.7117896658092576	-0.17411047176271435	-0.38608676097667116	0.3746378710347974	0.22261966708720848	-0.01443135175935692	-0.4440753448718595	0.4856724428789433	0.4572557199377644	0.47198173284575995	0.4635933029867965	-0.6694595796848991	-0.003661917280473533	0.7861963490663756	0.6732757074523639	0.39701923627751473	-0.19790676186185996	-0.016581239136913138	0.1868451232961142	0.5831532463609316	0.7429741602259162	-0.12183923243517192	-0.00025716665485206734	0.434776483868573	1.0943191023854253	1.5460219344206445	0.08024340847736702	0.6322072728407807	1.1262681455786876	1.1521335811136644	0.7104698401633284	0.7867138961956537	0.3610540023271043
20	0.13486234809681458	-0.5051222430827517	-0.4273491491018638	-0.40070369738500317	0.5321882353697633	0.42165467036601206	0.23292878211340368	-0.260641246376017	0.8622056820081679	0.5476119504454157	0.6643626077090897	0.7998759726356587	-0.2366256260858129	-0.2477960729303214	0.7339173536844513	0.8940490461665103	0.85415524028655	0.16791716175599683	-0.36779191997175953	0.13561169768903886	0.8415647723884978	1.338739153343031	0.2851275794459851	-0.16306544799165779	0.4336025405903632	1.3996299469896505	2.2086553517845213	0.5941842183370177	0.8004751781280728	1.6084489781778262	1.7207424597210947	0.897757766364361	1.0970542403179728	0.9531304812208962
24	-0.025136372011021587	-0.25951293045326757	-0.5085845576797231	-0.35491692930259033	0.5700458869846922	0.5243744240873062	0.43070396672225414	-0.036364588794687645	0.8579674341474696	0.5161115514122451	0.763147948245661	1.0822155448293138	0.19808496484812727	-0.568976639264766	0.5815060720067223	1.0617244216815862	1.2453634707479715	0.4631434965361347	-0.6340007169928995	0.06802451593390646	1.0900285216467462	1.8334722472630174	0.6899431926474041	-0.3515213123029542	0.41946628583860873	1.6490739542334	2.770988218940817	1.1385804386002754	0.8860480166952863	1.9821711728595737	2.190359825326196	0.9852557157436697	1.2424662081820441	1.4414430820311772
28	-0.3428281536983459	-0.12460347233545759	-0.47442567228699256	-0.37928524517620116	0.4163102497080424	0.4573575246707837	0.5120531307643801	0.14951981566349148	0.36102616695806444	0.3192352346466605	0.709342299100959	1.2402936188854663	0.555082319765544	-0.9517592763713003	0.31583821693787567	1.1143178911685514	1.5161759815083273	0.6467997415424942	-0.778262494029644	-0.045298270766808854	1.2624388901308246	2.1582913344251056	1.0427657339471645	-0.5455074892576443	0.36998107935954294	1.7953896477192741	3.1628096023814947	1.6274228054919824	0.8717946388168439	2.207456583171825	2.496078961746102	0.9601423716145698	1.2139500348913086	1.732040400900456
32	-0.7740341405399533	-0.18908581089917587	-0.4910916673659172	-0.5859270677078406	0.08531050362505815	0.2219331854939023	0.45223104839588507	0.22484800162767166	-0.5238503204471194	-0.009287703758870825	0.5076852428016225	1.2408775059842119	0.7687986473700357	-1.3412491049281856	-0.028138263080007327	1.0303888294908035	1.6417018133676136	0.722687302195318	-0.8535607435610613	-0.22428448441622664	1.305504676383788	2.293873781134795	1.2912182775322236	-0.7441679220484637	0.2645083361146361	1.821081395319814	3.362258187388189	1.9879959771508977	0.7744100074289579	2.308324092759078	2.651438706379491	0.8499702789781464	1.0791697474889814	1.8379801465359988
36	-1.2368454901939157	-0.4604610193071132	-0.7477772813037248	-1.0184016202009998	-0.33814021859627497	-0.1167501431736142	0.2676332586207082	0.1439597603024301	-1.5246889552722345	-0.38332909248845537	0.21432426517734332	1.090979930984249	0.788296518719734	-1.6724437432979322	-0.39327585597881465	0.8265603759877816	1.6215907294340142	0.7246395331207174	-0.9641810035204194	-0.4788121867011954	1.1904751032336582	2.2634422721936827	1.3963712418587177	-0.9590716933831727	0.08492247738855004	1.7335296825510538	3.391188612959068	2.1832275335503804	0.6253985150759888	2.3411812723178453	2.726292126448073	0.6990680676930306	0.9375604963473343	1.85777949817821
40	-1.6508363443656693	-0.8698951580019375	-1.3278043236587247	-1.6235755641000233	-0.7397855501570624	-0.45959210279777135	0.009467024332224846	-0.09273277944755483	-2.3256685675077677	-0.7076273542658114	-0.08860528446715009	0.8349140861412511	0.5941613301534818	-1.902428741420279	-0.7282564025612012	0.5488832579106202	1.4777116738204061	0.6928789002091145	-1.1918694942900132	-0.8028117994066583	0.9260589457019345	2.1172940677592047	1.352086182995307	-1.1918381422469404	-0.17401435927325667	1.5567152460849305	3.2963962471705637	2.220405096170139	0.4500628102383649	2.3467976987715606	2.790927879916475	0.5400629029943824	0.8573995210934835	1.9024156283984615
44	-1.9388889025373321	-1.2800788847075646	-2.1021649784419334	-2.251440996207748	-1.0108243201484144	-0.6997022611118395	-0.23926412998826233	-0.4225568760693769	-2.6977930000857	-0.9075848437283134	-0.31293827216294023	0.5508638606468611	0.22581343295782236	-2.0210668989652896	-0.9948474143659983	0.2680361264137279	1.2587208716084122	0.6586250646174966	-1.527076598126619	-1.15962660019875	0.5698575959123221	1.918502445145566	1.1957670420020357	-1.4076766932233018	-0.48425146815108555	1.32742368839815	3.128215781896936	2.143136734319935	0.26163178616271593	2.317302221169638	2.859016649657287	0.38115128778547297	0.8331752994482534	2.0118911215531536
48	-2.003206963249884	-1.5009249410881533	-2.719413750458359	-2.6912050179245988	-1.0643163892577447	-0.7381683569390994	-0.36997145320943603	-0.7236526590196629	-2.5716466838758687	-0.9343645549071916	-0.3744487454974026	0.3427977255272649	-0.20689140207984516	-2.0299673029192586	-1.1546025247033171	0.07596450279845389	1.0435661051151879	0.6419146044736818	-1.849459881881466	-1.4690107070073521	0.22833162488509642	1.7339107946487853	1.0019025777316697	-1.5249334535244858	-0.7672074417771293	1.0966001721352203	2.928611271139903	2.0124258944247284	0.07563192378260808	2.2028074208910824	2.8682851718964595	0.21925762240365734	0.7930479625706529	2.115731949232875
52	-1.714199181043462	-1.323649879928369	-2.7313747337045275	-2.740746729606769	-0.8412973859527105	-0.498325912886364	-0.2694766216627003	-0.8474897124827917	-2.03408431493279	-0.7564051728224688	-0.20344591089381917	0.319260656027593	-0.5474662170893078	-1.9142788600274452	-1.1549161643433332	0.07124599051369035	0.9306995845184955	0.6565091593379571	-1.9777833173408668	-1.6140166480322384	0.0337234995407776	1.6272772509498084	0.8576189257903478	-1.4366084300963622	-0.8992392994111575	0.9285294390123474	2.732818596615921	1.885541434295862	-0.0666311009036072	1.9583285997538766	2.7177939346360325	0.07051581126529355	0.6562084539058245	2.069319719812091
56	-0.9613758301304376	-0.5979318603678085	-1.8196837856126493	-2.29621052162267	-0.3278331748314805	0.04422258947055351	0.13208989765673182	-0.6832063180840299	-1.2727185455614138	-0.3628308465856949	0.22767174186445413	0.5500596151769374	-0.6574664099306331	-1.6392519432642407	-0.9403129792314677	0.3210810116767599	1.0028288339091407	0.7096468192303477	-1.7660435393567815	-1.4797227345300505	0.09452102309443002	1.6470795828242508	0.8285262563768002	-1.0596044036815675	-0.7506933789373536	0.889012274881772	2.580024235887188	1.802815432765223	-0.08511245974271134	1.60495566916565	2.3478255212634727	-0.003456608616401767	0.4090394367381182	1.7531018212879548
60	0.2334647172755485	0.6531252248486674	-0.02138468804026716	-1.4283462726770364	0.4083579768361217	0.8160435536762298	0.7988405803538795	-0.22970063926400236	-0.5071938025066902	0.20705312438187368	0.861357448310511	1.0127376292408738	-0.49165087814178804	-1.1849175661688323	-0.49732801192605386	0.8081722835163544	1.277816650025471	0.7930946330073941	-1.1970565288838506	-1.0161278222178491	0.43665343412781116	1.810126657684203	0.9323097443883928	-0.3903002133052056	-0.2486997240463184	1.0239614222423217	2.5252244408747875	1.7891552403100877	0.12695218590632132	1.2685537306228933	1.8213574840337166	0.10539639714572295	0.15494908353308467	1.1827130287827354
64	1.6103750426642354	2.145276541061969	2.1756830160523384	-0.4014265527126917	1.183199045055007	1.6120403964350551	1.5476503333117968	0.3654661765408181	0.06349242462578789	0.8260653594141718	1.5230646094969167	1.5585440357913118	-0.1410746123805228	-0.5972077831449053	0.0932273042828465	1.3937798703290056	1.6734300809571852	0.8725612141513648	-0.4204309572095405	-0.2919271282931825	0.9680646633502442	2.0893630928693967	1.1335853309621298	0.46573051692678935	0.568586526865696	1.339819547131502	2.6413097314905136	1.8651637983915	0.6653730256447711	1.1662694186329063	1.355167385494547	0.5186908828037432	0.10114240620826302	0.5603563175358893
68	2.6619112424400866	3.3377556716572054	3.9440278907380875	0.3863610317489127	1.7015504794076113	2.1124558395457123	2.0679914899112695	0.8311343768116521	0.2864111654679824	1.2710204092360502	1.937600726957699	1.9315303515305202	0.18970680188920042	-0.019754139656618017	0.6398849471149146	1.8344924403604173	2.0168783613782084	0.8886396266435771	0.29306569621480744	0.500765024351382	1.4980479441013985	2.4193792282056195	1.367075678234867	1.3146065440365895	1.5434160193576436	1.8024424268991606	3.007675163304788	2.0608653970184947	1.5694844683122129	1.5391720494510612	1.2721015182802569	1.3184996810049097	0.48079189536776695	0.2276248479102955
72	2.782407276758056	3.5798647313334144	4.419480312633389	0.5419076667455232	1.635030742331905	1.9763965556790237	2.022660011906824	0.870413897224108	0.07186909001801851	1.277783152215192	1.814881081767353	1.8554773283842176	0.2712628834551417	0.32845503008885213	0.8926187731140911	1.868485088399289	2.1108136123770067	0.7796594480857179	0.6694155914571659	1.110444185314379	1.8175463630564002	2.725741856368896	1.5793439109981966	1.9465117405384111	2.453222983842218	2.3619005620451974	3.6879308130613064	2.4212288795376193	2.7946927476895627	2.558337205149706	1.8846427154642076	2.501827233673728	1.4453798495993628	0.5310108052198429
76	1.5435191353928448	2.3785886704472774	3.0781609934338348	-0.15463197192251904	0.7612611632200597	0.990946349979943	1.1993335455178114	0.2958178512733954	-0.5829725250784288	0.6562247259738071	0.9836838816602663	1.1617130011792003	-0.03798605119532178	0.24016143320960678	0.656099198592227	1.3444404568106922	1.8316760016926013	0.5211367593959261	0.5657448158285592	1.3409088816166668	1.809186096392022	2.9660241528966407	1.7645235017095573	2.230676883787638	3.1117517869586453	2.992036335066684	4.701777923157228	2.994551651069855	4.220031250789537	4.2454156768423905	3.354809752577283	3.967622031684988	2.9792799874426406	1.6573985773202926
80	-1.0366331312709975	-0.3260896793715574	0.010225856650879925	-1.6299374062394179	-0.8927251674047465	-0.7879316190853404	-0.3543703249090577	-0.8629591443208714	-1.572537775837768	-0.5822997078499029	-0.48599055286730636	-0.09858447288418529	-0.7127152067309931	-0.3671116223603332	-0.08554372914889483	0.33285307800178987	1.2134795158266396	0.15824098845107348	0.052422419058052915	1.1650453776508893	1.5331650933657635	3.1620547691619647	1.9747801969260856	2.1877486650544684	3.4705014141199064	3.7222795392471673	6.002972587688189	3.8079008959951053	5.691628918582899	6.447387202197254	5.596549019988724	5.547859177887533	4.884613978451227	3.524429789227891
84	-4.386960972200355	-4.019652833326694	-4.0422177212702115	-3.5030717761287384	-2.981366388423091	-2.979866258727171	-2.2842845859075407	-2.33248209364413	-2.6784510544863402	-2.156639332094682	-2.241636032166951	-1.6184459883836042	-1.5552182158305314	-1.3708795274455392	-1.102705833512017	-0.8458083250625679	0.469796149736654	-0.18934351158021165	-0.5989854320661984	0.7754526118727367	1.2378514973858947	3.4037604246033526	2.2995674552079444	1.9999531456998103	3.6652519610372662	4.638760554999681	7.47510908146896	4.842439162426116	7.082087498904116	8.879505135052108	8.271972635365277	7.069888573916605	6.848240358228654	5.786162361795153
88	-7.537028770491095	-7.710226993167826	-7.921197394399092	-5.203381048416681	-4.908434378629123	-4.965297686438438	-4.018311490404055	-3.677484741462924	-3.603488674602627	-3.5666091352059928	-3.7342486287250045	-2.9138860628946097	-2.271236413943414	-2.4503729281548337	-1.9686378190882	-1.7129815773630646	-0.07128814589860132	-0.3625864079380882	-1.0245076392056642	0.5295978771190096	1.2731907335561323	3.8130812548687447	2.8188798356411913	1.9434153984594367	3.9710366625662594	5.842522129566676	8.947219826043254	6.018067821567314	8.332836130084658	11.21417805701407	10.886962863138061	8.41661355754648	8.557497956604843	7.952702502199188
92	-9.488444304352086	-10.260802243075899	-10.473698589584284	-6.179710849418482	-6.029355987584957	-6.098748191694426	-4.969863402216705	-4.4626703149657505	-4.05583619047411	-4.266544808106183	-4.415594089803845	-3.4994356543880407	-2.592236273896517	-3.1946411052155566	-2.2216036263642565	-1.820000047857029	-0.09942804996898097	-0.22893653752223342	-0.9275947785799844	0.7990742305608091	1.9344232033527453	4.479323375836792	3.5534288793493776	2.2662010135655017	4.673862445475022	7.3769459538176285	10.225590680054447	7.197782498306839	9.45291898248133	13.172285046699232	12.946265187955913	9.549756025999047	9.80513760952175	9.566908812210624
96	-9.635973906030392	-10.829478236513177	-10.975961657469025	-6.114378436863704	-5.908489212377421	-5.964236721239358	-4.771330344551449	-4.4233035929582085	-3.8591127298196652	-3.8926939866013357	-3.964804162505701	-3.087333432985872	-2.3816409050892298	-3.2721154607175844	-1.5713698824309879	-0.9498059129576529	0.5388813005193384	0.2558237307765315	-0.2167876804362071	1.7895642473815039	3.3077995693616216	5.398531900127342	4.439530838248049	3.0668027323541134	5.917078003249291	9.160957313296587	11.135901422995392	8.218934038392252	10.474419567365668	14.579124413874842	14.106270754485188	10.485053989641065	10.534757587538037	10.36055943734308
100	-8.023961046941153	-9.221606231295318	-9.38251302257608	-5.045068728107153	-4.51227091603681	-4.555471885623783	-3.4312260064279294	-3.568026533655173	-3.0319373531086438	-2.4370639262658282	-2.4370765624504886	-1.717937584354336	-1.6803438621058062	-2.5788347655990536	-0.05023284988833767	0.7669938783354382	1.7626564458213267	1.0207606528259643	0.9469788646630938	3.419276944110686	5.196275221103078	6.45024822513925	5.343317018369773	4.231966007992071	7.598094444165044	10.966990443197242	11.563313454997335	8.940326668101672	11.389158220146507	15.366897544210126	14.263730966795158	11.234994859940029	10.810337039356913	10.320997212101167
104	-5.299703107804839	-5.977644905257018	-6.3001642068109	-3.3367438232100533	-2.2369890156534153	-2.287987941687375	-1.3362423147796938	-2.1656391565958852	-1.794232363939237	-0.27423998644254405	-0.25540670688041334	0.24579174754551977	-0.6756930334197715	-1.2894004550804532	1.9739470432035187	2.886703483922712	3.2812476075298553	1.9036409806826602	2.218149179580376	5.321897493277367	7.169558030146897	7.428422432264323	6.107138141471828	5.467092023397847	9.37225720900334	12.465590445517156	11.477535218824743	9.284288382931495	12.103260963399723	15.535757979269635	13.550184215667004	11.753215760120904	10.73356434973141	9.646475767576142
108	-2.3921279846831136	-2.1502757018159486	-2.7108426025612977	-1.5176515540906614	0.2505835586420108	0.16976672368102988	0.907291410062825	-0.6241276844479412	-0.4877933549486312	1.9828178832537537	1.9589489648951328	2.2627890052885937	0.3854506006045896	0.21422755664143942	3.939469804354332	4.829381453718849	4.712368476414181	2.716850273902331	3.2149872698675566	6.981979352489384	8.723363854318396	8.116599062454334	6.606606943616551	6.408939345391249	10.771209689602184	13.327154125898069	10.935539217995887	9.257039046757617	12.44210049348906	15.108025512698187	12.247857062888169	11.919099777646423	10.363759968340858	8.627638795050801
112	-0.07564406822895041	1.1400134534663473	0.42432883274710836	-0.05278606699490945	2.293921464850495	2.17505669044662	2.7245523860807612	0.6814327818832159	0.5635204300958023	3.7394583130837997	3.644540300704426	3.8362240694465455	1.2941646543253218	1.5095326862370142	5.327353464027753	6.12010286693348	5.739803299717374	3.321039429862862	3.681336155180007	7.9460830487857255	9.48009011736146	8.374813058689615	6.791423303623568	6.772154790946386	11.387856454707899	13.342484440495594	10.06161019645967	8.935905433981976	12.212995498339955	14.109290087363307	10.673652621977398	11.580169648497257	9.68983170923914	7.521011810387491
116	1.3481237854299328	3.1567883411814868	2.5017425950783605	0.8353731611141522	3.5155005366259235	3.367563716015541	3.7975079917397285	1.5497666558238485	1.1838350266131548	4.666951644558632	4.524201858542088	4.709382998974209	1.945662255143217	2.311067098504716	5.880083069260663	6.579907400684694	6.235208495610151	3.670158138545631	3.5839142708892306	8.010888079444863	9.338660216595489	8.196424463558948	6.690183622635277	6.460171206376403	11.043078394665294	12.509380308993023	9.011233307021772	8.427580812157462	11.298488588417419	12.58768746058975	9.08380220027117	10.634018871161937	8.667982079555879	6.474804385050396
120	2.0891203827564837	3.7963330649848825	3.4211401853016605	1.2197126119336443	3.943855752524411	3.7850983047288236	4.1636304750225115	2.0028972575164126	1.4029734099252398	4.820672023046258	4.691903579310088	4.946344839959189	2.3508055150761393	2.5727841789138903	5.695977673454732	6.377455695263218	6.289816363666859	3.8090274237785158	3.1021962087509594	7.299322109866882	8.505423524363271	7.7091283603581	6.381507380586241	5.5916657306638955	9.857157682327424	11.045422526129101	7.931834677697431	7.8164710801188235	9.734536146382132	10.654983493606565	7.632970313827967	9.107825256240792	7.299012642551989	5.530023560867134
124	2.6389779977927876	3.5342895895417423	3.5079033286220334	1.377437230447171	3.9489521880584184	3.794279327349687	4.151198376665228	2.2298855725255975	1.4184316360901301	4.578896987798527	4.52931355286512	4.8661584731267284	2.602075808631196	2.4731135305907053	5.158613191931808	5.92401121551206	6.147861465191032	3.8302419088934117	2.5256197388779396	6.193350776294444	7.397092800538003	7.121144276759608	5.9478850214515395	4.436657894377129	8.19656083898585	9.320766425441937	6.934839231148441	7.128896695258102	7.73256824448471	8.516827561810066	6.390263064463061	7.191346627198819	5.69434450619201	4.6780953289177045
128	3.4254529389681396	3.116364709615456	3.283812514597354	1.6166232783509746	4.027076711024015	3.8804745576160737	4.193154801272432	2.4663796362595622	1.4854133091616792	4.438150871515694	4.501295555194159	4.870001780612142	2.821530096559793	2.298233503261239	4.740770804833683	5.670252308834624	6.08166216268483	3.8204405211312924	2.1121864265520074	5.15937565454585	6.4652871922338475	6.640017969533174	5.437571988682339	3.294757357861957	6.523400290231658	7.738775233757369	6.087916835673188	6.331723674046893	5.627658829785668	6.46113632478217	5.385834203473609	5.198238359678444	4.082844247046546	3.9269239803351037
132	4.556222904146057	3.1667778412020424	3.2085325636918367	2.1164998954742225	4.549125183064124	4.408017147379128	4.61765812661668	2.875661127459502	1.7929668381245611	4.771446692817757	4.937034117631622	5.251349435899332	3.1121315877541953	2.2915065230688723	4.784165370306398	5.909012302738649	6.273751719847556	3.824744214891789	1.982702011824603	4.554289329474425	6.0271348801076545	6.403537734076762	4.855075347086595	2.3779168068930656	5.221230493714633	6.615293009268449	5.42757986605742	5.367308603087032	3.77238487244891	4.797973620698781	4.65421103256077	3.468190184419931	2.7463571955960218	3.332815877129272
136	5.788971886324193	3.9092633625513233	3.510137549121153	2.859129660063496	5.599603161979305	5.468090520404604	5.514207349206627	3.486032477160528	2.389661544488535	5.670350537288965	5.9024858325708	6.07969807043515	3.527205696737362	2.547141068703364	5.3637342317581655	6.676949484179921	6.760476572134318	3.8447646997655585	2.097761148878467	4.504021633220724	6.176767333648326	6.452638609807287	4.18200634854179	1.7497612193753074	4.476742256305955	6.10529278167424	4.983567225271706	4.2078704727745855	2.4244909225286513	3.7747104072635955	4.250735749003032	2.254756206541785	1.9153094243330098	2.9837844296462337
140	6.724565965840706	5.1262254585541065	4.1604537858825825	3.6770400908140224	6.976551038294105	6.877444726746229	6.729637605842551	4.206344117035031	3.187295667230562	6.940231305719788	7.2143420990951075	7.205036621976268	4.062810887569537	2.9959371014295164	6.294421180092001	7.789421061876571	7.454280834451234	3.8625275991195154	2.319715017184054	4.9024467344486835	6.8052801914059655	6.7508296796110665	3.413400641406406	1.3424745764216737	4.262241829601423	6.198722823705198	4.798799025817547	2.899832002947793	1.6772301154706013	3.5043067843653666	4.235205162799566	1.6495867925957528	1.6774458842841433	2.948352567858249
144	7.088747960313081	6.350801451861275	4.975011813000826	4.377769459162038	8.334850290235822	8.310326555251352	7.9799823559511145	4.899317252187298	4.025677193968222	8.235866525837295	8.57038400393559	8.366263368464617	4.665222156190197	3.4788479717160206	7.263541680117131	8.972720123525258	8.21978757690328	3.869825114970231	2.514261954635375	5.516063676258825	7.701934795007609	7.230933171135739	2.5869884425651617	1.0313603851981894	4.411737430878035	6.773977262560438	4.930985438295087	1.5727055033077426	1.4598250352242081	3.939467420168547	4.636284816480541	1.5754512508670335	1.9467960546932719	3.2235345759067675
148	6.920103532485694	7.163164597545851	5.759517178299193	4.863695609210827	9.383227324637264	9.480162596609324	9.006994224696049	5.463409886871499	4.754995810901284	9.254441237926287	9.71483991077512	9.335503554616155	5.250985132311385	3.8556277654577364	8.009695986552364	10.012056325429995	8.95454595212339	3.8817107579455943	2.6302094393127287	6.128545268798151	8.673326470411526	7.839198569532877	1.7882969334274892	0.7209095936693802	4.73944758172301	7.6739544674720515	5.432794557206364	0.4056958247909173	1.6018632609932206	4.9040169592066825	5.420457349443323	1.8470529271222231	2.509781354289632	3.716805448684816
152	6.551950915006986	7.421902160979516	6.413881285686389	5.176937567038132	10.024381612264111	10.270823452767393	9.695022558530233	5.877261146965541	5.289598928448025	9.87873933205321	10.547995540690648	10.019724820588857	5.733978257007472	4.080849637218818	8.448705651886842	10.835080119433604	9.629618620401905	3.925151099785381	2.7104902199022756	6.643701059733836	9.616277670423381	8.55197046028091	1.1285440893290448	0.39414828916218936	5.132775770579805	8.763826348112723	6.318501933357619	-0.43289178500553355	1.9227063607309602	6.162782653507852	6.483741267046875	2.263241046913429	3.121845952735162	4.275421131783724
156	6.41645859051997	7.313067894591699	6.9543061080829345	5.453381524622649	10.36986920599633	10.757060977479703	10.097186063069067	6.192017539603475	5.612630353108523	10.201667759887796	11.132608385589155	10.474951717632878	6.05371235272732	4.208617676599603	8.686335541728779	11.49836346584247	10.27546880035088	4.018983353958267	2.8382906842097375	7.0985851108619755	10.516557666929689	9.360800719469278	0.707409558894352	0.10625733408326563	5.576698289142847	9.947643254913912	7.534770469715547	-0.8438853004130346	2.3005065859886544	7.494741420896933	7.670390586560639	2.6836635998680776	3.6040458588205806	4.745347487866561
160	6.79711816978961	7.206961136741916	7.456285457859259	5.815858826258751	10.636983844604158	11.119132013858042	10.37024590735036	6.481533511009968	5.742730126187035	10.433843586327976	11.610431641829056	10.837936374004029	6.197943671790662	4.332666386155796	8.924067474722314	12.10174366756615	10.930462809622473	4.1598892106886955	3.0571634692253737	7.593775253196945	11.390598268360645	10.241581890951574	0.580290494884242	-0.06441403909155873	6.109966739487147	11.148333521352676	8.9542264712282	-0.8237024524873068	2.692032568810571	8.738801934113404	8.81168744723505	3.0571980399192564	3.8945188424011716	5.031634794883013
164	7.67271993607258	7.4162549785291745	7.962221125527207	6.278758033158891	10.995161982432755	11.51049420311653	10.664260837333142	6.785723192248799	5.700293049725575	10.755994769596654	12.088261573789156	11.223557443892245	6.20860956531842	4.506507862157318	9.318614936189556	12.692345587156568	11.589265794104174	4.325518597172377	3.318464747633645	8.191465357126155	12.21809098019965	11.132598848846015	0.7462113480801393	-0.07400634866149483	6.750984651687092	12.277610747810606	10.401705715620542	-0.445702611274764	3.1063532750856786	9.80313393978804	9.772090887193077	3.4005606088613094	4.039547433191015	5.134891973882568
168	8.739340760100813	7.997191885784373	8.41820428630223	6.721643430905458	11.453362435987824	11.956737488122686	11.030139895247277	7.079047662028246	5.495753751230756	11.20385071786778	12.562398878805453	11.648570031320169	6.1617612683175595	4.694861400194954	9.878711675498105	13.218297925001028	12.183580367798987	4.492861259561157	3.4945542724118397	8.848054863525066	12.913289991200788	11.938940971749162	1.1584649056750107	0.05902652055023498	7.447188835415185	13.225893940912027	11.705917328843837	0.18991991829605678	3.5609033017853404	10.650543186000588	10.486753437268609	3.7532915974269256	4.1422915354096395	5.148275839205223
172	9.579068159714103	8.705913521720854	8.680464722651804	6.949637872315912	11.852492302533829	12.341544120146748	11.394766778787131	7.281840782854133	5.1473278869371075	11.649861306341322	12.922957387721791	12.02464482132526	6.1318144643465375	4.7904848931481085	10.4569539759791	13.558472599129963	12.609379736535958	4.657295692129398	3.4512462528831205	9.423641181041578	13.35657021011335	12.566780058603962	1.7510158971446617	0.2704068415490388	8.082447031595736	13.888252223236314	12.757892576431995	1.0094667647624376	4.054209222094428	11.28344628346272	10.979848833972882	4.143500794439789	4.305969227409722	5.220537172488356
176	9.862474416627967	9.124987579195508	8.584732987664012	6.804556352601641	11.960920303663883	12.4792461080193	11.608039826649549	7.302637081782341	4.709821212321491	11.884782761131504	13.02741810370561	12.216830222756544	6.151874049867181	4.682270515064389	10.835855456650885	13.604170764908142	12.783014265211342	4.834673869324384	3.1385283390913585	9.760489439163285	13.4663400310032	12.968895879427096	2.4651830134140726	0.4978618907279591	8.538286187549344	14.214866602294505	13.549643482330966	1.9930577227817337	4.572949397939276	11.742224663652072	11.357221574719327	4.584735381948826	4.602612483801884	5.502607331688306
180	9.47424409381665	8.884972549894261	8.035458544470718	6.257025226054337	11.611983269937932	12.22539231074762	11.52822968433396	7.084650498622986	4.2783565413222115	11.744396180065047	12.79253002751642	12.126328437706718	6.192284568411394	4.3287482152367325	10.85336587073021	13.336935963336751	12.690720526125515	5.043259607933497	2.6390640668996257	9.780143713100479	13.262998547446765	13.17316719543968	3.2620098508493	0.7259988766460329	8.768578507219377	14.252786600367712	14.1717691063706	3.160718194610896	5.121438490334992	12.111006706178019	11.771641701541668	5.096328245647412	5.072938906259443	6.095749839651215
184	8.512056329217131	7.862562636551526	7.065360051436583	5.426836476929658	10.806484195128359	11.56268498362441	11.098159762018902	6.63172052616423	3.9552049536981495	11.209097833943401	12.250010459489177	11.749578446287314	6.17188356748634	3.7923483752824185	10.497497532090117	12.854206052751328	12.403523413813508	5.277614103344006	2.142771715476252	9.541776633013821	12.882778135198722	13.276335682728034	4.117918957803938	1.0004948352349186	8.84131524714804	14.148277246993878	14.768686257268316	4.528038490307304	5.746530518328319	12.514361349935037	12.369326560262152	5.723789677473869	5.742516979977856	7.018818360727673
188	7.182876568779043	6.2451381525675025	5.825874790741519	4.516178119701262	9.719424223202513	10.612277957825714	10.369412395999927	5.999118789785322	3.7867185973883073	10.417132351323781	11.532034844846812	11.178273172766342	5.994265064364226	3.2076496996956525	9.91388604522131	12.323545424818656	12.045472114668673	5.491239533865445	1.8568695736733662	9.221106505954785	12.524105994075473	13.400206532024665	5.009202467669142	1.3988468611685685	8.914079643631808	14.095169031795932	15.468144377755772	6.058371051751203	6.528633101192567	13.086495366434873	13.232196774453243	6.531683428485891	6.627399427847503	8.201291063583282
192	5.692780480317053	4.441886413803625	4.5180926208866135	3.701457014275325	8.613610245891884	9.572422957094162	9.471419310498586	5.263059125963762	3.718868484644573	9.591094946487939	10.80174061909053	10.547322246624965	5.5950212337376986	2.711247675726169	9.32773396998001	11.895184486874285	11.734271019873326	5.606597409398169	1.9005281877217692	9.022140480150972	12.354211776059591	13.632546390446851	5.89870880545021	1.9765932510062858	9.154770828021679	14.250213587068544	16.318963963315177	7.64323518730669	7.536638240859513	13.917125666766932	14.33828731731493	7.565776329012265	7.718706588330742	9.50194261059242
196	4.201411713483031	2.8979158328323917	3.310882083163043	3.050667278216995	7.715326289724775	8.62677762714526	8.551367738114461	4.490694511519752	3.6091842560244043	8.92646596562202	10.175162289678838	9.967067693341432	4.976907240699898	2.375242227279457	8.929419494972473	11.627286881654666	11.528674096564282	5.55158279924654	2.2423405590664176	9.07343671415232	12.428471533867707	13.984703982331176	6.735784513633427	2.723463290014175	9.653322195476337	14.659489594641178	17.26852603367167	9.127467132411903	8.773131348394406	15.000081978119644	15.560364683919422	8.807800270731192	8.958537079127474	10.747889491601981
200	2.842864506219674	1.9099540662227514	2.2912886084881237	2.512085193013674	7.120003205442909	7.874361018327157	7.721093635138681	3.7280392552665607	3.2953650868185527	8.504767396435241	9.680121397374007	9.481086707019589	4.215039719430069	2.1805567686340277	8.786513306368432	11.467524499550702	11.411197633543011	5.3052749499843745	2.718614809801807	9.366416907504414	12.667817083800529	14.389377557664455	7.470201950286282	3.557528486806678	10.37374207738548	15.236513099348885	18.192108108366217	10.368490192938289	10.146626446855375	16.21768565851717	16.709209399951973	10.155411694635928	10.230861637987918	11.783631295017257
204	1.7670733884066105	1.5320783814849623	1.4735758267391734	1.9782890031458644	6.779001218846581	7.317849617602087	7.037782174461532	3.009050600084152	2.6921710900046794	8.280140855864673	9.274104094932307	9.072339988691223	3.4326205166935737	2.049620146344982	8.83111188566257	11.301524133758875	11.315237970394172	4.924666392290534	3.124728194930644	9.772424673202977	12.909610715697381	14.74182602021455	8.072975138309104	4.364502895780006	11.177184076699756	15.809079130312963	18.961175870706736	11.29944321640573	11.4971255965829	17.381223634705496	17.609228089696245	11.450314492880286	11.387542695858594	12.51634403883384
208	1.1431187362420154	1.6076568324507612	0.856719491702958	1.3863757813737	6.566900236716069	6.90840719386166	6.521476729140323	2.3762884080019133	1.8677952242424003	8.139901140642573	8.904755569863845	8.709041573470769	2.7610030104546746	1.9157957982331488	8.923004127862205	11.038514109398497	11.180860491180221	4.5352897529537906	3.324787369916876	10.12612054175578	13.005036321230381	14.964305839904306	8.552782037122121	5.059318529706918	11.90253445481227	16.21390338618785	19.51742548783261	11.96296593506741	12.66795345922743	18.316133452901717	18.176372482185243	12.54719349554306	12.306209533138793	12.944148030978836
212	1.092698332888785	1.88983058452307	0.4805723416592911	0.7853056768617457	6.3783612090243595	6.607762796885118	6.184596522929096	1.891378159516111	1.03793418145387	7.992444018212132	8.567139603919369	8.39322278764704	2.300651544484382	1.774878378201663	8.942658401799399	10.678417178850134	11.003301592702732	4.286050308850394	3.3192572509885774	10.322835896178555	12.905694928964104	15.056511840953247	8.95534513119852	5.631987557496907	12.45531174376088	16.386167484874022	19.910825679100114	12.493267981458018	13.583150829353302	18.947444867933786	18.458782149440978	13.384312595907566	12.947683301660827	13.152788129023847
216	1.6006364781975508	2.1798922960557494	0.4343096006872261	0.3257356575848078	6.197365745156378	6.426213725077861	6.047175868979175	1.6221498210005958	0.4711913156533891	7.829113940499501	8.319693544363446	8.177127817489502	2.09931635326602	1.686924453290974	8.859770752472537	10.31941411273993	10.8451490128408	4.286664951945766	3.2331693090825158	10.374237988028758	12.690305677798925	15.10330863954115	9.34462544942955	6.148581012460944	12.853822675677101	16.394182163808864	20.27964396124999	13.052878346866427	14.28340145319569	19.337333630377145	18.61674876281168	14.012533152487965	13.376434292399624	13.27846714481982
220	2.471209281404229	2.4070200859333566	0.8057664612453593	0.18061536504920855	6.0954227293615135	6.409486754447484	6.123405917920013	1.6117153127032708	0.3576468220264109	7.7198991580603975	8.245140054866615	8.133168199985743	2.1478142684115187	1.72712802450905	8.735313393472797	10.098596547379472	10.802697154427472	4.56035231392567	3.2321648516112966	10.387332890034271	12.514340369100129	15.232289275812185	9.774354910014509	6.703098280195444	13.202819790884835	16.39669986399782	20.77981943606139	13.755234683594125	14.893580399103866	19.64804262922647	18.846851301293228	14.559445344405486	13.724774326005015	13.44959827842096
224	3.3746042166386347	2.6120307379578684	1.5939075906565563	0.43691110500652464	6.160317882243323	6.58158777482596	6.385606749624963	1.8433003379059285	0.7042555195193806	7.746713618747092	8.378546693628918	8.29260442547432	2.386772149735698	1.9184669207773692	8.660029389451445	10.099193547500034	10.943088503865498	5.033255564379654	3.418928137730341	10.481896373987416	12.510752646330866	15.541318854194559	10.263650868251812	7.348196011110675	13.611421550717472	16.5448340951912	21.498296683392915	14.611333810155827	15.537501295915623	20.04620356266945	19.284482907243977	15.145745239165453	14.115730250005738	13.731384242675338
228	3.9842905897636314	2.870461933518161	2.6460249357175005	1.0269242499173363	6.4092893438644865	6.888866407167831	6.738758546981631	2.2281212750447006	1.3221822943684145	7.92420432951113	8.65313527783555	8.597472169150404	2.725842707427601	2.194300884428795	8.675897576362066	10.283727619910106	11.251726122104818	5.566536412490036	3.7682261371841417	10.700445148154872	12.70223709714136	16.037704427282126	10.790379496987867	8.045938471507247	14.107445681240034	16.885932879730397	22.397668781952298	15.527259787457593	16.249029118521044	20.60177797838102	19.934503504968067	15.801469762961569	14.586951218969828	14.099271738694753
232	4.13192604929079	3.208367816454093	3.6764726545971933	1.7457259849342015	6.745020372527345	7.188335400552369	7.0327720464529415	2.6301667623871774	1.9209116648813045	8.161933878318878	8.903805710247102	8.901653267320407	3.0661828440500143	2.421350949849811	8.733438469771476	10.495965931141836	11.62224575923087	6.017059310980261	4.1415414705616795	10.968275042498197	12.977606740611158	16.623025852195934	11.304641695091336	8.671488740008451	14.603497468317702	17.326038316851662	23.322578371291932	16.352161366185463	16.936222033656165	21.240459388511667	20.666601128852122	16.435129124154702	15.062768898127391	14.454656564457649
236	3.884494771686734	3.5655989556888903	4.371159542491715	2.3411776960391677	6.986946565153845	7.296437245067036	7.114098530927788	2.915429107934659	2.2583913746081685	8.296129205738858	8.933994270656724	9.026562667944983	3.321264735419544	2.4760870871017526	8.713825203829785	10.53504941187812	11.897139519217982	6.294165118538692	4.3716816791786295	11.130698175938216	13.148188557807433	17.133096651689378	11.753380745777227	9.073120094280075	14.939348183106967	17.6755466014917	24.065912185943514	16.95028300774176	17.425214723461618	21.7800216124912	21.279159492173726	16.87915034800924	15.394671401256703	14.676287614007947
240	3.493371001006746	3.828823556769917	4.531641948702747	2.630999796900455	6.9629878822004185	7.076712590470421	6.895573121781025	3.0061426086821923	2.2631442489705584	8.175365427357233	8.612927415083062	8.8465242162511	3.4397098931252597	2.325632804720993	8.502366998186908	10.262325260955354	11.940857857120298	6.388975127302006	4.366002071801612	11.046169253116963	13.053303685610471	17.41372867002382	12.102031677208979	9.156317687758985	14.977296791409593	17.75404353427691	24.461288390389623	17.26026149206656	17.561410859592364	22.03227800528693	21.59939951211715	16.987956957841952	15.44942565832061	14.683280907752499
244	3.2422325529256	3.9030301472350297	4.180256356175604	2.581744664349641	6.606826765545929	6.515727026701226	6.403729899451033	2.9099962637863888	2.0604410119487655	7.748521785246433	7.948078612287767	8.35511110103672	3.419080487202002	2.0638124890673284	8.066517809529019	9.679820989965098	11.705248803149724	6.3638758498690375	4.167925347295603	10.67926976368685	12.653673140049616	17.390956834754164	12.340597121552948	8.94422814972024	14.693850480174543	17.49410052651035	24.45289033438055	17.310022310422372	17.30906291406249	21.911868993750115	21.56529230395131	16.731563525872097	15.193069419649	14.475141488722336
248	3.282011500655368	3.774175157554864	3.5593361764688622	2.3083090723886324	6.002470954999026	5.741468891906773	5.772641167371283	2.7081429889969466	1.884851450929684	7.102093678663175	7.090653878429607	7.673504333195844	3.302940837150378	1.870701785132889	7.489552955791624	8.935311294884356	11.251794786655426	6.311115248958544	3.9363129039564186	10.136572812237203	12.05880448157837	17.098957018596863	12.47223660181141	8.577044465344557	14.210605585459561	16.98432345870562	24.108001648117522	17.18411632013967	16.78819652133458	21.488218253242582	21.24701685309472	16.227451283492513	14.720053635625964	14.128661120029243
252	3.548189869505427	3.520669928244952	3.0142443103981877	1.9998893687300616	5.3472080095708865	4.968647944303514	5.182003008156935	2.508306258544455	1.9320042084552882	6.423088057513731	6.2678913911880345	6.993192655073378	3.158079139365484	1.9147452067669903	6.937171441683324	8.24963949028006	10.718072864174818	6.302173121753337	3.8556044004370436	9.62123105481029	11.471480340605167	16.65170093146924	12.493511168408089	8.246794679801404	13.741206134435208	16.42470355655407	23.567937791448827	16.965000109755383	16.221174199157776	20.948528236904973	20.797458596173104	15.686570127936722	14.206988298786564	13.75331589087436
256	3.815498342417574	3.271956197107147	2.8204722333269903	1.8193637086710135	4.853865611219288	4.400228012419545	4.7737192987080155	2.39108776442512	2.240658515995103	5.908403381689161	5.679169640507666	6.485960467175549	3.043858043615046	2.251711362875766	6.575907690611785	7.807890872315779	10.249504063477959	6.355073912787988	4.027607430779755	9.331400847717333	11.082413645420473	16.178602177780885	12.382685630052642	8.101773241568914	13.4827994959885	16.020639379107436	22.96947664183675	16.68413920958558	15.817164381147041	20.494089074844315	20.362886377421663	15.302639922607224	13.816988910122781	13.43102356380721
260	3.8493297002880906	3.136450282761156	3.0477893275559262	1.8306580735716973	4.647353637405964	4.138012398762728	4.591855991214295	2.376632684429267	2.674656622809519	5.672120556815747	5.41186903540861	6.230272754198052	2.985820762725199	2.779878609314489	6.490838511291652	7.674976806336658	9.934778188418074	6.433630927054983	4.408319462136665	9.35957047960422	10.975789996092505	15.763022382992721	12.107948272653026	8.171515444151622	13.512548412539369	15.877263029066595	22.38338464807723	16.312673527540046	15.661377867258139	20.23155207294368	20.007572123558003	15.149235687154688	13.612075771296874	13.176305737607048
264	3.562888374869928	3.149120561278361	3.5403802305480934	1.9919650504364699	4.7170238375779645	4.153470982555486	4.58155821597174	2.4297389922785846	3.016310684218044	5.705254063506995	5.423047528880143	6.195251926039401	2.970230810295688	3.2839753544864694	6.651800615682625	7.782812575717719	9.780802702051453	6.475113375528131	4.8257298347705495	9.650601362658499	11.100012751211002	15.41912265699331	11.65509125627929	8.354722955590923	13.749250377273784	15.95498748565747	21.804126684451827	15.796461065464449	15.672967871196162	20.123289057469947	19.695238063677625	15.144405326754287	13.525405849640695	12.93910214018347
268	3.0841758173322233	3.268004170749937	4.019308080062183	2.2077693883468164	4.946723448661847	4.330491531882722	4.644911754324971	2.496690982237111	3.110144368902401	5.905269607893362	5.59118507880964	6.286449416501288	2.9644007607956366	3.5441377073452474	6.944404584517845	7.991569975703352	9.736705755446478	6.429870589234888	5.069426523760987	10.04041859952831	11.3169498157878	15.115745506270004	11.057468386389216	8.478965737870013	14.0024594907092	16.109235722877894	21.190614646816226	15.111741027825525	15.657495459125851	20.024822184549606	19.334699581921882	15.104421577465587	13.409905399798028	12.648172346606474
272	2.6912925175429083	3.415735236127074	4.245734680900424	2.3974730907944966	5.196073995822824	4.546776760065902	4.71390532257119	2.54716562581695	2.9616877957908896	6.147894366954866	5.798680767677854	6.417587264070587	2.9483387395806964	3.448170891639054	7.238528233372422	8.180593469946572	9.743749593929671	6.290079100940366	5.00187729526332	10.345491383181903	11.492408723425864	14.823605499988545	10.404487583594475	8.394631364608816	14.076084101424195	16.183765370516873	20.52396387640463	14.302887880453621	15.420386275459357	19.78107256663474	18.85520930298111	14.852226219825953	13.130173650016003	12.265465705421835
276	2.655312531442953	3.5374891668652073	4.149945248616634	2.5390262539655515	5.380970941309374	4.741993892141386	4.792587745010475	2.594341748363247	2.7307014396388447	6.3551292258982	5.993838771945869	6.562076075198708	2.9356870577126144	3.0486299914637156	7.45228574778635	8.313548067084039	9.777189230075713	6.091763481018702	4.62767409109945	10.451352093058674	11.57204911171356	14.55186458728351	9.818509077078323	8.05212591045647	13.867724383627499	16.100358922363196	19.842733333080623	13.478416408841364	14.87518974363272	19.321952771040976	18.263099624300263	14.316907846543712	12.641993490726078	11.817559212412066
280	3.081629745332426	3.6300983337303907	3.848634471713186	2.661406510309403	5.5024595121696365	4.929926382969392	4.938611971784133	2.678768628032902	2.615811818194294	6.516848070857331	6.195251926039401	6.7504210301675185	2.9666151925527413	2.5288159783413056	7.572842102004679	8.438745477351443	9.851192449493364	5.8910469860115455	4.084356774508547	10.350224468802278	11.596407861041708	14.345868074436904	9.404417014219996	7.52181289681125	13.408278431418347	15.890563924723933	19.22926134976621	12.76360317822422	14.08532043715527	18.698919249054416	17.64311404542124	13.567618335801209	12.012923210331905	11.384201021062342
284	3.8458881281074486	3.728693475845964	3.5479297548362836	2.801415436347516	5.614313111435574	5.154917703965064	5.200298773033838	2.829797260769267	2.7106039455642197	6.661493761410105	6.444102747859843	7.021403294955766	3.0764505785516785	2.1037280506425766	7.630307178306127	8.630844094420151	9.987893079336217	5.729701027709188	3.5659031777950556	10.115525220127259	11.651237458376421	14.248820268895793	9.197790122651835	6.949116212466154	12.825888601345772	15.655131300501449	18.756671858161535	12.2360868145048	13.219027485851239	18.043966247778325	17.10473056289381	12.765703169063643	11.374423951995231	11.051447840444945
288	4.655571448969689	3.86508201576956	3.4024877462313214	2.96073745933699	5.758305058246101	5.428731427791574	5.555022225659975	3.0323455257150354	2.929074280019349	6.804630739198132	6.743347627780592	7.365102272512082	3.2587146676758567	1.9131568621970259	7.651233176941038	8.917160011666022	10.176508877810203	5.61115787996771	3.224462501014288	9.839052175476164	11.790291756426223	14.255534136066341	9.143061614794407	6.4743132427786865	12.263080565962525	15.482412299167503	18.432758284760588	11.883751839198071	12.449319808046027	17.48050494548999	16.70831676079407	12.068025558520421	10.83843991404182	10.855716677914216
292	5.194341169594289	4.023866643283096	3.419980040498681	3.091203443352078	5.916257366502095	5.695988163872186	5.894497379679592	3.2209808745124584	3.0505299491157793	6.91740272682845	7.030076009167268	7.700451354612184	3.4498128803891808	1.9635658214584886	7.6295437620177715	9.240669227157834	10.355730030616991	5.502032742914123	3.104993812351074	9.576244330070354	11.984990089674891	14.29461380210537	9.118288970813982	6.166244968104824	11.801791161304417	15.383337935709145	18.182838394034153	11.6140317623644	11.864188164320707	17.047782854907705	16.423156696816765	11.544956178127178	10.435749981281658	10.758638354795057
296	5.269851194428059	4.140581120527483	3.474635353852511	3.122786037190186	6.0147933808102	5.8576035351682485	6.077742561254296	3.312901965360092	2.8701558040633675	6.940342408777369	7.2037920769965	7.910248259600076	3.5550565629847943	2.151924604704852	7.536176662491537	9.486147856603978	10.438475582471066	5.360020147142299	3.143282405546641	9.332655883114555	12.13507744586334	14.257995569470772	8.998871780563725	6.004972442724644	11.439591378893686	15.284957847151379	17.887491181034715	11.310614557319909	11.438672990529307	16.686065631699858	16.144958455331647	11.16002175374504	10.112301800945943	10.669136974100617
300	4.884997355525454	4.140549172437964	3.4124920282037436	3.0090136452044844	5.974729522879125	5.834775433114067	6.019405349792697	3.2582902826061275	2.3525955617635144	6.827997667239723	7.189694863286975	7.9111184874116	3.5024795443797454	2.33858084088215	7.352702122244317	9.54977128478807	10.363955471575228	5.169569956125336	3.222366801709277	9.088912940919888	12.130479781995552	14.06115719106149	8.726390816591028	5.915623649920443	11.121351213986717	15.08302780157966	17.452814058108732	10.904188128597502	11.077223749803695	16.287181813126864	15.760719259524416	10.815802546850438	9.7794160595989	10.495255443777905
304	4.209670056205101	3.993571986606043	3.175455562203693	2.7571582724577897	5.770984635087868	5.629816994758246	5.755551323664431	3.0750956457700656	1.682590003533851	6.591504557180072	6.993675691113419	7.712238292296048	3.2920372402998552	2.4271867213957465	7.101801377485935	9.406449294183128	10.142965291163936	4.961451041092925	3.2486221708293894	8.839299179648247	11.92416760295101	13.697854007469466	8.343676546011878	5.828892693108168	10.799034091387403	14.719223938972785	16.8718852570852	10.415774319100647	10.69412419480169	15.777247389060323	15.22248741121291	10.432672474270385	9.383215880545498	10.195489857681714
308	3.4828553111834424	3.7470462227631285	2.859373085432144	2.4266652999645677	5.458854661510686	5.338477598063387	5.439687238310787	2.8463265823980666	1.1779077023330757	6.304151995954884	6.708059770814021	7.421079616883692	3.0077598019001552	2.4062256752297957	6.846158487201196	9.12803170760579	9.862466787233455	4.803282248767654	3.1998741545950447	8.609494187552668	11.565733880406263	13.251290287893806	7.973554591074764	5.727146611059144	10.474156353255005	14.228216135341857	16.235536534326595	9.945597623510386	10.275022480771929	15.17320629103704	14.58116050853523	10.005121205818599	8.94399449951331	9.798531507548685
312	2.9052131102645293	3.5106358439502174	2.660271637875745	2.09526586003589	5.144691931133216	5.097948061469738	5.2599243984936495	2.6748766831574744	1.1054677935346457	6.060321792560487	6.458332045461857	7.183840256673338	2.7770662237625077	2.3280739725462505	6.650884611504029	8.837195374111566	9.637534117208093	4.758997428322822	3.1229174058269393	8.438300111446805	11.171279879021792	12.847631422030622	7.748700122343151	5.649664864581182	10.194324467670008	13.721943820641068	15.681125601278104	9.612007116845296	9.880550359575492	14.575842820560375	13.957852328346236	9.600280737480372	8.539994218245717	9.379559493225628
316	2.570851796335151	3.392865649240234	2.73780679011529	1.8123404933948613	4.919193255402496	5.000039564860244	5.321696267997114	2.619104140344795	1.5048410854492986	5.914076790183137	6.322887881527698	7.093483906956397	2.695220463623689	2.249894851726178	6.535637839028886	8.626380898630638	9.536235785249492	4.839700209796312	3.088304035018944	8.338663080143188	10.849452945019873	12.57763191862295	7.7306055827465014	5.656545147919524	10.009979222774106	13.321975674373057	15.309840163677912	9.477026915464897	9.594478582954004	14.105995142608442	13.472811664897995	9.30381867920787	8.249910333785236	9.011701561109945
320	2.467046254605047	3.432764759933566	3.093420974550703	1.578313823529789	4.801832663810376	5.029528128323391	5.5731015064676015	2.6541187696204056	2.1427791064521853	5.842693790943196	6.2808604081840995	7.126227837690378	2.764438622170854	2.1847572271500337	6.454736216460926	8.496799447541784	9.526615118769875	4.980700957120984	3.135612479876308	8.271700838185787	10.632682773448025	12.435488669470109	7.865108946969901	5.777670845703311	9.925469373439133	13.083348241198678	15.122478446926834	9.50280091747502	9.453121161435897	13.824233020211913	13.174062695620526	9.15065667703109	8.092362383438378	8.722785927684114
324	2.5201809342652064	3.5725543408794596	3.5437798410589196	1.3596699203495122	4.732838141889844	5.068547712880638	5.820987686719435	2.6817536286357173	2.6328980856224686	5.761280998942933	6.222882255101721	7.146899205283451	2.8852910922636803	2.096592182588083	6.322253688108889	8.357559183000754	9.480502104665108	5.059158789259323	3.2442948736296215	8.157764414218079	10.457735035242266	12.312880484965211	8.000337580509097	5.982208713686658	9.881419156875545	12.958958593075232	15.012929878477832	9.564605688742317	9.406398749444486	13.68713852287738	13.00948425823087	9.08943555444396	8.005116442496544	8.484657266175956
328	2.647454016677027	3.690145006399832	3.8134844206849876	1.1281429500707192	4.620941627279777	4.970515715447481	5.8361434789174975	2.5864112311866143	2.653055661178876	5.584108338562615	6.0234446373496375	6.986313802246507	2.9095630572292546	1.935096020581271	6.072517379687898	8.08979890688235	9.239632583178517	4.949158179185485	3.3450832282488125	7.924958685893502	10.211157772986395	12.05722042854282	7.960313300062053	6.188834174743348	9.785016988845012	12.829833951982783	14.825569115401068	9.513878798306425	9.339820838235626	13.57034489066493	12.860458341553901	9.007126785425696	7.880622843872871	8.241770723515259
332	2.7876748968314264	3.6775579359665236	3.6979489233112814	0.8969901777508814	4.415331352530338	4.659875381148764	5.490179524865436	2.3076014460476455	2.1362347548909497	5.292708383548817	5.630568490117677	6.547676546731645	2.7276639869487598	1.6878722863497992	5.716599449983478	7.6354789541109405	8.709863640729434	4.58887099061148	3.3629579459160857	7.56435964581882	9.810645078685091	11.562000245466958	7.6353773877965	6.308704360292756	9.568852400462552	12.580657927221267	14.44199176956775	9.2543468241692	9.142171836659445	13.341417278938229	12.61231133137719	8.796412445747736	7.632861118119015	7.954592207852376
336	2.9090619013772487	3.5158097655222376	3.1986153045005667	0.7275955658662449	4.153510560039517	4.194994439024136	4.84340618818051	1.8860267353123978	1.3194167580671083	4.96458862958598	5.115990625816275	5.878756985127048	2.3397171438272792	1.411711093199383	5.354688154052734	7.054608804057722	7.9293646612241755	4.022316922522848	3.263531676635863	7.153993588505285	9.271135306792829	10.836995097456112	7.040099126207392	6.294788821540047	9.240600562607227	12.174833266990992	13.846827472059164	8.788188912138128	8.777667023431782	12.939150777573484	12.219151466036815	8.425122239775975	7.254281979365363	7.629405479242242
340	3.0044586582622492	3.2970919525826257	2.5436441834125105	0.7015125137737425	3.9511454005620363	3.751650562351113	4.128116597243523	1.4541642629148919	0.6155078991608662	4.740079390956034	4.6516747357226915	5.164709554984044	1.864881272375978	1.2146012752384803	5.132043348706654	6.512785418279698	7.069322568211247	3.3898358259446613	3.0753533762534233	6.83229969207017	8.714066483431226	10.01637933109535	6.306820853522609	6.168179019613612	8.890365578139923	11.682753533431129	13.133781399945859	8.206283548617064	8.315869310364311	12.410844771522074	11.724353760682055	7.963143805426	6.825713617257697	7.315017204889511
344	3.0850841921163066	3.177977315508483	2.07603835535421	0.8706084467841637	3.9388487239573404	3.533768644947721	3.6336297897151266	1.1721368998497819	0.38190606140035815	4.746334063944393	4.424201000487681	4.643372047145021	1.4790322743267155	1.202059623544376	5.163688169793751	6.204080089164084	6.36362264933867	2.8679985927651033	2.8802564071415038	6.734130365535797	8.31372449683213	9.299137092000452	5.619217858432467	6.007605537505594	8.65009687147115	11.247234316085885	12.450495688475188	7.631083946034879	7.900332430920277	11.886793106585412	11.227948160433895	7.549884300243795	6.4730348423607715	7.071085912017829
348	3.1829314151511263	3.2916488564354793	2.0733165688620585	1.2217825620321778	4.187460888780705	3.6657273676827944	3.5606021791206954	1.1477898330319798	0.7225317936774915	5.027523504915366	4.539174068434707	4.492355335337581	1.3214215006844223	1.420132275810568	5.475863919738005	6.255407317580638	6.0060553399081895	2.5897328788222707	2.779689543381739	6.927615148219902	8.213332155471825	8.856063820414025	5.124217497285983	5.909957393983821	8.629981019165982	11.009371729711333	11.91746517987223	7.147580128743646	7.674961070710476	11.509791345147113	10.823646518083075	7.322206955542746	6.297911628081235	6.928780538231608
352	3.3541464720918968	3.6767239477789317	2.6046435767216365	1.6778361754971471	4.6719570041956535	4.1316590204828705	3.9279591938029492	1.3849257195792655	1.4409379922726258	5.527712808004316	4.973276602586506	4.751934993190506	1.4239492380430574	1.8297927333410329	6.0023059693427046	6.669350130408824	6.071153625418881	2.5883417064167253	2.8587224411314187	7.390164833483961	8.460940339661128	8.756664254014595	4.870991217712915	5.947329506163635	8.870347954289095	11.041065188188444	11.571713418355033	6.765953523719611	7.712256888945171	11.364023179926763	10.548144313883633	7.346278172065223	6.325715049031547	6.872344476514965
356	3.665358057304698	4.2621354949154115	3.5023507983473556	2.1331081336525055	5.291557775488978	4.793053614912863	4.580294120668535	1.7872011616407049	2.1650478785212064	6.132184489980369	5.597325310880319	5.321674810325049	1.7036286549471031	2.328795665583369	6.632656557503419	7.333297710977391	6.497003538894495	2.793193571667957	3.1584319988616634	8.032279947982161	8.997002578908287	8.952683426188152	4.806922900461343	6.139401420351552	9.3313646080934	11.319300622971806	11.365334482108512	6.434857352222785	7.981198290701462	11.441575975141118	10.371666882078218	7.588961582097038	6.498055441662835	6.85243604837309
360	4.165017594312222	4.915577399240972	4.458853233523972	2.5055959161440713	5.930532440471181	5.471339688792396	5.287438856126818	2.2158193532312773	2.5692982608776473	6.739455682905164	6.253949626391692	6.02841947940861	2.022895569462382	2.8068478036586297	7.281658631060159	8.08668134554989	7.135782700642328	3.07921528038796	3.6630113032365266	8.752305008725308	9.696815466240551	9.32422826320175	4.829663741315793	6.453074438968784	9.923170064668083	11.753561943896885	11.216685266785573	6.09388349901872	8.3701658037575	11.661577195288793	10.232109043990627	7.9417757787465515	6.711011869653004	6.820149404472673
364	4.85072706905192	5.522954450014621	5.188492285026537	2.7712676455148184	6.516750319240146	6.040763362891849	5.870312199076592	2.563126319136028	2.5607032711227364	7.313730698239928	6.838553888221372	6.718767149174439	2.2752463760151986	3.1959214129820994	7.929994086271414	8.801766373346524	7.836441497091108	3.3396704112611357	4.304068077664767	9.483890509502745	10.436250660296508	9.755496000455189	4.860368716366444	6.824398500378693	10.553055736600724	12.243301360690198	11.078797312421791	5.73117540819863	8.74793622669288	11.923418968614522	10.08691880540456	8.279960611419328	6.87279174976823	6.7576684781167495
368	5.649153695148879	6.041225418096982	5.559263215334327	2.9589977189696786	7.037060719842993	6.473192675459738	6.276146396050006	2.7989265848065585	2.313361638904196	7.880051592958786	7.332926731669245	7.319721680280465	2.4428477225616505	3.487539759413803	8.607193925107303	9.42829988006546	8.509968736143788	3.5403075128816512	4.973356711228882	10.204190228448322	11.138557405959878	10.192954991355107	4.893220889135063	7.183100205405675	11.156476946319907	12.72547527915056	10.97934243291215	5.407391534504387	9.021835304370493	12.155781715220247	9.945197080298506	8.516986825420503	6.941952211019398	6.681668741522742
372	6.430536730743215	6.492520315944388	5.62765215406547	3.1182393948981986	7.508073310969475	6.817248804046646	6.569311602219014	2.9683170243660717	2.144710535356611	8.472933747833974	7.78062580051572	7.84188363956394	2.592788451324322	3.711060276198711	9.335303283010214	9.985881780207993	9.148260093480012	3.7267811204278183	5.544153199503335	10.906967135548493	11.78321930771361	10.658472034247172	4.9964294307446036	7.469944935058659	11.700642556213111	13.189165082057004	11.010428400851243	5.232336031101145	9.164903617607912	12.337554900491293	9.863346074950961	8.628953911929806	6.930131417897387	6.623164160219036
376	7.051062566121118	6.908280355177897	5.570961461306989	3.2780203736512843	7.929432848937626	7.134836655722841	6.854277593473421	3.145731918022146	2.31422232997258	9.077912307707916	8.22866247006935	8.333832719742787	2.8193352151261255	3.8948087593926273	10.075357411695958	10.518509838250445	9.793985342093853	3.984848727655899	5.9026179164632895	11.566183061008156	12.380675284598734	11.214937181768013	5.265901075419477	7.645361881026907	12.167920081888818	13.655074085092123	11.27532956137628	5.30929277986925	9.206258750560142	12.486066786713016	9.909440969243763	8.64487550460201	6.877397519867686	6.602376921196812
380	7.407554607762566	7.272297840831108	5.57010792279596	3.4275414857157966	8.260713556414212	7.445436458863213	7.190062504735021	3.379563799908584	2.865685932553657	9.61322209792133	8.68121717168555	8.827453590994072	3.1731734195702943	4.03866003924184	10.720781299226575	11.048632593870021	10.489125225287523	4.379316795736501	5.985271915583221	12.122616737276635	12.938724485155127	11.910878151385443	5.760447010755342	7.6941413685136135	12.539406744769265	14.140173876347832	11.824604958243887	5.677932248085253	9.198301292084139	12.628366438453353	10.11975953408141	8.616167046727714	6.821325284901833	6.616653902514526
384	7.482275467101502	7.513796787364936	5.717569813597971	3.531796923303529	8.446001985206657	7.719509105265972	7.556300621028376	3.6649801638577766	3.6087157635176528	9.973198865506129	9.099432922277606	9.314500785198966	3.626639833830675	4.118653287025716	11.152317018962247	11.563700646768817	11.238533945319277	4.910884844778942	5.809230312939304	12.50982090652609	13.447717632673754	12.740555731077817	6.4581003026035555	7.628426055721765	12.795821157574029	14.634529076820897	12.619545904723182	6.288962348318674	9.18541715210202	12.779076543968843	10.475487682597347	8.588213898910105	6.782199842495732	6.651801092519782
388	7.35998437930601	7.563690166450393	6.0007061806809725	3.568911781837142	8.47142789609217	7.922143439318579	7.887386778944905	3.9585564036561185	4.245912064322827	10.107096646540139	9.443377470969775	9.764623617314468	4.09653471866115	4.120625008669908	11.320249528914234	12.037403076297933	12.005583732811374	5.515321717642534	5.475745187285912	12.701786009190839	13.889466250638035	13.63789841069701	7.255321007530464	7.4894981195185695	12.93403145385594	15.101493797321613	13.53942867675373	7.022122365388521	9.190537429493878	12.935477224115962	10.909321757429755	8.58812425352459	6.7689933605954815	6.704456789255735
392	7.201691132482761	7.435586910548237	6.350717528521644	3.5626304059679916	8.407377221815405	8.067032793658578	8.14204690784907	4.220665444208346	4.55411385340065	10.074405644730586	9.718852018614113	10.163610432713373	4.503489959790669	4.070681561682966	11.293801279164116	12.460632292758678	12.733690229691343	6.100044711924307	5.140115248100337	12.743698087942443	14.255032503377178	14.500574075328046	8.006526926806947	7.342345696031451	12.980683293948116	15.49357887171011	14.423003160301725	7.732287864236395	9.21790978965426	13.084490743026848	11.332285852431209	8.625842072643229	6.792040807741882	6.793043119445895
396	7.189168911902804	7.272925358529719	6.714547617172153	3.584245195876188	8.398757913365488	8.23632810420527	8.354291894800996	4.453458297929683	4.509434211789822	10.034070943294337	9.99045274119499	10.538065883733296	4.826330172751211	4.038799275691684	11.239551515812314	12.853271451923609	13.373204197498112	6.593952162306949	4.952792631996133	12.7387151396518	14.551966630435109	15.225727042857562	8.581146218569064	7.256877880848067	12.986209836597737	15.76846690965134	15.11995407101768	8.298442819624618	9.260808921320853	13.208221402199321	11.661633462073318	8.698105790112148	6.865139943909863	6.943621617906052
400	7.464763145673548	7.314648609767151	7.0973038494211185	3.7201023007883087	8.59836576198262	8.5447892926965	8.625369050183485	4.705870616475752	4.287013043070376	10.16482350644078	10.3459748960591	10.944142313982466	5.111891256777553	4.110445965879446	11.33370778083338	13.244361844002608	13.893862689225568	6.978149873281524	4.996201979420714	12.792135206350425	14.791323624459697	15.73639484247157	8.90835855142213	7.2810478026620435	12.996429410546545	15.893302877353737	15.527276953595246	8.65137479505191	9.302973723765668	13.279153790325898	11.834113091154451	8.786313988436806	6.989422303672985	7.154183369693771
404	8.083365419960117	7.777134398852172	7.546354751607686	4.020294179302858	9.075635887120402	9.064862228395162	9.057473159810302	5.039009558353163	4.144472588565754	10.557539913225146	10.831107112241485	11.424373597865214	5.431764112110089	4.337870586887285	11.654468506952249	13.632903064640287	14.277105295374673	7.2786898429206826	5.248046384912798	12.941696134317546	14.962191543950173	15.989009816809364	8.989789940071518	7.414549332018588	13.014546361489574	15.836961706231335	15.599016150191465	8.770830132274728	9.30980775389978	13.248403515745332	11.802995651962997	8.84685609491237	7.12738273728463	7.362390499600227
408	8.990254379462435	8.713462807590465	8.099469164426294	4.461190689267582	9.759944891129992	9.763668035651841	9.674496626270045	5.475659833434809	4.262714375224009	11.14808651970535	11.400820703332395	11.964138000799315	5.818085655781937	4.700837600283625	12.123302429108401	13.963044131311644	14.501710855110332	7.53031585699486	5.5940613605406595	13.122052159557992	15.017641029588985	15.969255407069202	8.88002298020461	7.600413303259532	12.983176198604909	15.565482100288337	15.337612113375862	8.664334275304835	9.22302815969749	13.044296231714755	11.53280922838978	8.808692909889094	7.192469101866396	7.446361999784949
412	10.032146428528687	9.941404317551735	8.736574150915903	4.947369563009581	10.459762546833826	10.497916195113962	10.384614918239375	5.9687905160887	4.643169868190453	11.737468689848162	11.92523571818269	12.480587927779096	6.2247900805668746	5.106440531235895	12.537272421654535	14.13875671631723	14.539849244601445	7.737482528224744	5.8861493915720065	13.191945996356624	14.889711342411976	15.688124617068539	8.651387192817992	7.74500892591082	12.80587002382063	15.05388446821818	14.782855950225704	8.34998319425035	8.973637558215325	12.594982115417524	11.00656411253092	8.591685273413061	7.073314648889644	7.271548729657462
416	10.996824236762055	11.092636080392223	9.366879439546704	5.349154935682915	10.951112719543481	11.074571581536464	11.011489840362723	6.409739478140694	5.11663674016401	12.091085403432904	12.25048348194892	12.854207960099956	6.5400466753825	5.427128778106899	12.67608448642858	14.07338520311558	14.369574510534276	7.859839419547903	6.014706596447627	13.010584798389225	14.528286897218527	15.183012924007885	8.362812974796572	7.756869296516862	12.398923842597094	14.310620271791521	14.006255114478913	7.855032901005351	8.511816003290004	11.86910435540937	10.245872471690252	8.141761759229183	6.6859216521260185	6.764482481090269
420	11.675913781251133	11.779097527328508	9.866399740104384	5.564490304249352	11.091012926709798	11.348109216649071	11.382105798594488	6.679165823285653	5.4542121749501415	12.064669578609461	12.283008544427839	12.988720861066495	6.647648794556632	5.562893376610562	12.426609007932468	13.747708285908049	13.998086893979517	7.8337259094819975	5.95801828787493	12.524111716121357	13.943771327100048	14.521910630755134	8.047521570868485	7.58938072195804	11.749568909544175	13.401468243142084	13.110303845683845	7.229458790646297	7.844017962678668	10.915646525480193	9.332317328733085	7.470172386382548	6.030883773835982	5.974457725699636
424	11.929770439545752	11.787206620020438	10.133845303699168	5.565505013719447	10.887617083717464	11.293386430837526	11.414376230031568	6.707969171754192	5.504746900011762	11.680475205494986	12.042436569327215	12.859545675235404	6.4979791477177145	5.487179265473596	11.847902268060555	13.234130825962032	13.473762478189052	7.614998321380667	5.779977307031716	11.806087464088979	13.220696415900735	13.79660316798675	7.717290858811612	7.261916619086077	10.94112584212729	12.448784796755875	12.21931740536745	6.558281881940465	7.05189178593714	9.872723554480508	8.407269456617923	6.670256121007123	5.218471037087078	5.081498610064736
428	11.731521576826069	11.186982126601777	10.130068753415735	5.403120027251988	10.484700176470572	11.008724184852127	11.151245089033313	6.511136992227952	5.2710261211829055	11.108558626738741	11.648042649424527	12.520466772893254	6.140428050750572	5.252137647719851	11.13802144099541	12.666322676150493	12.873373952788382	7.2156286057446914	5.580738530374101	11.026129694756914	12.487988440455723	13.098591771433629	7.3739776425153085	6.848507387036573	10.125261281198869	11.596114129352998	11.452852220229836	5.953888878095317	6.274480327023451	8.929236389504185	7.63693616846273	5.894376263041715	4.438622940301123	4.33413552143651
432	11.174519510666444	10.295135472054156	9.883839582284473	5.1722845900601335	10.072173093161515	10.650737735560645	10.726670238115515	6.1787042461800565	4.890580641796758	10.566740009332289	11.248176546308116	12.068352668810123	5.701246247202417	4.953544127355564	10.52378461088117	12.170926063326542	12.27094265700713	6.711854917746578	5.4279889923381255	10.364257786332765	11.861418694112855	12.487726180019374	7.019080621164023	6.438145144420295	9.453689551327042	10.952702494624916	10.888323756384137	5.522425160770352	5.6561746454485355	8.25198362174387	7.1518111048377	5.296144472102154	3.8845221898232616	3.9419624705925456
436	10.438106510511549	9.505883192857862	9.462776160190819	4.958774554130688	9.778690313445946	10.342653248423444	10.286073658722543	5.8271236272557	4.5410570983676966	10.201093647950769	10.937076540990052	11.589866608921993	5.316722379612455	4.676817882174103	10.139841054111276	11.802664726976039	11.705641716967092	6.214115127133133	5.315770135809927	9.920962308631177	11.391720743028221	11.970165222463784	6.6551089118778854	6.090239032627775	9.006330467373505	10.547408077313225	10.529937717555088	5.316559778141919	5.283530698788053	7.913677195596057	6.988850575921743	4.963753687724075	3.665961971564038	3.9780163664518353
440	9.717211698794035	9.079877830469067	8.934819198938332	4.7965545533195515	9.6081514115938	10.111046765548721	9.910766576540219	5.540029034932449	4.333372105148154	10.016248677714334	10.709454509399215	11.123867006827044	5.062269674871586	4.458131302068275	9.967652295695913	11.523207635396444	11.169610948972295	5.8167095037468375	5.1739487517380605	9.67505357206942	11.049852343317625	11.50078675227434	6.280396445630339	5.809083447094949	8.756459214037084	10.31990048664007	10.303065273975054	5.299397932024359	5.144509779339242	7.860552767934774	7.067801457680419	4.8790750380355234	3.757165660908966	4.341163624293522
444	9.148961997775114	9.012073494092405	8.346934297468497	4.660597312604461	9.456871962512853	9.88907906896558	9.592914557079046	5.334994302631508	4.259177197193389	9.895324682047956	10.480637523892938	10.662688228389358	4.924926745378255	4.278336514161618	9.868633245347768	11.238710375067367	10.626757594935153	5.555980668345544	4.923413741079097	9.513156866850728	10.759813281549903	11.014047594872867	5.886198028962021	5.550151334101229	8.593732812165214	10.15746304808534	10.083379720025311	5.34391497216465	5.132946478282011	7.939243296605728	7.218513470544536	4.924963938676501	4.0068235296176296	4.798862445159427
448	8.768988587174396	9.059848762526471	7.729859332595797	4.495998848054212	9.198712325713473	9.581426596292621	9.270495391328136	5.172214971835212	4.2181644333198856	9.694510435423616	10.158959363084003	10.18754861166905	4.83096407624293	4.094467629585559	9.689482664440217	10.874054881298092	10.05251595820138	5.400062547401309	4.543755996676312	9.313242888778802	10.46023366194494	10.469460460932876	5.4612741332453	5.255851255498562	8.394433954025818	9.960740064268053	9.752613996678287	5.277491556194658	5.101265417570982	7.973319033519207	7.252645951079699	4.941913592259196	4.209396828514141	5.0926113000086035
452	8.512734391654384	8.907066322726664	7.119010430482037	4.2637891661758855	8.780288674120964	9.144377685347724	8.891752220592476	4.994835364128755	4.099257935664773	9.348154998065658	9.720935796990199	9.70861432485334	4.705404746573365	3.8834102055731394	9.370481467430675	10.43542096364333	9.468779539997438	5.274682508502775	4.106868733527637	9.029212928863585	10.15501591979562	9.8866891611347	5.004336344481964	4.898616778403666	8.098323801575182	9.702089285196962	9.257022834294279	4.957741248011471	4.936996447496219	7.851652602399383	7.048790913905174	4.808049666663332	4.203786839362045	5.055989252676749
456	8.26484678089108	8.367175081108801	6.571121199229826	3.9735309977345223	8.265535333745786	8.62690637317765	8.462430932613907	4.772558677067879	3.8616161248939114	8.918100334539625	9.23835465959776	9.277463889540522	4.523558605217296	3.668775549208912	8.98938748951101	10.018334363439047	8.949014641102199	5.108926760172489	3.7525260353713636	8.724480606940089	9.918304418318064	9.347398734334657	4.536184776297478	4.506204116888309	7.747278670778137	9.440933203702997	8.638513543253326	4.343831528186932	4.621634948506054	7.580114345486074	6.607286913402433	4.499988544546825	3.946956624556377	4.683369624711273
460	7.925220469492695	7.502413253915893	6.154145225245968	3.6792559530825977	7.801628569932908	8.145029047428942	8.043562868791078	4.518679130589723	3.561004868099781	8.55713460669121	8.838277794457955	8.960958458210715	4.3204388509388645	3.5113699347534175	8.714247681550885	9.753751730134887	8.587879159225892	4.87434338292662	3.6166264919522697	8.534266450315842	9.849275564122227	8.961718536638973	4.104262818464637	4.1539068117169835	7.46347091697808	9.288036322985509	8.024289110905169	3.530519953397085	4.242421139496436	7.272177201030387	6.050898536663868	4.105287541515028	3.5294423014222667	4.122330655180495
464	7.4599680712227645	6.5905165505907695	5.920598491979416	3.4479162605972165	7.531065445005663	7.809679011654526	7.707560042948729	4.275254715615931	3.3146288311241645	8.413108804442535	8.623676278276138	8.796731926642925	4.15716647052223	3.4743201644917345	8.697666146253395	9.726732229470683	8.454344728105514	4.597830283954338	3.7521119023005096	8.582209565429173	10.006416295537008	8.819418884898635	3.7766330146806166	3.930254449458165	7.381811600167649	9.342034316318415	7.582520465780292	2.726913445263643	3.9522912402503056	7.088235360369307	5.574456200830636	3.7822244071835893	3.12921785518237	3.60072325751061
468	6.910112363535089	5.954883560404817	5.874623283813022	3.3168680584134327	7.500812988417004	7.6517457768848125	7.481898288910315	4.076902856070335	3.226235143145433	8.530744531074244	8.6028404018639	8.758793808757753	4.068141926984788	3.577175846605096	8.974472976914388	9.915937398670719	8.553231217724015	4.343047131063669	4.088934888052897	8.8986959232727	10.360298130581043	8.949507690722536	3.6226594356626243	3.893953790370128	7.573141555739275	9.633377050873374	7.462049465413066	2.1831803266718373	3.8978867432410573	7.156474572233153	5.366529451172496	3.686912288893956	2.9288053438628014	3.326990596000791
472	6.361371977957634	5.763622746220957	5.953633293379165	3.2678038991439973	7.624329547705985	7.593646984001713	7.3218502813493105	3.920901765460782	3.3188073551309487	8.811356522248092	8.673880555187958	8.760045983132033	4.027196397150422	3.771430244460598	9.424801802681714	10.193689320576885	8.818572975782118	4.173611153555663	4.459351051515879	9.389065718787563	10.796153041284814	9.309329009394153	3.6881146337853297	4.04516552857478	8.000513056582873	10.107501958123589	7.741772632126266	2.0951707310230687	4.151360978135765	7.5166716385844845	5.539658055624304	3.9032003781000784	3.0366840285879926	3.412474623647513
476	5.894628986734924	5.9212183802835145	6.039776309976861	3.232310048525603	7.719910602152166	7.486754398517196	7.131883603209545	3.7644626999225252	3.511008730606991	9.055957771325359	8.675939538031882	8.693650223717148	3.9577865500661433	3.9487559695683134	9.826087926851669	10.388533565995596	9.142155624196107	4.119124878973989	4.678731906522298	9.870931600444504	11.166614504277712	9.805584882775017	3.973643531303574	4.326436508699601	8.532036759769714	10.654439899247587	8.40716645979201	2.5266971524341795	4.678316104521395	8.11162946560409	6.095818504201823	4.407672394114617	3.447992554542336	3.844144096205724
480	5.543959603617593	6.119423850821913	5.998755916708845	3.1280507962406143	7.601211051823191	7.192511540373369	6.823057634293211	3.5525443464231437	3.6539592650666317	9.064409233096011	8.477158525044986	8.489653565906993	3.7802908325119575	3.98422407098023	9.961797689082276	10.37399480107869	9.420564627704618	4.162566174488089	4.6382956387716066	10.158310864550485	11.363884897151234	10.33343884720159	4.427450645712631	4.650498855293531	9.000238395855684	11.16424366993311	9.358433699821934	3.383307210009606	5.354633794616835	8.823109604493808	6.935844403875395	5.082913385909553	4.05736159253935	4.509815681515422
484	5.2870092258483625	6.016199573586191	5.727176174962878	2.9012329505150567	7.168284398100552	6.659585459107793	6.369959338318034	3.256269446734765	3.604590883691031	8.73291967094466	8.047191599555841	8.152409532944976	3.463862410383006	3.7933800124715864	9.72465894151205	10.131546948602432	9.594153380012932	4.252079476111455	4.356194961993609	10.145081494466698	11.3690671633735	10.811486216905282	4.956987845303412	4.936564433031978	9.27367112679375	11.573767632827385	10.441106769903389	4.446457851627777	6.018589004579914	9.52573869207531	7.900440672954916	5.766780838711762	4.708873260053377	5.252187715621337
488	5.072408186503703	5.441080079646382	5.192339407209206	2.5537686283484966	6.454720480834745	5.955217823251874	5.832463249739778	2.8983952925937544	3.2937910473632983	8.100832918695312	7.473937492574214	7.757039050544754	3.0534791869318196	3.3705525313156124	9.162292457336186	9.753605817964845	9.659275030544315	4.330493916068507	3.961063851846199	9.845977758344421	11.25186059018309	11.197179766041362	5.4557041984143915	5.138234125515975	9.305460906376576	11.879507034826464	11.486403436270615	5.453687177240285	6.53171537657541	10.128764126954184	8.821059204718713	6.312911017691803	5.256443964084712	5.9215249865754656
492	4.862147318962051	4.50467537696297	4.448963630887808	2.1409995501822645	5.609788403652808	5.234835134640978	5.3289289339944785	2.5487511093639723	2.7631320883606763	7.324992638213935	6.916788560570235	7.408153992068915	2.6542825631838345	2.7995216775784937	8.444286325115772	9.388045287271586	9.65256688541965	4.366924751700405	3.61936759034928	9.377450919317376	11.1235437112346	11.482411355592218	5.836822495029065	5.250318037128743	9.137578941163229	12.114520042350788	12.350920646001981	6.193089946369566	6.821167928640023	10.589388820615438	9.563629126244782	6.63606498950165	5.60919378771803	6.411500437761492
496	4.655263889003424	3.539455643300672	3.618760099811263	1.7403885082173305	4.825843798851072	4.664886462831669	4.973747717697621	2.288618797246085	2.1498737280925986	6.5989041161823865	6.522139532788552	7.183640461904555	2.379698032093036	2.2229359093809125	7.7738575739092735	9.15699861121918	9.619462942632136	4.370173443251041	3.44401144111855	8.893190361457986	11.071535082520693	11.67746350201138	6.060630306201065	5.2925224170575875	8.863800980123495	12.30753990880682	12.94491478512729	6.570030195814612	6.886954767005421	10.89909073938918	10.052761052500077	6.724774343678315	5.7457342002761305	6.67111299737825
500	4.472839821013073	2.9037878440022586	2.842512838816387	1.4086893761354788	4.249516476392584	4.3395757565607145	4.812720763453296	2.164008850356105	1.6256197649920792	6.062044128371568	6.3477649528455045	7.093483906956397	2.2943656386622395	1.7830034449383514	7.293804150286086	9.095198608323452	9.58502290213071	4.378991592795427	3.43699096765605	8.510466554135697	11.11217400606311	11.794273346687167	6.141010745756424	5.283802495967542	8.575195290849713	12.451580016170205	13.243104901256757	6.619816763376901	6.778041822486699	11.059585543366293	10.274738285826357	6.622873289553266	5.699679837141674	6.69954107500423
504	4.312654484350852	2.7554407050182785	2.2202722970219146	1.14959180064828	3.920777072544227	4.234495629109952	4.791221606555672	2.1524124091164625	1.3175748553389095	5.745768055714278	6.3365988571400536	7.074727517385833	2.3806595742201253	1.5610655506775237	7.034382802369286	9.140233016779087	9.541838621844231	4.432771194710428	3.496686926596519	8.265267351263553	11.187234850294987	11.837726563130191	6.128866657041969	5.2234225141253585	8.318388917901895	12.502664534473846	13.278072323653824	6.466777308349471	6.556056959765907	11.068666430184187	10.266332600422775	6.395659430568821	5.5309800962040745	6.5362553431472
508	4.117802609537629	2.938995353907875	1.7671881869521582	0.9154416895641897	3.7676377201324045	4.221098889184058	4.775194156034614	2.1668956225045783	1.2527941433747796	5.57909248850814	6.352220042403348	7.02422807827383	2.5465559895117265	1.5458531340670667	6.9237608734798775	9.175573325832927	9.458785986861049	4.539644229871508	3.4816164882495584	8.114383677022916	11.202177973121028	11.805612534280607	6.080992683316403	5.089474665189862	8.085783938020416	12.407846419478863	13.119388547198994	6.254006846850531	6.2671036562046725	10.923884364204511	10.095848058006528	6.099691375590971	5.298955903979821	6.249385817962052
512	3.7810854816340966	3.057645074753943	1.4099291527436768	0.641106842329725	3.653630962684038	4.133335103089722	4.615631568699434	2.097686285444818	1.3464468683580557	5.444354520403496	6.255076869430837	6.851193887579107	2.6695763997388493	1.6424561697499864	6.847350103256536	9.09931466666267	9.303663230294688	4.661756980570283	3.2963836109859033	7.978149870756766	11.082764597568026	11.69414040474027	6.0299968567239635	4.8571796294604335	7.838967303511732	12.14481350693495	12.846200910559624	6.079337104707301	5.934894069946253	10.639128658136341	9.842602704947181	5.77032803032268	5.048337446818382	5.922692760772956
516	3.1954770007517763	2.6939344338112625	1.029217479014635	0.2914851598532889	3.4524040135003147	3.8537871740317193	4.226037968456256	1.871437664075428	1.4434432946954998	5.2480430470526995	5.978394970104978	6.523462755899224	2.655016653987035	1.7228621200932455	6.717085344521703	8.879414535992279	9.066384292600302	4.726752746092219	2.94951724261422	7.794823150028216	10.817421885835607	11.504268617194748	5.9715094415579095	4.523061264062545	7.5460161972262165	11.747442215823957	12.52194210705701	5.964478000840799	5.5719332554329535	10.258055661051582	9.577598547596232	5.4266567093214695	4.8073630211572524	5.63718794353114
520	2.3381142557240264	1.6688456493205053	0.5355498181173186	-0.10079790626349223	3.1163167874811775	3.3790626440565776	3.6348526386042512	1.49796986201694	1.4034470284314293	4.971932398640925	5.565903172745541	6.085488304032592	2.4777226385502598	1.6982420640030613	6.515030844452007	8.567429520910824	8.769600846083984	4.661971557290933	2.550532334563943	7.556582431788162	10.4627923701294	11.243792505486665	5.8712849468768695	4.121038903322184	7.210507851515676	11.30043789871523	12.178202598342349	5.864589199518287	5.1968808042924675	9.85045430557433	9.346546149497943	5.085110651529005	4.592207420199004	5.447061048106623
524	1.328271147235427	0.18413424445392895	-0.06318671240350676	-0.43445914874059	2.705127709234662	2.8319277691867395	2.9863290711345605	1.0770840617642667	1.1800174683342188	4.679973590479125	5.153616415363613	5.642033085883409	2.1895506326707688	1.5707886179366057	6.292454703656536	8.267662027466004	8.46261976012808	4.433739174139137	2.250612014810305	7.310366135260141	10.113000844218105	10.92631909472815	5.687741265241884	3.719335546639854	6.876447183413786	10.905508967522389	11.81323334572377	5.707447514429192	4.843975531745968	9.490770316003928	9.16055486273608	4.769789206860028	4.411929119415149	5.362265573314608
528	0.4157266904348423	-1.2425066201310997	-0.6429832561471617	-0.5797613844539068	2.361940616366385	2.4132065712082644	2.4868757661974383	0.7591968755627654	0.8512828328574313	4.481916416296554	4.906441199312866	5.316282735753702	1.8940007638796068	1.4341633283645594	6.132972701800889	8.08211419926015	8.201628664290437	4.069608678079718	2.1603407805258885	7.127473336344459	9.85199067489418	10.568745586414627	5.396919713699527	3.3975086126379357	6.608309729104196	10.637393924559177	11.403680772600076	5.436689839941891	4.556644428192844	9.229234672132993	8.997519470386475	4.5109300499513285	4.269047249506116	5.346579061360805
532	-0.109680779001361	-2.0188887068321173	-1.0067899201723332	-0.4393870521419208	2.2478976192940867	2.314353460190755	2.320066207750184	0.6794096810353574	0.5908384308202881	4.4760413056851664	4.941750037114345	5.201711641530027	1.703129406443725	1.421133991468134	6.1047835195905655	8.062165239959931	8.026277521849854	3.653731813742743	2.292635911875225	7.061892968468042	9.716121649053136	10.189117405915576	5.005249010800461	3.215168944824373	6.459610922716929	10.513956043401102	10.923975916938655	5.036478506723811	4.370319355421082	9.072512603742057	8.814963318503635	4.333780754591703	4.158055771820034	5.333768831138021
536	-0.05640013501709584	-1.777935738843053	-0.9807493661914484	-0.006841937528412729	2.4622418818297014	2.6269836359456287	2.5641143257253303	0.8908448792854093	0.5804148897775743	4.696922290387505	5.273586736715991	5.324414239792009	1.6902347760441518	1.6231387812642122	6.225242599028867	8.188100794146369	7.940634230592695	3.29040931824586	2.5599219734409933	7.119024735596747	9.683339094509439	9.802920316741705	4.543188083622326	3.186634770930961	6.445617182670473	10.493724796503939	10.363363239826233	4.528227317821475	4.2933192144716905	8.9837732088245	8.569263436616643	4.243594635739811	4.063649167291541	5.256576524814357
