time	FP1	FPZ	FP2	F7	F3	FZ	F4	F8	FT7	FC3	FCZ	FC4	FT8	T7	C3	CZ	C4	T8	TP7	CP3	CPZ	CP4	TP8	P7	P3	PZ	P4	P8	PO3	POZ	PO4	O1	OZ	O2
-200	-0.23520331025345115	-1.5094135961570536	-1.5685487946008911	-1.200682398625673	-1.188477513173699	-0.8823534824028563	-1.2742693392052646	-1.3382698263712545	-1.382822510089031	-1.375220176085703	-0.6767501217921942	-1.264645334865549	-1.1530429095720618	-0.8581750371246981	-1.7980525448225364	-0.5468595610163155	-1.0770628425107802	-1.0241628859411538	-0.6102374180645538	-1.0303062174533533	-0.37153938318861646	-0.27196761897086424	-0.002105355955932766	0.40781789915117544	-0.21506348197998137	-0.00467938043858343	0.8592421986820624	0.7409560661682062	1.308547731910468	1.0136281226315698	0.7151290160243678	1.1740689248006535	1.1864191263762227	1.0196657155042048
-196	-0.5171281682309674	-1.3139370646681625	-1.7309234098601851	-1.0065280173638513	-1.2429290978522012	-0.9433456039453382	-1.1285442085383341	-1.0703443261779504	-1.4663537703685523	-1.3969731295601402	-0.6731791479280715	-0.9208263731596035	-0.8657742716865056	-0.7718580941739873	-1.685432191408145	-0.3857128312386168	-0.45642673854032123	-0.5555399046223294	-0.4954408692725848	-0.713954983339191	0.009508137567177445	0.44573163873669636	0.64358895854584	0.759585617055009	0.29810306354599186	0.609337507140007	1.6418448645147132	1.606111999271373	1.8744457912803578	1.674656863752855	1.3981914484962732	1.7021161274851015	1.6927471118150916	1.454914923809298
-192	-1.2870207992484486	-1.476356860248082	-1.8594486666462857	-0.9665573810969696	-1.5109113416671882	-1.1946274011968074	-1.1592730254468353	-0.9537786221265474	-1.5219522676189268	-1.5419890841653234	-0.8460915663338253	-0.7920589427023919	-0.7619423847034776	-0.8366798737382639	-1.689745779539649	-0.45433625464171434	-0.10942035885841422	-0.23871160983375064	-0.5412554131193928	-0.5723822102400545	0.17049410896170988	0.8901789165910152	1.1255776853753525	0.9373769140418896	0.5548114762603685	0.9579486226691503	2.1016373581277135	2.2023162786193735	2.087835783455528	2.0159330317144577	1.7863306954106029	1.8943958234641807	1.8778663826260917	1.6729999738415717
-188	-2.3805236756303803	-2.0970709270937107	-2.06123160795507	-1.1716592282277578	-1.9762823531799223	-1.6346110064244566	-1.4055839741505214	-1.0667437288054493	-1.565200205665864	-1.8204382612043113	-1.1848642796165374	-0.9116247273317001	-0.8673332311666699	-1.058933613010959	-1.8241361333568402	-0.7168788891812657	-0.0386627464510386	-0.10984125705643298	-0.6848517042989003	-0.6074156745833662	0.1371311690921392	1.0799384089860642	1.4141627514420945	0.9576295590064732	0.5587139711578948	1.0729422542185714	2.2982499541431554	2.5031409200412607	1.9838159034233531	2.0748598523206865	1.9359316776989124	1.7856984093404218	1.7952558948967359	1.7282293991324287
-184	-3.4243929299681306	-2.975747816202169	-2.377639526086271	-1.54864453878414	-2.479011529385629	-2.1317210143627947	-1.7727614596431651	-1.344989534796977	-1.579430933779349	-2.1245207732921063	-1.5693836172535076	-1.1733401984154694	-1.085498807073832	-1.3352128233577325	-1.9783064077020949	-1.0274795267866619	-0.12162914841461087	-0.09705731248192832	-0.7989433983658575	-0.7007337790917182	0.03715710332549123	1.1284831733822382	1.5413652619546792	0.9096646881978548	0.44023653753711495	1.0831443044018592	2.3709919392805445	2.5846443111013535	1.7178095535776816	1.9938121983733956	1.9864445874606007	1.5302877387511409	1.6049938161382098	1.7220489935312726
-180	-4.027572144830137	-3.720034828330593	-2.760139935200506	-1.9086962890118766	-2.807982199255131	-2.49851536119979	-2.085704082945163	-1.6240876872066405	-1.5222637614917365	-2.2999255599128507	-1.8422452164867784	-1.3961521351850767	-1.260423895514635	-1.5077924690325455	-1.996936673844633	-1.2187799184545538	-0.19289354931290972	-0.0811952350473821	-0.765957234356122	-0.6983252150070705	0.012485245211192668	1.1598747939389682	1.5635913570981488	0.8908354021469139	0.365975319415204	1.1212249965969745	2.437108272121429	2.5500965054024456	1.4690749608142577	1.9216684054494622	2.0627098031417677	1.306603666821382	1.4715725146333305	1.7332932905304714
-176	-3.9878034490992444	-3.975839127992977	-3.100413553039518	-2.0646982140864547	-2.8277487683427984	-2.602642291173711	-2.192398304172368	-1.7400053695616817	-1.3532268966841385	-2.2479305210579192	-1.9046928834510004	-1.4327390157766027	-1.270297762524618	-1.4546240531435284	-1.787655468242036	-1.201837775057082	-0.14707745574534145	0.019530869971078852	-0.5467957840465668	-0.5156311379765683	0.12472047625285627	1.2239636151882924	1.518319483738328	0.9401910281285651	0.4308207322210743	1.2323745458006017	2.509278767926155	2.4532136855176567	1.3376815285288066	1.9175635527834343	2.190073723031997	1.2137942283502592	1.4642035924183536	1.7661533311121806
-172	-3.3964590940553805	-3.638182392471577	-3.2911903775090243	-1.9418710421172054	-2.559225314354617	-2.444517367866883	-2.053471083224908	-1.625476117798533	-1.067994830296126	-1.9908809611600322	-1.7748330786717483	-1.255934831309355	-1.0955405207630788	-1.163109180374894	-1.387637969328277	-1.0161751483056813	0.0009949024508734063	0.19493365238564744	-0.2055328483160709	-0.19557647357676589	0.3139804593742067	1.2654619184969103	1.4041318857981695	1.0146080229892034	0.601070640953756	1.3436700071742709	2.486686938683267	2.272685998900691	1.2975950208327742	1.918078775331572	2.2780041637127035	1.223543998490133	1.521938558550663	1.7509994462627452
-168	-2.5845255786492607	-2.917464248920732	-3.2810826218735336	-1.6171196658314109	-2.1666388456955343	-2.1558327620436177	-1.7653624966872974	-1.3463340963704256	-0.7180172186843121	-1.6615040260327667	-1.5745388229671156	-0.9732669567331058	-0.8241750577145377	-0.742349861178115	-0.9492152905340648	-0.8033943155985774	0.13189728524762645	0.34944635541427205	0.12323452501177685	0.11373741896046788	0.433817892171393	1.1636120051569496	1.1937057941816172	1.0196328137403718	0.7390284519610368	1.310371157198833	2.2227749768404252	1.9477539013323941	1.2280347316254625	1.784079785610988	2.1792128031070255	1.2106091945600828	1.5003663263587288	1.593767638950977
-164	-1.9432721088937583	-2.2220978680774865	-3.0927212160228064	-1.2646300760765252	-1.8585232449338396	-1.9194251250443592	-1.5032227001384433	-1.057400343132628	-0.4040675749113765	-1.4223374092431107	-1.4527841769732468	-0.7610355000355098	-0.5940321668885796	-0.36689042952413015	-0.6530180556976319	-0.7207917552869567	0.10203346584308301	0.3645461192463881	0.3070012621281098	0.24714034733364168	0.3411397627323786	0.817566154323173	0.8682551362050833	0.8763031937409163	0.6916409713448999	1.0101613972908963	1.6281151730439454	1.4465231858925578	1.0010355685709558	1.3972104752550365	1.7880240633643962	1.041095731014064	1.270437118183751	1.2436968056749698
-160	-1.7237186388365053	-1.9251009177241212	-2.7998437810780468	-1.0449206802689335	-1.7630325511289098	-1.8592685414102292	-1.4178991281950513	-0.9068501568786669	-0.233812242156034	-1.3657753433077302	-1.4927749596100117	-0.7578037362039475	-0.509252606536679	-0.1797374929420118	-0.6015177353930874	-0.8469062426165586	-0.16093036491771026	0.17815926626047246	0.2850892536594913	0.12208560078314838	-0.013159907389734233	0.22422729375970907	0.4479583192482712	0.5801172241823175	0.3881993283961116	0.4277028132607456	0.744267819432855	0.8168108442664862	0.5704995379349324	0.7460092287302162	1.1172761888905747	0.6634395105777838	0.8081383684735628	0.7374114375570078
-156	-1.914931650095377	-2.143657440495378	-2.4779572424315037	-1.002876279206262	-1.851360197161397	-1.964770550535647	-1.5446023902042578	-0.9443649625777133	-0.2619322829785924	-1.4564139806216143	-1.6585880476084272	-0.9786736344423862	-0.5803897366175426	-0.21190728193664235	-0.7584561686440117	-1.1339269847851199	-0.6049010142312862	-0.16863879518847052	0.0983534676333609	-0.21046890265255416	-0.5471183643832769	-0.5001974689252636	-0.003352586637168515	0.21430523639454682	-0.11273022712617684	-0.3227342657047208	-0.25858381325285457	0.179518609785788	0.006798929517686858	-0.053492337330231086	0.3042129270502345	0.1449349667942993	0.21715389137278251	0.18821597051784233
-152	-2.263186210640374	-2.661348813013406	-2.1640801375110765	-1.0395646069029396	-1.9549175451512828	-2.094768995718297	-1.7775603487912053	-1.0891615124860323	-0.4511323261791919	-1.550137635131994	-1.812929268074466	-1.300677653843485	-0.7215862851998067	-0.368505327963275	-0.9681567525261897	-1.4324904644085168	-1.0737632485936348	-0.5466361032036168	-0.13435867394857298	-0.5915057644215085	-1.0845948430334509	-1.1685557335914285	-0.40328359502062516	-0.09125784761515043	-0.6518357975714969	-1.048724291061027	-1.1583706111272143	-0.3327745488824965	-0.5412945733709114	-0.8133420923678953	-0.4565354872144394	-0.36596366670717984	-0.32784083402831476	-0.2722954445163012
-148	-2.4139666496365213	-3.0398034972690815	-1.8422820521571566	-0.9752194260770838	-1.8642077398917165	-2.056917662195698	-1.924130673318917	-1.1760053604952274	-0.6744906289237533	-1.4782196246018997	-1.7942565634249548	-1.5269799193930373	-0.803149042485946	-0.4829181122508265	-1.043153879392962	-1.572121496999708	-1.388273593258557	-0.8046917895027723	-0.2804458134246328	-0.8400747158775199	-1.4436879121570403	-1.6126687485986908	-0.6894356590984231	-0.23294374287920452	-1.0545616123277222	-1.5742797811815756	-1.7861564114297197	-0.6509848816648318	-0.9323620176617288	-1.3716214860618299	-1.012211797065993	-0.7267909031638087	-0.6822196227969092	-0.564883886341597
-144	-2.091718906843551	-2.8523626255499415	-1.455198880336291	-0.6596063358819564	-1.447227116745578	-1.712769504037489	-1.8045955850815905	-1.0482741567848197	-0.7609206418853176	-1.14352798173201	-1.5053211412571077	-1.4909443817642918	-0.7242126446559138	-0.40802776710489974	-0.8664460160314282	-1.4489366971627093	-1.438629265967725	-0.8458022453888161	-0.2592488222729346	-0.847159145123702	-1.5243886670726143	-1.7620637372351766	-0.8474371411862326	-0.1921159918226167	-1.2199743955328368	-1.8207174493597342	-2.096978182266674	-0.8076475242250767	-1.110496756610938	-1.6722162919740435	-1.3230885233852916	-0.8816335179004321	-0.813093302581231	-0.7026426774404753
-140	-1.2242221801366753	-1.9081876229746477	-0.9367775297355416	-0.06660372747056321	-0.7194417100862027	-1.049308893415508	-1.343127962536052	-0.6457383020310139	-0.5730313644246643	-0.5720132574898263	-0.9625229215162439	-1.141491291025177	-0.46434038760252505	-0.0953808051919831	-0.448378174365009	-1.0716551515225412	-1.2352125613497718	-0.6695163829112266	-0.07524182628469925	-0.6218938215766892	-1.3458720411652931	-1.6654579597386043	-0.9100195146473068	-0.04419985029862911	-1.1596257657337254	-1.8262399388935209	-2.164698356885126	-0.9086649990982059	-1.1258805961793363	-1.776028867052213	-1.460941549427322	-0.8833371378531011	-0.8085384944529298	-0.7729589323555647
-136	0.03892227624960629	-0.3513554325769631	-0.2516663068139445	0.6825903040818314	0.16994281070241302	-0.18172824336900012	-0.6039707645426253	-0.039177801361113256	-0.0797806678188216	0.10649431469971367	-0.28268814015542165	-0.5656344280267138	-0.08770787693767755	0.3816549172302311	0.08954337216657914	-0.5460699186843248	-0.8925168491717824	-0.3616359820772218	0.19375315259652892	-0.27010795405856725	-1.018518564513754	-1.4471571408927881	-0.9286705828108193	0.08595307894701751	-0.9706627702047992	-1.700007553576851	-2.110395664608897	-1.0552432510436527	-1.0893567773018236	-1.8020712091724365	-1.5409833153919228	-0.8475132563174186	-0.8109834173707987	-0.8726766087433586
-132	1.4044673407381185	1.407229658388615	0.5757203683622723	1.3793185914501114	1.018789169600351	0.705655394203041	0.2404660278448012	0.6042562111857339	0.614814160702077	0.7295374255834796	0.37796598577439583	0.05876068383520791	0.29519307538843714	0.8694022871955341	0.5861570820314481	-0.0155563111955559	-0.5613551125658689	-0.04259303946470183	0.4424074877059655	0.0734988747171584	-0.6750057918672464	-1.2296093671271633	-0.9374040341551939	0.09497564262014531	-0.7679046373053068	-1.5455807408411308	-2.015136713662269	-1.2678539720949968	-1.0932408543641607	-1.8394625140478202	-1.634765859291192	-0.8707368351886858	-0.9185837484055914	-1.0395692560652203
-128	2.560225241872845	2.881707184191674	1.4500920735941185	1.830951924469698	1.6673088031634968	1.4404730760445517	0.9851919983785656	1.1001340123057417	1.3054697480620379	1.179558989407764	0.8932887889243196	0.5486852512811763	0.5794578776034768	1.2134952514528206	0.9213938093764326	0.4044905890742794	-0.35158145338938074	0.1916968519616144	0.5892255887413829	0.31571200410288247	-0.40384939210972703	-1.069489357155451	-0.9321646070787311	-0.04378005106124563	-0.6189753993619199	-1.4021873438719266	-1.8725796890664412	-1.4623231850897271	-1.1489350766738027	-1.8857715082241142	-1.7184234814173183	-0.9648895835357203	-1.1160502405599295	-1.2214601009047572
-124	3.279225102728443	3.7164244557963735	2.214968675743191	1.9463821600409965	2.0503201432914566	1.9174582909810267	1.4686682187193374	1.3251185383719266	1.7648014977720878	1.4210873806360373	1.2045856683835792	0.7908645252287534	0.7042331677776462	1.3263305392157294	1.058499452779511	0.6613806469431505	-0.2895355515322529	0.30236518306686255	0.6048117860782827	0.4351671625117669	-0.2236116522865396	-0.9441602206234267	-0.8785160161726158	-0.27260473301725985	-0.5225085006873236	-1.2398066489388808	-1.61017727445337	-1.4961062631980977	-1.182017561789252	-1.8521888209309725	-1.6899596410045634	-1.0504347059431831	-1.2798111406439097	-1.3029804196839234
-120	3.4659888656846443	3.8016090297085006	2.689524405364755	1.7613737538689989	2.1856136266840043	2.1071698612417973	1.6175776679207088	1.2571613756864464	1.835707302227162	1.484307046957441	1.3147259917444176	0.7729859332595798	0.6617844088058396	1.2102173536263185	1.0331160996102604	0.7600041012649205	-0.3261979512085186	0.30177551431758837	0.5086053000960525	0.4654987144638431	-0.10265898678609905	-0.7885739187358184	-0.7402209620860473	-0.48979705448466426	-0.433699904777358	-1.002600905748095	-1.1598936290066697	-1.2583036390960378	-1.0852802964466373	-1.6281259018799779	-1.4418590032413698	-1.0105596755262798	-1.253605124169546	-1.173955556766577
-116	3.143910400082409	3.252924434078415	2.719696038055303	1.3905798161683838	2.1176285690248395	2.025817150723316	1.4454445802434255	0.9597141122429399	1.4909764490631	1.4139037096565545	1.2525217501488437	0.5619392976878376	0.47904038308314184	0.9314116216031847	0.9042977071818946	0.7310891729016443	-0.38453283808897765	0.22039356772091875	0.34231981548666246	0.4497281003564738	-0.00358994979436311	-0.5551587329199532	-0.5111391531437018	-0.6114572867214471	-0.3138623527708824	-0.6671061498965294	-0.5299716578454524	-0.7489564995929838	-0.7950888256026095	-1.1630101174555274	-0.9418067312304125	-0.7711333016953485	-0.9484181976214959	-0.7984345535146946
-112	2.417453521347078	2.305432075401878	2.2393779698099814	0.9536097025636804	1.8692766380799075	1.7040519671332293	1.0264235709024871	0.5366796241561836	0.8415889122695709	1.2288083999126937	1.0434873077749938	0.2566495531278095	0.19790176997287262	0.5715592489117185	0.709880529041922	0.604624865912739	-0.4071717550011192	0.07980018833993624	0.1449961658631679	0.4048314978392116	0.08524775483542929	-0.25155970390703286	-0.22685174586718818	-0.6137465819122003	-0.16358818072501818	-0.27003228596221596	0.1757187540863058	-0.09400258934606319	-0.3386853030713697	-0.509460447932486	-0.26666232876209084	-0.3525608471075348	-0.40251913565098846	-0.2406496846560517
-108	1.4371325933411936	1.1984170645020589	1.3182454075909398	0.5225600587049242	1.4375373088781966	1.1814776629182397	0.46770653010539415	0.08924454428075218	0.08937600977505299	0.9210176444642048	0.709552703496485	-0.051601461935892386	-0.1316668089880231	0.1914480472737889	0.45652246359958887	0.40792205826765743	-0.3735467186079716	-0.10845041247643317	-0.056107207991086754	0.32194042124528405	0.15339580139532086	0.06899507326349492	0.053255990013132186	-0.5323600755602169	-0.01579758334641693	0.11520183802367655	0.8073485473276382	0.5166279064486307	0.17813175871697806	0.20117574879399047	0.43365579734033555	0.1395825293116276	0.23522707760549533	0.3673878004812027
-104	0.3824777295469556	0.112485825731473	0.16915379421919086	0.1189460900403043	0.8360413291803973	0.5282679186834941	-0.10616919371502656	-0.3039522163346452	-0.5517207966226334	0.49448230737772714	0.29484313651984434	-0.2920438937920027	-0.4464834917239949	-0.1722181435051629	0.1488543745097379	0.1852946574778089	-0.2809739999829764	-0.320540874387169	-0.23607382118703668	0.19946485707467723	0.20153100737711604	0.3561491957255656	0.2823339693570605	-0.4229966987420641	0.1046250087361486	0.4370663155011279	1.257539745970525	0.9307579374655833	0.6345971210670163	0.8356019237402225	1.0201543543808398	0.578758178680225	0.7880606631409534	0.895837066295968
-100	-0.5489983544793909	-0.8212688544519167	-0.8965930916083904	-0.24659904775348063	0.14826525710342653	-0.13172003593567314	-0.561849771511611	-0.5819320664018566	-0.9250361896048157	0.011195324333058834	-0.10946256639738923	-0.4058231403118361	-0.6668923480362599	-0.4849895822677981	-0.17010483102766466	0.01567581478273854	-0.11227384926344511	-0.49650290483051135	-0.35819950609369533	0.07894837836360175	0.2736676030402111	0.6124950631890113	0.45590260509781216	-0.31261145989646194	0.2210718834779113	0.716172037700659	1.5304114779933822	1.1128996582543464	0.9674773191821104	1.335986134017096	1.4411687814566134	0.8933069087362856	1.146832701648593	1.2780445781865166
-96	-1.1735804051333079	-1.4839769564355083	-1.5663775166064953	-0.5353329764201732	-0.4613638806615689	-0.6323132498989238	-0.7769210915023606	-0.6930052024510747	-0.9708702539727384	-0.4001207341582493	-0.3738408973315178	-0.33991238389026257	-0.7112058383151567	-0.6914659125036365	-0.4072582413404699	0.0011421184725163396	0.1769011612240523	-0.5436307774169845	-0.37393504286770285	0.04743598017041015	0.4550956476165579	0.9049920416871301	0.6147470458722293	-0.17773008301685084	0.40818416969239546	1.0452260944679914	1.742468352686872	1.1530189485049227	1.202981707396723	1.7453547672074776	1.751097793926376	1.1027369471365112	1.3187544312560364	1.52632641406937
-92	-1.3699581588489274	-1.7574481919740026	-1.6424334007757397	-0.6759498698334602	-0.8004436472710662	-0.8202278593335427	-0.6752814633486366	-0.599774776374966	-0.7292909603779556	-0.5885770902078639	-0.37923854493713754	-0.05898287877449868	-0.528542696095215	-0.7221183162577286	-0.4519024181877456	0.22324304226301803	0.6356618984385956	-0.37329688574002634	-0.24398064551743093	0.19746024856781363	0.8292630889936533	1.3253614869034176	0.8185043910342136	0.03541406607627373	0.7487534861733914	1.5318441352315864	2.05029105622488	1.2015680044355097	1.4269351923201865	2.1636550371856114	2.060446972413228	1.2916229930692267	1.4026659691682646	1.6987850623155942
-88	-1.1333723039622405	-1.5682808121186576	-1.1278812856808158	-0.6051835998514529	-0.7464565019834816	-0.6328698976750758	-0.26807942918804795	-0.3023993365282326	-0.31078624646875813	-0.4615927922992509	-0.08482259490531985	0.4245936859854991	-0.13485048677253422	-0.5320706354059184	-0.23951470791426543	0.687132356816183	1.2690027920154974	0.04409762460780711	0.030128283350098976	0.5640252218311307	1.414415475135304	1.9185591887672486	1.1038428517128815	0.36165571121459267	1.2671189276174826	2.2140974942573535	2.543802970185791	1.3698270286307526	1.711956854312673	2.6605873040736783	2.447096103211935	1.5377984008110357	1.5086327753124673	1.841216201901974
-84	-0.6037265643135971	-0.9603428220344434	-0.24046380757178892	-0.3288146845145188	-0.3329821518597251	-0.15276049038942519	0.32459506310526565	0.1351604309245837	0.14312052690611146	-0.05435441793189251	0.42663252245953853	1.0226056549956835	0.37231549526627733	-0.1481463309362387	0.19117896210562976	1.288947459781304	1.9941304871756926	0.6384012683009115	0.3856108178893413	1.0778962346519256	2.1192672199148674	2.622367852265876	1.4509111606205538	0.7719656209528907	1.881777758615667	3.0005865021288374	3.1677355686318753	1.656146045318145	2.048571819855319	3.2004029670021565	2.8841998504298876	1.8414448453187553	1.6744347768469825	1.944483990528272
-80	-0.03273915491182934	-0.13691593672039867	0.6629506928872151	0.04656615841552807	0.23633776545459692	0.4043518890662373	0.8968989230399608	0.5832765087660159	0.4996733652850769	0.4606758642486637	0.9619079207930041	1.5737551410995871	0.8384218194774267	0.3114737860445064	0.6894342285869521	1.835255379811616	2.6378846101917883	1.2459391324057587	0.7082333546877128	1.5707149465958494	2.752090447153202	3.260038129205108	1.7784199669759857	1.1650668353229543	2.4132599769698486	3.6778762247688204	3.7198917771834936	1.9402229736933267	2.326608651962792	3.6288499740533666	3.2305526651834824	2.1026332325301067	1.8323166324130298	1.9447277735247879
-76	0.3126738957617065	0.583970724061962	1.226454493287167	0.34661766799198573	0.6695584041856872	0.776366112656258	1.2298127381746233	0.8853513576089105	0.6661334617008956	0.8412148931245497	1.2936733928443234	1.8908699703160392	1.11166917997071	0.6714035255646957	1.0475425693766935	2.115344280624235	2.9888677521584244	1.6668581920501326	0.875852582627552	1.8389629079165744	3.088126890015119	3.598595371697501	1.9722431848322712	1.4078792298057372	2.6530003480686637	3.990335692821489	3.9322385688684385	2.0475869127075375	2.3839611946951877	3.736078968152146	3.2919781124923873	2.1660549585967885	1.847239847287767	1.7659262374161597
-72	0.2733551852954097	0.9051389075314858	1.2439320056026597	0.41864386095207434	0.7304595690404715	0.7798072079997429	1.1856603592501478	0.9257252192966796	0.6128028615738542	0.891752121581245	1.266267296455082	1.837460990081316	1.1101400824175027	0.7781003097916196	1.0971052618937718	1.994276280136445	2.8839504645967766	1.7485827163417837	0.8175854066233869	1.737653370284783	2.9649226590639723	3.446302643657931	1.932134384999149	1.4035387003748625	2.460442536817765	3.7537205124496467	3.592717161644593	1.8438987685379624	2.094767565206826	3.3613624487887663	2.91863249995538	1.906742687179651	1.5999873836175857	1.3736561502107456
-68	-0.11453583062579904	0.7080411297087974	0.7503901701101466	0.22738227190783328	0.3674852838774867	0.4062589694733334	0.7763878683515462	0.6918978673632332	0.38672870299928136	0.5666549787519815	0.8744676091050477	1.3951028550211	0.8613393881031897	0.581566511116372	0.7944570163695855	1.4779288731454194	2.285239213895853	1.453278061058609	0.5538429007852138	1.252376791653116	2.3557560384401053	2.7388901641359924	1.6118252236679593	1.1459656924878794	1.8347352696826191	2.9415993616222478	2.642742388728718	1.3024167981643504	1.4442743026508602	2.479128592907672	2.0815937466518295	1.3050634828042746	1.0619933578381338	0.8011555055418215
-64	-0.6153428538998998	0.13918586040164888	0.008958881698281533	-0.10417245302125346	-0.24643397269019196	-0.16520394343151007	0.16701811509879708	0.29335108325327147	0.10354464474999991	0.0016944092888446173	0.27075755527801176	0.6835792643454478	0.4900879549527561	0.17269398228436467	0.24804653164703525	0.714118359670108	1.3064005341925005	0.8736469127532074	0.19466467152561642	0.5099973665712672	1.3825992310902662	1.5706816872041487	1.0340388987183433	0.7279089074830379	0.9205448008183954	1.6982449250260034	1.201734659021881	0.508806883004174	0.5450094924518031	1.217116948869519	0.8869462586897836	0.46487560750893436	0.3156096331257392	0.13124155965094672
-60	-0.8850305058068946	-0.43480744848145564	-0.602746604351319	-0.34281930240861913	-0.7901434878427259	-0.6502450092111028	-0.39193749328840705	-0.07990674654336441	-0.0876709965638159	-0.5452550039830131	-0.30457538289419855	-0.08053319135837216	0.15897050459779882	-0.24989458855479155	-0.3281594506561572	-0.07156062853150406	0.17409729913625224	0.18923117172625487	-0.10821945192909224	-0.2776678793572446	0.26404058866594216	0.15833660920221299	0.2781490974556237	0.29464876577372257	-0.0557216776990723	0.27421653201488416	-0.4867428230871173	-0.3922899653543964	-0.41564527049028466	-0.20114742168663247	-0.47511690735070755	-0.4359899152238468	-0.4906709777841546	-0.5529863224373093
-56	-0.6313847287449571	-0.6021770223672834	-0.7600997071148988	-0.2667109959544271	-0.953663644767066	-0.7976678589708845	-0.6738789064559679	-0.24405488310231124	-0.06328108890768971	-0.8180123546928351	-0.636043666187418	-0.6708007437936041	-0.008512178414430485	-0.4754224109567325	-0.7139078956699374	-0.6732352358986636	-0.8572438933663679	-0.413393615632612	-0.2337916040478326	-0.9084578133534897	-0.7739233355055957	-1.2411153285162653	-0.5490146265473735	-0.032159473665820136	-0.885975299028844	-1.0785064670035953	-2.151704544356897	-1.270397063862563	-1.2653905121326496	-1.5538258513320937	-1.811443681911835	-1.2329734532697927	-1.2209970920253108	-1.2116783826753643
-52	0.2326868021573877	-0.12333953349444478	-0.33307471787282755	0.20616470225257835	-0.5958675727105143	-0.5104343282210123	-0.5718895778522297	-0.1079381180064627	0.21726898794155322	-0.6847295743820638	-0.6283649786343256	-0.9397262907144248	0.020231101610841927	-0.38657310507448805	-0.7816104273135801	-0.9845265721259732	-1.5941206176564457	-0.8123112896437522	-0.14881710670568618	-1.2715245453202877	-1.5764709671272763	-2.413466924295986	-1.3413492407311556	-0.21626487319704094	-1.4623712264332949	-2.1941168252861933	-3.5798556714274317	-2.055374855574227	-1.9210119198935636	-2.7010650566570287	-2.9881386681453725	-1.8473690701573136	-1.8142187549562812	-1.8538161469385217
-48	1.5199222526322917	0.9279503798898165	0.5599186406304087	0.9542434191453324	0.18272860302090102	0.11328010232458331	-0.13446409966375328	0.285075872416773	0.6797348839764308	-0.19666102478919947	-0.3369265488224227	-0.8666641690307554	0.18612933111881372	-0.019123727407452436	-0.5458616004513608	-1.0226260397841453	-1.9551998327482263	-0.9800667141965594	0.07828317562842667	-1.3760443891115763	-2.0916895813583958	-3.2335705675501303	-2.0084035345868614	-0.3183998755522425	-1.7995625688894636	-3.020228139881371	-4.649838435831088	-2.731530421036288	-2.4033038555502833	-3.604702702004347	-3.9416565795563305	-2.3012425841404824	-2.290449851928962	-2.4992582734903945
-44	2.822981588865699	2.183068985195678	1.6092349250218503	1.6945079522266004	1.0899177762170331	0.8377221205541749	0.47290786981394173	0.7818207721044614	1.1509374351053316	0.44604715592301825	0.07824491689715807	-0.5451949821058758	0.3837741305675472	0.45779919508745426	-0.14012215996173916	-0.8902586080008787	-1.9682276199238915	-0.964063165137996	0.3137638262933175	-1.3173700537799784	-2.348652833730866	-3.663397541333696	-2.478312486113468	-0.4517079282323346	-1.9906678149508537	-3.580641975899323	-5.313367830212965	-3.2932267105879895	-2.788525574319513	-4.284693230301574	-4.644015300469813	-2.6699936322512237	-2.7026398113680186	-3.1238782326982926
-40	3.6762602236437503	3.157958499564763	2.456228965279941	2.1150739139562162	1.7870086386385664	1.4122619593250063	1.0561666461981816	1.1982101171759212	1.4263583385695067	0.9997863148242624	0.4452930975638686	-0.12171035229233172	0.5245378600228677	0.8303728082672798	0.2614487999037175	-0.7034469825150438	-1.7254495577164126	-0.8369832613794046	0.4251012493368025	-1.2071351974527649	-2.4051141678168304	-3.7192654515777748	-2.698732607703567	-0.708705900310299	-2.129038328517517	-3.9080688854730403	-5.5538368084876755	-3.7015354539876513	-3.13127087756183	-4.7494630693686215	-5.057422148333531	-3.006461374321646	-3.069638006089631	-3.630065670385136
-36	3.7587158585063705	3.497891417255099	2.853256695219315	2.0293252416873595	2.053630585253924	1.6929302172833793	1.4822963438756644	1.4080185854648701	1.3665795291730094	1.2980250087390983	0.668269394141029	0.27867621113036406	0.5823974594670878	0.9500704383704983	0.5346962200016454	-0.5272207842867238	-1.328442927821236	-0.6516495330570441	0.34419840487362785	-1.1072436543166	-2.3001747073273826	-3.4381008061389657	-2.643312924387067	-1.0994944544689165	-2.241409296098798	-3.993190755299022	-5.359230027973151	-3.8751368424806243	-3.406905404072341	-4.949486243149501	-5.1155581345148775	-3.2841861165098627	-3.3358242427527802	-3.8685800931533065
-32	3.047255746777244	3.1553931156601074	2.7679543425294093	1.472587343312714	1.8871595811881388	1.699717875003974	1.72470628779794	1.3962115014111232	0.9728770827526143	1.3251780238072624	0.7640334348462086	0.599684832966227	0.5980024322670444	0.8063355663922379	0.6613180620662943	-0.3534635892527013	-0.8527740814613017	-0.4255549002870426	0.0954178718303592	-1.0036429141454275	-2.039421791649661	-2.8658986019256787	-2.3244903028928228	-1.5372500380804868	-2.270274156560589	-3.783105125412567	-4.730448710896121	-3.7259957696302406	-3.510842791276355	-4.787687289547994	-4.7496714472062305	-3.3969197187490416	-3.386735430749852	-3.7069280053961555
-28	1.8423360539651867	2.4047431885086854	2.382193082517035	0.6865632516693044	1.4880852661709243	1.5840706785262408	1.846024866211733	1.2496103016774958	0.40088567036504297	1.2079138725301446	0.8331025221771664	0.8542854764350555	0.6404579265636937	0.5223846422357931	0.7226332407826431	-0.12798050013655132	-0.34522747906307677	-0.15846359689758632	-0.22058752123452818	-0.8300018289591343	-1.6154224831803614	-2.0701048321910904	-1.8049189998833253	-1.8788182688007513	-2.1125445312569138	-3.227621547179408	-3.7167642022707357	-3.2199373163943656	-3.3159010326590383	-4.182332028320022	-3.9452476401856917	-3.215984813199999	-3.113874665981606	-3.109281055229654
-24	0.647828219685497	1.6855046706560088	1.9890671918240963	0.0014586766446434136	1.145812866179061	1.5310535392252818	1.9363071869600492	1.0946351262112266	-0.1017988247089365	1.1353952856008096	0.9868238543391062	1.0865776511415428	0.7525843362880786	0.27994996238599823	0.8418317415917728	0.19643111477372005	0.15746504028618533	0.13554163242928227	-0.47626569746888564	-0.5201587663869207	-1.0417463753147895	-1.1550041407987997	-1.192940232126055	-1.995776052204497	-1.6875050025296205	-2.338398689088176	-2.4447495875623417	-2.4202883182454387	-2.751656048503176	-3.140403024374101	-2.7874827314571555	-2.669510834629762	-2.487431519903921	-2.175695175399842
-20	-0.04828568908302161	1.3639123405353342	1.838116283544322	-0.3202366522810035	1.0851612063666767	1.6513488251001542	2.046674961644776	1.0225837204864616	-0.30999293845112297	1.2514370648259598	1.273521300915222	1.3232845034568184	0.9171896553724596	0.21720297579763112	1.107017871922761	0.6145234092455967	0.6112175568407656	0.40979105130683824	-0.5725892171708368	-0.057369354967470525	-0.37404960299467194	-0.256476193018918	-0.6147171243406276	-1.8357909871482154	-0.9942182873419825	-1.2194584577289636	-1.1090573044432466	-1.4823753796344372	-1.8578304005447197	-1.7924954845948673	-1.4595947228773776	-1.7958278610665563	-1.590641375340401	-1.1136610479847848
-16	0.001662397636560112	1.5361205300648448	2.002065176677449	-0.20474661834998495	1.3521097864345786	1.9176255416138441	2.151819462111734	1.039363381622686	-0.13435164060050725	1.5738018711409731	1.640625949532134	1.5414826831045902	1.0597510311073448	0.3522433927702626	1.5143926105411503	1.0550163957662102	0.962300596191793	0.5948843344927819	-0.47740045069325454	0.5040645586638828	0.29530677124805915	0.4895160781899025	-0.17367362932225844	-1.4448670112370101	-0.12936343219997717	-0.0484917088118773	0.07930764535907836	-0.5987306818150715	-0.7819904665277085	-0.36533468869477553	-0.1885371650465648	-0.7413884382603152	-0.595309077190379	-0.15519317945398484
-12	0.6873618346979888	1.9848512361004877	2.3320095480215435	0.209644495911586	1.7931362345245851	2.17567490982067	2.1606829111860355	1.0675315829981011	0.3287205091760114	1.979682321318616	1.9511610220284428	1.6711918073422307	1.0858689519169527	0.5751824364445325	1.9599572370636076	1.4055831396854965	1.1638821334063898	0.6323727353342595	-0.2341953659105217	1.0545035574038575	0.8667504169515277	0.9931772922236085	0.08549507685771975	-0.9426058507008985	0.7421945314742224	0.9833641027418537	0.9652345156141646	0.07653134296883672	0.27569457818997023	0.8970018006565833	0.8370360114898977	0.2944945387557556	0.3078455619192216	0.5381450043442869
-8	1.5812001188411053	2.304530376337992	2.522822135277825	0.6499163492006411	2.1311516707973377	2.218357795836563	1.963918204117511	0.9937391852084875	0.8356167056920895	2.260580533995952	2.0425267167974615	1.627900238695428	0.9316406822524782	0.7087128144490755	2.281541818580481	1.5596376618108896	1.19800054724542	0.5098126517775746	0.058194223644434565	1.4703944884369637	1.2680623499326056	1.2445385424663626	0.18879979801194327	-0.4658721077600958	1.4471476041496483	1.7400573448117946	1.5036117992585547	0.4841959464246175	1.140014764768529	1.8220555736315633	1.5333083829314418	1.1375097007642334	0.9860360597510989	0.9321871376343993
-4	2.128033155790563	2.1188719219117154	2.259308809298235	0.8397080877084321	2.0958952850831287	1.882319326416729	1.4905923567331372	0.7319000940917662	1.106689569540167	2.216890567904476	1.7969832374979655	1.355172273075406	0.5980199560325642	0.602192817598109	2.3280157984130967	1.4589058123948029	1.0862182351344547	0.27345487406354485	0.28105884719459995	1.6577017265428549	1.4732552729603807	1.3114812341003272	0.21300840324028164	-0.11451870174104996	1.8618723107060235	2.1796829645438267	1.763632412272415	0.667762814266362	1.718024964763356	2.3605034291751896	1.9357051800493377	1.6962116913885588	1.405411955146134	1.109781858503307
0	1.9105240058346546	1.2831553188352345	1.3791749442565655	0.6257283075746984	1.5489097794527211	1.127048131958249	0.7529998402657588	0.27419447829637295	0.9608235334933433	1.7499880746527499	1.1964560716938994	0.8607140757764298	0.15571363230968832	0.21092049724255477	2.025804276120077	1.1162606449554555	0.8851091243331548	0.012390467306981066	0.33673903261043275	1.581211324514295	1.5010328254949243	1.3035044637194657	0.24619793829747735	0.07679298500699831	1.946113223884449	2.34835504892632	1.8819121074846517	0.73363947683121	2.010730261494439	2.577065938165165	2.156008953373129	1.9739755342236494	1.61795246192611	1.2032289474626272
4	0.858868358350975	-0.03528753659160593	-0.02486823306659588	0.03846358870689535	0.5481764660346581	0.06243692695231865	-0.14194475078507945	-0.2973396472576361	0.4041604091453798	0.9114999748105002	0.3388561895875093	0.22676147463290375	-0.2817290120164401	-0.378158389567245	1.4136345350814286	0.6108987315966671	0.6665821654656319	-0.17891932978756808	0.18164738966856644	1.2705992428171307	1.3967252934477898	1.3176646199337148	0.3475637427137945	0.1328423168881543	1.7424218610640645	2.33648967153013	1.988151187645501	0.7888475040546467	2.0809352345380137	2.5901875430514694	2.307264799014804	2.0361077734085162	1.70722198055296	1.3104848828607774
8	-0.6999117714376961	-1.4341046773942483	-1.6135114390643979	-0.7331503015127735	-0.6716169101924528	-1.08321726048688	-1.0183006499330054	-0.8411557653170817	-0.37011465336814736	-0.1100878116689239	-0.5884646758481012	-0.41006201402130305	-0.6013474449233941	-0.9839174722625513	0.6310853942196508	0.06174049138336013	0.493985741083357	-0.23854823350283377	-0.1535399850306685	0.8054704645801521	1.2107213705012667	1.3953183854160636	0.5257670866089671	0.11067136349154343	1.348908420971775	2.2256469670370316	2.1424293463975266	0.8908977486051916	2.0031175562829464	2.4982967313633053	2.438935035269893	1.958107347313029	1.7288663343648905	1.442094322378349
12	-2.184167379586826	-2.462176793557771	-2.9207854197192313	-1.4307925665017318	-1.789569015753074	-2.0389075227758373	-1.682962651772046	-1.2106645076702947	-1.0728725167843602	-1.0576120588303355	-1.3672724927714186	-0.9014090276847933	-0.729783354347202	-1.4123083317385245	-0.1325525787106326	-0.4089125682520341	0.4047065367017555	-0.15664623638181188	-0.5670456871974977	0.2877261333353747	0.984065768618378	1.5106527767188054	0.7433971147841745	0.06889566761742173	0.8804460145655701	2.0539772458670624	2.3134853781464377	1.031899926441334	1.8252910329510925	2.332995170425061	2.515336268750094	1.7857742264483847	1.6801969962614505	1.524178620304956
16	-3.0344331187883777	-2.822305672195652	-3.5420246034840055	-1.839048261767677	-2.5226805146421967	-2.585176699787143	-1.9910023162164885	-1.3123881783729396	-1.455278631350799	-1.7022465424475408	-1.8218818856971264	-1.141098973254256	-0.6568638069734752	-1.5402114352440304	-0.7100893837166876	-0.7121593934198659	0.401085494936148	0.027983782742300737	-0.9169217324948706	-0.19077092360968884	0.7422216515875267	1.5913964469785091	0.9392526126035907	0.04747991624407928	0.43254077325333745	1.8133696271889548	2.403268569600665	1.1569058865902018	1.5613317450204187	2.0613324590137756	2.445275062109355	1.5271384677477395	1.5145581922439182	1.4518401586116776
20	-2.9829468651799647	-2.494794124026568	-3.308068982355326	-1.8711450052703198	-2.7319736411737185	-2.633487933185677	-1.9032238673795752	-1.1446518869110571	-1.4226958715758848	-1.9298129033002982	-1.883239860548316	-1.111630556160993	-0.4372262645649788	-1.3646975721236227	-1.0199366782186696	-0.8214057067159753	0.4480867970597601	0.24731185969854985	-1.0739436122482697	-0.5768989310004404	0.4922862934558118	1.5553717573950854	1.052800652706924	0.06161870791852058	0.05701880142598002	1.4712084494639615	2.29895638839125	1.1977807253160433	1.209216830061645	1.6283665854349731	2.1414606517130825	1.1726335257487965	1.185994979725072	1.1571139067999427
24	-2.1823704187606743	-1.7314315990602571	-2.368725770691906	-1.596898074886677	-2.4711008009510116	-2.2622840347393316	-1.512529965396622	-0.8023089746246026	-1.076311108732771	-1.7830951168817846	-1.620292182646216	-0.9023315883742976	-0.1725225742275846	-1.0031218503421166	-1.0956323119158011	-0.7854434828001184	0.47710826872530326	0.42638164651031235	-0.9805780624427964	-0.8728012420552693	0.22071246747082313	1.3421661819903845	1.0383814547071353	0.10312667463014837	-0.24667833683199292	0.9988336537892226	1.923428769023814	1.0999138327484972	0.7760203461127889	1.0100818846949666	1.5745016296688694	0.7239328604540446	0.6936897617945917	0.65156596734528
28	-1.1320747108487563	-0.9394385194901758	-1.1468845576894169	-1.2103445499379482	-1.9630775402097214	-1.6966915087777892	-1.0262312863189271	-0.4491591442212068	-0.662496863123041	-1.4455500804644117	-1.2249413697787193	-0.6892182213548315	0.016252940479609457	-0.6440445168447081	-1.0707150670675174	-0.7205771189616624	0.3956056227232682	0.49715852611906297	-0.6867994648759529	-1.1340222330072305	-0.10795496376914981	0.9248517132297017	0.8656210877498196	0.14505131506060712	-0.5239360319260901	0.38935324451372744	1.2607477871535266	0.8309043028834	0.2902696721377755	0.24385076699679328	0.7926868776335152	0.21012654847498988	0.09846684311801804	0.02335772843722129
32	-0.42039328707413753	-0.5012759553651066	-0.1663057352874014	-0.9418318247857995	-1.5053951702257318	-1.2257966964290867	-0.6939830762507908	-0.25818529659889244	-0.4490732837306246	-1.1643626660513557	-0.9432755088832593	-0.6703346354726373	0.02689822756413425	-0.46715125323606854	-1.1176298828517788	-0.7730077485595125	0.11160369934276616	0.4081557084745871	-0.33857658419957387	-1.4419194423510195	-0.5405107722940939	0.3077723078109776	0.5177437650006534	0.14995634517956313	-0.8394023158815064	-0.3377284399088838	0.3547896137816715	0.3790911724533024	-0.20314799197882275	-0.5785253033336756	-0.09795273070638652	-0.3161470882063219	-0.4970469164220028	-0.6051362737636207
36	-0.41815307630823284	-0.6113721116842781	0.1745008672838463	-0.9550796127047751	-1.3446849550629436	-1.0869039269662195	-0.7044539433813368	-0.3414392164669741	-0.5948047622922077	-1.146039006200768	-0.9768707131517721	-0.979242858798554	-0.1861599083015063	-0.5700150713834211	-1.3681824172762622	-1.0616410943884005	-0.43013441454054085	0.1338638510900582	-0.11741044342676887	-1.8604063940761186	-1.1125986547989906	-0.4806111740852642	-0.0029948169755574672	0.0821673495483114	-1.2430169550983783	-1.1435593337750827	-0.7116173487816471	-0.24766398903783263	-0.6616996510011829	-1.352233168048952	-0.9818513964659182	-0.8001983145537901	-0.9952359174396634	-1.1359107465675258
40	-1.0801631184963	-1.1887639730957664	-0.21479903107294185	-1.2703248230332778	-1.5695118864487403	-1.3598148788452398	-1.0912560196981516	-0.6957555395680016	-1.0713282796514183	-1.465911742324014	-1.391413565937397	-1.6115405518852308	-0.5876035675472053	-0.929593381918902	-1.8490682793662803	-1.6199480254281517	-1.21118485621787	-0.3126813165399623	-0.15325994750905955	-2.3941512047402616	-1.8198758317776307	-1.3895515168393149	-0.6620442850564041	-0.07469539325451986	-1.7392375425296236	-1.9792303989030702	-1.841418023228674	-1.0164935563172675	-1.0627980205405698	-2.009814972571579	-1.78327381160637	-1.208971974181526	-1.350400682854604	-1.539056416440489
44	-1.955894465276685	-1.895906324368265	-1.0586842271778483	-1.7401123002941388	-2.0647306390131304	-1.9171903084987931	-1.6930314259699524	-1.1860363453484415	-1.6712719159846066	-2.0283327051450657	-2.073443884382977	-2.400463336606039	-1.0599346134127896	-1.4121832811941015	-2.4588317809014217	-2.362727636094012	-2.119767660511138	-0.8680813886660017	-0.45191100125657163	-2.967172138352116	-2.5970706874127534	-2.3405344427143757	-1.3795400823095376	-0.2989965669712415	-2.2711651267884423	-2.79018663655592	-2.939025394648766	-1.8590941382200568	-1.405548926619482	-2.549301141024571	-2.4898607668002537	-1.539431448864469	-1.5875438411685339	-1.8594388914845672
48	-2.4192674098923033	-2.2707424106487624	-1.8246469451612757	-2.1048235840107825	-2.56055330583686	-2.470455401859013	-2.2076892797044407	-1.5891510208061999	-2.105613941598509	-2.606334918117513	-2.7692222525298704	-3.0707592886643145	-1.439343210401042	-1.8291991902898581	-3.0078005714770786	-3.106015435959945	-2.9725148602777143	-1.4238911831191927	-0.8822694398539352	-3.4443313988508963	-3.327224007789142	-3.2297017492768174	-2.0360295721147685	-0.5265995250757984	-2.7356433799339848	-3.52153467242917	-3.9191341301197857	-2.6713063649444426	-1.6989926056881781	-3.0270218772757174	-3.1429800907891035	-1.8095686390012247	-1.7848529770610622	-2.18818544789028
52	-2.0011634776135634	-1.9254686783814567	-1.9641466091157136	-2.111436838541205	-2.760029785817239	-2.700577490663997	-2.3271968305959505	-1.6874456363035741	-2.143472189259884	-2.946302406501731	-3.1959667125120146	-3.3548359786209176	-1.579196687525973	-2.017556185396883	-3.3047702229032057	-3.638341894500593	-3.5756313710535754	-1.8539109183234752	-1.238545414658618	-3.689881077033433	-3.8816103837240457	-3.943934669073894	-2.502095931411697	-0.6693535430221114	-3.0249385757367877	-4.123709191401379	-4.70887421372769	-3.3303728019553867	-1.9435843180223036	-3.5137028605440364	-3.7961633109569908	-2.036229366883551	-2.0252952524549803	-2.6096584731017973
56	-0.6575542671768102	-0.7479533534239468	-1.1906828850248206	-1.6517178970596715	-2.494352811237765	-2.42288612707677	-1.8993117761342642	-1.3795438970067937	-1.7324110225807334	-2.895409815153782	-3.180985204294834	-3.124663821914449	-1.4220648968078857	-1.9153118085187948	-3.2541720784997037	-3.817244520086505	-3.804783811499801	-2.060744757217774	-1.3501690592055917	-3.638501634948188	-4.17535637755028	-4.390976417899446	-2.6852321556960264	-0.655709563030314	-3.077956430293482	-4.558604228908111	-5.247742162806633	-3.7293701077717456	-2.117375606913052	-4.03395174915363	-4.460129726593259	-2.2123877946309327	-2.3398797452978157	-3.146140090628537
60	1.163044330521542	0.9824249123564991	0.33802366171371095	-0.8513751008473107	-1.8320257617472602	-1.705806012615251	-1.0349020931818012	-0.7543432693509595	-1.039150593041375	-2.4914970335044964	-2.7608997752101843	-2.4739093718057372	-1.0430606577287687	-1.5959052999258045	-2.916720382955813	-3.644308319427546	-3.6651666071861633	-2.02197741951658	-1.181534048912055	-3.3415658389602076	-4.20906638036434	-4.530174720770661	-2.5705866748758592	-0.47401612877377486	-2.913900129590741	-4.801344859398766	-5.485610471227069	-3.811703433903596	-2.1735036318262737	-4.517969596900108	-5.058432566269213	-2.294761413502549	-2.6690020493832436	-3.7215998078798647
64	2.6936917236983495	2.638922446263997	2.0314049669476115	-0.05376668260827836	-1.0768635245791547	-0.8721148349677689	-0.09311446523999097	-0.08182153830135885	-0.38553497097905615	-1.9627652118718868	-2.182152027342769	-1.6982903437652075	-0.6360864623222587	-1.243216749867161	-2.4952671464863108	-3.272884599051824	-3.293292752534234	-1.8073371603157575	-0.8618206360038911	-2.9549355432292024	-4.065692414509283	-4.381297577286675	-2.2282137814531584	-0.19087126802891485	-2.6234610014482973	-4.829663741315793	-5.375356183785708	-3.582170238987506	-2.0471517988017753	-4.788959014245711	-5.412948117894899	-2.206073516997949	-2.8605670856732703	-4.158517350188009
68	3.1842236438465945	3.4585130127372103	3.083811275325697	0.3072231106154037	-0.6437355263669726	-0.3683200767277808	0.462497024560533	0.28608703541051217	-0.11012626411528753	-1.629035587966243	-1.7928376152550143	-1.1732170552196743	-0.4412970233742812	-1.0740174027983154	-2.245227569633469	-2.9365866110092935	-2.893100492802435	-1.551637049572178	-0.6219132526908369	-2.6658008031297293	-3.858297099862618	-4.003393163110177	-1.7796572401891093	0.07301043700619905	-2.316387885921092	-4.604542720613416	-4.865774619215344	-3.088275901626681	-1.6676692920541882	-4.5992379072418	-5.2744097576489715	-1.8514733267768952	-2.710560553382933	-4.215573300208751
72	2.237743848872945	2.8569972442973954	2.819941990408407	-0.0954354030464595	-0.8620647170236301	-0.5545582757300019	0.27834755111990234	0.07176580261946414	-0.4145094145799902	-1.7458542541294342	-1.8717907619901861	-1.1801035374410571	-0.6364493950033797	-1.240247127262659	-2.3476157129143926	-2.828777544509024	-2.6337845258973305	-1.3917726243166173	-0.6677951199837486	-2.5904536181850752	-3.653841486288853	-3.4537453564229534	-1.3367817368135493	0.20502708800526742	-2.049142832350826	-4.055495251906855	-3.904307355560052	-2.381838077253649	-0.9725688075306143	-3.7087557222189336	-4.3971934207524015	-1.1447908849423225	-2.0351381250497584	-3.662019958787125
76	-0.010489226292413067	0.7145240884860696	1.0135158274810965	-1.3066687550933125	-1.8006801559761805	-1.5160952768195053	-0.7084172350163805	-0.7877623418946057	-1.2608574596996365	-2.3660156667101004	-2.478324168623814	-1.7650287106773979	-1.245274540618191	-1.7501202777545277	-2.8053817678194357	-2.9922327919753675	-2.5605530674182817	-1.3969690764443057	-1.055023429114276	-2.694458716265383	-3.4147016915892783	-2.7504641940292562	-0.9438384151470969	0.1729229684278524	-1.770919795333545	-3.085685245352704	-2.456441157814806	-1.4846630058951409	0.07906892875735562	-1.9786037156694838	-2.636574261684354	-0.0363682470297515	-0.7467411737662101	-2.366522783026569
80	-2.943831436354161	-2.509988063197191	-1.97341131665763	-3.0305433196801568	-3.205534926904361	-2.995811931675804	-2.218417400481188	-2.0898394531892386	-2.380168431948416	-3.290757647789048	-3.403289547910816	-2.704696648444735	-2.110745901500713	-2.4529497561512574	-3.4189388665663736	-3.281332007706644	-2.569752686688268	-1.5297831258297465	-1.6385607678051703	-2.784000151281012	-2.9986696167577005	-1.8668572855545829	-0.5579134807805823	0.06427595003112398	-1.3248188462187527	-1.6088098246963853	-0.5434719310390591	-0.3847285201372812	1.4912705383796792	0.5529656992302691	-0.036920681502586546	1.4631936513198291	1.0941606732400122	-0.3713786890667077
84	-5.711362347488155	-5.908871635777334	-5.301947580302834	-4.726122844207824	-4.588412750103604	-4.487955558889949	-3.738954057790273	-3.4351324948366457	-3.3833713446072227	-4.139297951737998	-4.250319470164971	-3.5999801068014268	-2.949716798964424	-3.093988887604689	-3.857471456325274	-3.421170941298287	-2.4638090071461796	-1.6606510835681842	-2.129112476695431	-2.579797976656192	-2.224989647016108	-0.7643533925785551	-0.07961177805827693	0.06584170444077557	-0.5108343945957347	0.39268085261384655	1.71842956109107	0.9326401329335485	3.2162270464757547	3.6455521491515785	3.129851094926865	3.270822039929224	3.275234214142938	2.082298273551296
88	-7.5564255523635095	-8.467748620588763	-7.980075816033886	-5.829237446372678	-5.433969007124053	-5.455619798237603	-4.745699393688427	-4.392966259355604	-3.925626983268066	-4.51150988393424	-4.613509643350787	-4.054875363602756	-3.4700293453344773	-3.4147789392087122	-3.800041665973444	-3.139506808937521	-2.0598039575070146	-1.6324806172162734	-2.2300405446016223	-1.8449537707478232	-0.9774842833635409	0.553052483592843	0.5818172082516643	0.38434624574897935	0.8133148530453017	2.8144817281236088	4.102656354082707	2.435081475785604	5.144218908673473	6.898187619912852	6.402394755411435	5.234519468443044	5.481252656449254	4.5985736730821
92	-8.081986406902075	-9.476351714050587	-9.256900763982088	-5.998460754508662	-5.427870259886033	-5.56799458051614	-4.929815756748968	-4.6858601451822794	-3.8549706838553917	-4.168213356938431	-4.265963543611802	-3.8546833894682995	-3.494863024470997	-3.2648959077420376	-3.082381955947592	-2.3076953829675744	-1.2956479755114572	-1.3432370390357156	-1.7846487715485773	-0.5075181709827389	0.7066926938334482	1.9952022978953377	1.4449048005817025	1.141494628885276	2.640090220461488	5.412974820775691	6.299456103632756	4.007028092757983	7.105743867100005	9.846018766339922	9.241560912641424	7.153866749821524	7.379721146071365	6.731677515200193
96	-7.34484527640844	-8.805929161727127	-8.901790596421623	-5.2587413655071344	-4.588749873973602	-4.835224139403561	-4.314729679658113	-4.299701202980968	-3.2641475118241274	-3.136666528411855	-3.260822049491215	-3.0520093363953693	-3.0331728381824288	-2.66247486395966	-1.7750189259536886	-1.0144127581734121	-0.27251380613188453	-0.7998777607749974	-0.8528213479444893	1.2864274946158523	2.6156129770998255	3.387759915381665	2.432237380562682	2.299265617287564	4.7788333772168325	7.845988253811389	7.991020659298489	5.458930478618648	8.893390633063925	12.081707923903359	11.184473009481646	8.815938927326854	8.71321103757157	8.120620707036466
100	-5.763055786841284	-6.9174961869112215	-7.245269280260921	-3.970382918824013	-3.240237466260715	-3.576767435580126	-3.2098014273666116	-3.465716830086576	-2.421119445410088	-1.6917328791821542	-1.8965294313231738	-1.9215216588143957	-2.2621900978194027	-1.7773370697924404	-0.15664271970777902	0.46592646719599373	0.790032563599079	-0.11345907272065016	0.319076090245512	3.2155072607872643	4.4244637377611875	4.526400554673011	3.3999771985997205	3.6539957431091423	6.900083524449081	9.76270863929196	8.949314094836794	6.584711058204304	10.299524281247178	13.356406178131344	11.982712715413063	10.03567025511891	9.361420607773377	8.599534013017267
104	-3.90262006728001	-4.604500282106444	-4.978376852817769	-2.6408924989781393	-1.8416877938502463	-2.246885770846934	-2.035454744922006	-2.5290236409231786	-1.6209932524762942	-0.22508956435117522	-0.5681663141210904	-0.8140807727287318	-1.4342452251462738	-0.8500144460198134	1.4035263026087805	1.7941242411138874	1.6612029033681217	0.5598400221041485	1.417574521300424	4.902875887889983	5.814205631835434	5.258541570738351	4.203728188391733	4.907164084442877	8.641117074130543	10.908637972946618	9.113895393249392	7.24120615084613	11.159459085899782	13.624669994287538	11.669027299029748	10.68961903734236	9.351355529063436	8.23781869715805
108	-2.246433252384942	-2.603619092089824	-2.8189134526607598	-1.6744414525671805	-0.7672697286307623	-1.212063309470352	-1.1159789534049582	-1.773274417214807	-1.0370573971314376	0.9309937930443641	0.41713970794264255	0.011697519541055667	-0.7567241768805013	-0.08420338460405347	2.598453276749473	2.716025584039301	2.2116842214057804	1.1000204058530865	2.2046275083193487	6.0579070891974425	6.592405302569643	5.551505074789949	4.764185416590973	5.781486496633619	9.727372144935375	11.202324838965383	8.612582184981395	7.409321766266405	11.386723489622868	13.023044553301613	10.526596042758838	10.73504540594105	8.818181969313379	7.296008568462894
112	-1.0465028259558569	-1.2848288980470124	-1.2237646548845345	-1.1951901882513558	-0.1529158796979623	-0.601573882968324	-0.5530909285886261	-1.2982155051833195	-0.6514729244950205	1.6324197012694666	0.96236383671974	0.48964115853664786	-0.30925211232308003	0.4285509277491134	3.293933144836084	3.1621868530544535	2.4676628050490472	1.478967186054785	2.6078364783249035	6.570919497112415	6.755710107912954	5.505512223648746	5.092346178549311	6.12531326654801	10.054183934576564	10.747865649744131	7.708022098153861	7.198179226821462	10.987147303497913	11.796585053224298	8.97200009941819	10.209051106426772	7.93842933557873	6.115803226288818
116	-0.2964226894047266	-0.5703794345760131	-0.276565491454907	-1.0301330063560734	0.11898955672739701	-0.2993589632105609	-0.23539709985428786	-1.009344813659535	-0.2954851679494215	1.947894687502998	1.1854219406716482	0.7347965221926687	-0.03565629935202934	0.7255365234176776	3.5506057649613636	3.252194157972471	2.579913132829607	1.7589349702295263	2.7187364032768415	6.524295790412502	6.4687099293467885	5.302435861551602	5.260810838768511	5.958537563538902	9.699010824511374	9.781169866662342	6.692203027995169	6.785802347216861	10.049369786639499	10.210353825539695	7.403640728377916	9.212114310848092	6.86828039342586	4.9946279399654605
120	0.18766234767740508	-0.10250681612837168	0.22425113561755902	-0.8487113692790237	0.30447289270776606	-0.06328636391873901	0.04139121611396875	-0.7133507710566285	0.22829344811021418	2.0795769638963013	1.3180538382631153	0.9416404342719089	0.19561266849721434	0.9275740957682995	3.556785812934652	3.210536471844126	2.730218165180226	2.037718767743438	2.7088024547850766	6.124987109932623	5.976852401902086	5.117712007953043	5.339741693366593	5.440962300868604	8.86740396168178	8.579094865119652	5.778592095090633	6.326066478016255	8.719541527667891	8.485040643250183	6.081712707423471	7.885486106037106	5.715156063909241	4.101284493582019
124	0.6254908426705128	0.4552604246566235	0.553318975958961	-0.37657618427567696	0.6272444113153774	0.3076047293526147	0.4246735562092965	-0.25908666783723255	1.0085518334674453	2.2328495922935048	1.5633866747485068	1.257348772689147	0.49956759684318996	1.1560825080293533	3.515707007114904	3.2450439848032673	3.0287771148506315	2.3707804620014152	2.719610445785621	5.599915490317139	5.500762448727877	5.040785299925829	5.335985170243752	4.783816325507474	7.804645041788086	7.3736953549183655	5.0403346888124645	5.868535503829612	7.170081597345282	6.775836927472734	5.083869444409337	6.3881950217131545	4.545993316616952	3.460071793403441
128	1.151105043366017	1.1808537214983061	0.8637521245129611	0.44081982858941426	1.1578706473681004	0.8619520046406444	0.9199309325834035	0.36242976693201395	1.9564601133541752	2.514880412428003	1.9969159314283036	1.7065345005818564	0.9062335468300222	1.4665369950461293	3.553915968505252	3.457520237776338	3.46207093318416	2.720932238384823	2.793494694332602	5.112754808868878	5.167031751938629	5.048058973918694	5.1734528410947815	4.155739296911332	6.719763738832567	6.309803946776796	4.422879684725636	5.336210237381857	5.574467168085247	5.191975580458417	4.346281517499595	4.8794193144628775	3.418226233435238	2.9997787399848805
132	1.7631765559503236	1.8623280478188255	1.1250445814338275	1.418056126828993	1.8074531509541976	1.501641150497966	1.4170068466650163	1.018246528915686	2.844325773687298	2.9136545584548865	2.56193422624353	2.206700081022246	1.3541290725851811	1.8284339858621637	3.694139232845436	3.829884519444241	3.9187421699767326	2.968501321927252	2.876987211593117	4.736679065189472	5.003245817903907	5.04239939370227	4.7304687380567145	3.627393236538734	5.750400528694525	5.45581100993756	3.820521821866561	4.575679290663096	4.090179433032665	3.831866969924465	3.7579290771973217	3.504360905382686	2.4065923630035284	2.630485528026631
136	2.357718223341157	2.1805865709563403	1.2123432128815104	2.2565059604893936	2.4268345771553026	2.088319534751304	1.8009121372530608	1.528890486671844	3.4302754315554513	3.3574380789866627	3.150486461314585	2.6558682851494355	1.7430301860671062	2.1601321642697013	3.8977298638164046	4.2833104025462765	4.274419296916869	2.9789950772413336	2.884650223124673	4.485066402555691	4.987664686961801	4.935328947958193	3.9162955185241697	3.1762604633247076	4.972875105700313	4.848904597437868	3.1741588035552333	3.4553167732738443	2.8474681305519227	2.805588715145573	3.2547562040170277	2.381004089066057	1.60460447859952	2.3040490092280015
140	2.8142099309441195	1.9750245759690477	1.066739318061747	2.7330386569638763	2.9373996183619773	2.5711135799343436	2.0651080556228956	1.7934584572334273	3.5960135369109287	3.805316200185591	3.7084875013181215	3.0287837905708295	2.0069363066547745	2.3956391750886774	4.139097680132059	4.7645306466926405	4.481556404243019	2.6910955837970674	2.778048031468769	4.368424881396325	5.113686071836498	4.723468291754809	2.7443091800067103	2.7410979201728987	4.4369554407630964	4.539829719525581	2.538107865601171	1.9628938386949872	1.941993946894422	2.229595178696985	2.869455568698314	1.589675541678899	1.1014823885764462	2.035225863086646
144	3.082453958358299	1.4059609139231293	0.8086407760231061	2.837780468451748	3.4008517179456574	3.045373193681411	2.347802871498515	1.8657571030240963	3.4184846791743317	4.2999629865801605	4.291305054320525	3.4160694989741307	2.1614334528711523	2.5365142758224795	4.454317558486595	5.299009309741405	4.6090397718410765	2.172697777030945	2.6063055926323573	4.431231964367635	5.423314557688062	4.513645160723282	1.3608186210607232	2.285337442350195	4.191478241828423	4.604603278932355	2.079437012190722	0.2499297999986037	1.4266022407753118	2.1947371904274493	2.717022412116008	1.165442225374802	0.9476383304512237	1.8809874010279408
148	3.222406140774729	0.9068448520652952	0.718833861920318	2.779572241441117	3.9836900133643907	3.7027277852987277	2.86406778566138	1.9331353854009796	3.1348390500076557	4.947223650839539	5.033504473375607	3.9795482058186953	2.296783441466804	2.6591110162356086	4.9310264462905895	5.977092727829214	4.808125960608452	1.6098003346807621	2.485814565104537	4.743306624834605	5.988647445817619	4.48083638013595	0.010415162864853762	1.8324719621169223	4.2819051634446	5.115167128046138	2.0109696337472527	-1.4013456070805337	1.304350253626693	2.7264800002879306	2.9315421507253987	1.096353289697184	1.1302947969509676	1.9001958322233408
152	3.376497021733343	0.9519857144162303	1.0969586344679945	2.8621368335941115	4.840728270706803	4.703509318874292	3.7739450836266117	2.210578912875856	3.023735754008257	5.836900219485655	6.052245124795234	4.850080954704185	2.522660725900181	2.8779318260011326	5.646794781733204	6.88340662172019	5.224599825065989	1.2277246682641239	2.5354642804027674	5.35292004187458	6.854346734861186	4.780385005325708	-1.0479929420714793	1.4569886886050876	4.723054873939691	6.087143882641693	2.4920968946480015	-2.6746549538794695	1.5284931621107745	3.760055770917538	3.5912525563168702	1.3305568661475027	1.5749646385483158	2.1206817573411056
156	3.6893401052788173	1.7751856997493491	2.078952068802054	3.302936545615965	5.989660724776242	6.0486430969112615	5.063710676760037	2.8096599507920326	3.2664093888783534	6.9532413307113545	7.342448216020205	6.026949390453582	2.897571556405038	3.2814354813697126	6.592495424792316	8.01218030814033	5.906008705486711	1.1819105118475057	2.8041171956790736	6.22983120299067	7.976140002140014	5.459575162454912	-1.6361051756559137	1.237691280101143	5.464148507627691	7.434698562924747	3.544689169517317	-3.336955062070604	2.01049971072903	5.142668234238911	4.667438018458772	1.788603301300861	2.17039441514406	2.5272467072576212
160	4.217473019442236	3.2124028124766206	3.521985045123956	4.100425709862264	7.259718876629468	7.533725242667405	6.514780028107426	3.6589426901944306	3.859664668828892	8.137235620934947	8.732016541369305	7.340954762044484	3.3834543142725404	3.8716194531920194	7.632785777848209	9.224163032131148	6.757795316800512	1.4755341969429692	3.234993688045195	7.237324219550999	9.196975684787681	6.416482909214977	-1.7177188353085626	1.2048243253806574	6.372781737450312	8.962678886673169	5.02552221936744	-3.3217792427119464	2.63611411382785	6.663311464652586	6.019499763549782	2.376770728786218	2.803264134005202	3.0704598349297187
164	4.880648600653621	4.772921073307199	5.037018763222692	5.026418673222599	8.351634958162196	8.818992592480278	7.783997516052862	4.524728763600572	4.6259221913846345	9.131976104568489	9.929912542068053	8.507178285101029	3.852699985313761	4.544783103912488	8.535467126277165	10.276559803766094	7.573741893719936	1.949884648168445	3.6853809263642527	8.157088259129454	10.280722592146699	7.428764324505892	-1.4007894957461835	1.3126312461137202	7.254797440332079	10.406867954682216	6.667371733044434	-2.7437004973758006	3.28677987222536	8.099005678709691	7.434212665861765	2.9994089527696275	3.3856317911499776	3.683563223121772
168	5.474972234254416	5.8814277500434	6.14658735630753	5.7370657775990415	8.97025869012083	9.572938894898035	8.547142960903448	5.115931498008807	5.300027357071598	9.686064695698846	10.640791866139955	9.237488723320649	4.141324032818088	5.118807779739827	9.057434059163427	10.911864253150874	8.12225530481066	2.35369109513172	3.9855198759543753	8.75841615372941	10.989422770411114	8.237269380753187	-0.8830062128661437	1.4529019557510257	7.9058007994367445	11.507033319031029	8.167271593454329	-1.8419254971730104	3.861004819658638	9.261314368707273	8.68862531375669	3.569373598623696	3.865163554923407	4.294604290609803
172	5.7516217086536	6.153861030300397	6.484990580398213	5.940470680497358	8.956734634674017	9.613256430196634	8.631513573788578	5.217699037729896	5.645792946866348	9.661678289815592	10.688265773490798	9.357425666072038	4.120385636417095	5.396639810288368	9.046107269336067	10.962964983917853	8.245466211482004	2.4593076643841068	4.008778561961327	8.882164932713849	11.170217485835998	8.64634702406851	-0.36718574073592425	1.5047416649020644	8.17609689555607	12.085048645025294	9.285068488520347	-0.8802979566283219	4.293424595483387	10.03349969238025	9.614011740253321	4.021007527689728	4.223523606127399	4.835513102720702
176	5.527475819937288	5.5509209492726255	5.936195358547704	5.52981279884374	8.348582246683087	8.971720672844189	8.070833185799863	4.783188807808863	5.5435256818047245	9.090238548216346	10.083876584342905	8.869892097967004	3.7495667839750264	5.2401556836387755	8.504606225476175	10.421770069512755	7.92211149122906	2.1680896227457045	3.7183203603326027	8.50154016255667	10.811351748827008	8.595159508938957	0.014626878276790909	1.39477073794125	8.022994021186758	12.097538917515733	9.913207029109742	-0.04858425247323804	4.570023525143928	10.392787907110343	10.14071271243427	4.327576149504829	4.473225582273086	5.255277143561535
180	4.771585929267601	4.335551250955641	4.647584426589952	4.616818416383205	7.341523151935627	7.856406192017508	7.063421231556224	3.940458049362213	5.015576826783907	8.150003412650758	9.010979629654248	7.940195540408256	3.0905713957004752	4.624711501843013	7.590018730074106	9.43984601498504	7.267810803183745	1.5541388949256638	3.1746261039690924	7.733566741491467	10.04339787808524	8.171576479307717	0.23877426921641257	1.1383217544426032	7.529287319247213	11.643817872213514	10.094747517848173	0.5947626814131025	4.735541331732873	10.414386722973779	10.31270501394095	4.517689216651792	4.658424365680015	5.539658532461461
184	3.618767729205775	2.8807477878317913	2.933341495737335	3.4589478882243934	6.183706744794136	6.54261635082157	5.866654858082407	2.918444626115522	4.191901196386682	7.0811462223562	7.738464812768163	6.816754800751995	2.277081960651067	3.6551215556368173	6.545623762770764	8.263390520213605	6.478077872133195	0.8266565182795617	2.506306403508	6.795481664666789	9.086038566537496	7.5671844291368835	0.37869381808991054	0.8399701693308478	6.878313524046281	10.926386805604443	9.989228223375815	1.120354768785451	4.887609946308653	10.253741238455053	10.269239399731843	4.67958973656774	4.855935561317822	5.730962738826609
188	2.3083825053108105	1.4614700042065663	1.136340376845982	2.333855861493445	5.070053564622441	5.260255800317764	4.692480552270057	1.9411417196855751	3.24719833507859	6.088587745553086	6.51476333880693	5.73391960603716	1.463962789654069	2.5345203812504873	5.60444258228569	7.1381668864273236	5.7482724044628375	0.2336435312094232	1.8641200018548287	5.927837356859821	8.167106607798006	6.9998650374112685	0.5573000297781028	0.6529276354517359	6.29531286557559	10.181622479481863	9.807240461384117	1.6751310783054907	5.153830992084263	10.107138608209956	10.19949338245188	4.94333504382421	5.166068540881492	5.93068502836142
192	1.0784591409157633	0.15912911255714568	-0.48090252158819075	1.4263200723876575	4.08879612844021	4.1322331324198975	3.653408994987455	1.1452860803298661	2.342610353277372	5.277255521801943	5.491626248799771	4.84121655195557	0.7790583352446757	1.49761867145081	4.906022536289021	6.226971610560146	5.207644926274568	-0.04477965075392757	1.3747194970708538	5.312520490584978	7.446821670804296	6.6380786728156576	0.8876777864932651	0.7126221638807336	5.9724678842434775	9.604397749493902	9.739517187324145	2.4049246250469234	5.650759682693653	10.154199574582837	10.280760739119257	5.436799035650844	5.683561310723629	6.269124968913192
196	0.06584427489107501	-1.0877819033815443	-1.7755212738985873	0.7798894028046807	3.237518779210084	3.1824302592991205	2.772836201342767	0.5567798600444613	1.587049003408858	4.6461453320501285	4.706316459217547	4.183358181881884	0.2937233440612763	0.7323468309032298	4.464516628437652	5.574054227107286	4.893832671207493	0.038258973412478636	1.1056667538384037	5.020126806935994	6.978016835714721	6.557714922560793	1.4289871418160434	1.075314280656064	6.006698116395825	9.294777846711165	9.906414006971131	3.387996665030115	6.437536700207964	10.499642345622298	10.620260211833882	6.229719146258776	6.454783900176626	6.8477086847986
200	-0.7348561268372936	-2.3460905492677306	-2.700878136491485	0.3248607210063589	2.479846232828956	2.386883729630436	2.033771748176377	0.12559455601453876	1.0257099840970378	4.129781712595764	4.114709843737333	3.7257194424977595	0.02017883765073161	0.3183661989280294	4.194030274292683	5.122792231023713	4.76977299439669	0.3988450755539871	1.0520262691639573	5.003913866760863	6.713513357378622	6.74258993353812	2.173826450581562	1.6907185273399277	6.373321517112035	9.244642234349952	10.341063473342007	4.605610359007938	7.483750324428101	11.137850733293204	11.221922846118051	7.2923550421659655	7.442291717812803	7.677832107232769
204	-1.4364941083879714	-3.57200287870739	-3.263617030486966	-0.05092521744030055	1.7954586698977497	1.7225719646832114	1.422622915490864	-0.215222447567196	0.647283314024336	3.6538424399631673	3.643868675568793	3.3988680753725404	-0.07461538146969152	0.20748595840997858	3.969132651798361	4.767706382158255	4.763886916530692	0.8826249815591227	1.144178387614157	5.136589514161485	6.550336821230544	7.117563706547702	3.063713781251072	2.421512597646034	6.944853288282581	9.365391707616865	11.003419848317668	5.955726131661235	8.669991471335473	11.958493202534758	11.992141693355565	8.493084886088761	8.520503022616216	8.65217874249861
208	-2.168773168810263	-4.598294723345256	-3.4998781592697363	-0.4313467134075668	1.1943318813687571	1.1843304604192768	0.942553339008984	-0.503297327678271	0.3990174819885646	3.1766066471006886	3.234467021405289	3.137742511456624	-0.04875656950084864	0.2540971332333596	3.6923665907142915	4.414879310905503	4.810939299834747	1.3466333116864424	1.276574489231488	5.27595614054912	6.390654547768957	7.594526748556376	4.020314683300609	3.103660575660104	7.551265220650464	9.545672392586505	11.81467625496085	7.299522858309978	9.829277967431993	12.798279729955516	12.786414114140747	9.645055746522598	9.515860533530914	9.574748968746004
212	-2.983199350454596	-5.228563295514967	-3.4758517654400163	-0.8350306728261374	0.6964574438631045	0.7695097903850554	0.5969364031979281	-0.7360601406587166	0.20793247170402487	2.7009208134170364	2.857364885745442	2.901266805953204	0.03407861656287219	0.28564059662227165	3.337865105784737	4.0245394605116225	4.87535237035083	1.7179841951864327	1.3515891994684246	5.330650316131245	6.192326053244053	8.108766535313466	4.974674212293671	3.6204974559927896	8.056745508833478	9.71304604939049	12.694899526969456	8.517190911723699	10.814789744728973	13.518343891345538	13.478202785795029	10.584732982614497	10.278331730641504	10.244787190320922
216	-3.802385082181517	-5.362700925638949	-3.2919695294235614	-1.22047125985043	0.3072995535721352	0.45803916338671413	0.36850309278910154	-0.8912608004956019	0.010129024249073908	2.264715188984292	2.510729544976325	2.675894253650511	0.12059537290881713	0.18535861326149142	2.959113351980251	3.624202242284095	4.9541640156596625	2.0046246001176424	1.3244584765373504	5.300611482588923	5.990343555585065	8.63399694170223	5.882275566508545	3.9562892813931656	8.420962312418313	9.87292668710939	13.589935268423087	9.548683142395799	11.564063996682451	14.071445429560907	14.01861854828559	11.245620699146599	10.750700923479648	10.55523965077978
220	-4.441038597338481	-5.063588606447845	-3.064995519529086	-1.518066044789383	0.01543506417251798	0.21325716322462368	0.21893985514200082	-0.9558517312712461	-0.21873301212399124	1.9243047188812217	2.211209291597409	2.4724645552200295	0.17946457817543554	-0.05121725784722084	2.6633040837756816	3.293374768525238	5.066484438502302	2.2625787201023573	1.2322069375399165	5.2749805317259	5.881699070385733	9.175679183681781	6.721347315030962	4.202157009959421	8.715094544341717	10.106075261349847	14.479557954470462	10.403732273537788	12.125543563746296	14.523201905776288	14.45701118633891	11.687635392244488	10.997240992437272	10.553049060880527
224	-4.692082393243963	-4.521525371579851	-2.8848655151010583	-1.6693849521450714	-0.1859072293117802	0.005894384797681767	0.110655441600848	-0.9432795023944491	-0.44626474267822147	1.7376713708874598	1.9862363288322813	2.319616550311134	0.20525790699157737	-0.3156496576446048	2.5634872848638763	3.127166263314381	5.236694322716118	2.544642680419267	1.1860498159981268	5.385869489423227	5.978780254527834	9.749513601483477	7.4787378122337245	4.507889259401145	9.08078477474168	10.522636387007116	15.36555095607876	11.138210268509582	12.628533331458303	15.011544189699592	14.908465347796755	12.061784713809617	11.17062565844239	10.422519657523559
228	-4.428664196277194	-3.9436314006420425	-2.7716741491911603	-1.6531509119257435	-0.2733882062685319	-0.1565482612472097	0.03658470502199712	-0.8872852303037655	-0.5956780299406071	1.74994194065781	1.8685722303897305	2.2560343685411213	0.2151880258849251	-0.44532000906091673	2.729626887105547	3.194865457097925	5.480978475083979	2.862976543827587	1.3217294182785546	5.739346012883812	6.353170855694405	10.35985657937366	8.137063959558427	5.00079201389399	9.650449728442574	11.195574732170902	16.24986262987148	11.811254471522222	13.209660496739145	15.664327581911335	15.48449607754359	12.52654072459911	11.431900949225604	10.394131634218766
232	-3.673844566606392	-3.4495828064609286	-2.6667671136283886	-1.4912604055900929	-0.19431523929650293	-0.22415149155290734	0.03136977917976537	-0.8198257664009031	-0.5851975664622765	1.9769611308729107	1.8867906284379108	2.3176710547105768	0.23975498913790957	-0.3115878693343184	3.1550927082511975	3.5081736952900515	5.800290093082726	3.186239949764966	1.7296642021378394	6.354321940591401	6.9946555914710515	10.988878222377819	8.672231652299056	5.711759076002779	10.467195484437129	12.107302635142448	17.115911440551127	12.44606014924078	13.933063471902475	16.518732029217063	16.224021870659374	13.158686604655928	11.86477085932656	10.625226947661185
236	-2.6063122683525553	-3.038658849673705	-2.47560762734039	-1.2404483525429126	0.0947370899311953	-0.13680483366281784	0.14816835485242758	-0.7530546169341691	-0.37705892229249405	2.3863890110800496	2.0471839853098728	2.5177862580627566	0.306926786124651	0.10485143933049804	3.749432077478174	4.008265485180395	6.176547034881792	3.4646921070361847	2.39657949796228	7.138956528759315	7.803265551892887	11.597732514663853	9.060485816968223	6.547194464365919	11.446017236421408	13.137556042880664	17.9208316350521	13.011105504564668	14.746862374266774	17.486032441813926	17.060352282366203	13.906251872238721	12.429556815237039	11.11518380219809
240	-1.493326183363503	-2.6403410368060696	-2.1374335235036455	-0.9710180734914082	0.5762367233986577	0.1254119720868915	0.41680601133971007	-0.6743458492419594	-0.006456548331767974	2.8905687259173476	2.317713254798971	2.8317611146003685	0.4299719024769711	0.6952927095024892	4.365346420710737	4.580982196686085	6.574803335756174	3.665302505775908	3.1917755523205695	7.921608428028426	8.622258164571223	12.139221160757662	9.29199788608586	7.324217300996654	12.401938407103643	14.104010546361012	18.603893233058983	13.43247124141586	15.502869566877083	18.38475413449116	17.84479899669426	14.61139198428898	12.983530965449717	11.703391999260369
244	-0.5873908981751836	-2.2057025376898034	-1.6783244567459144	-0.7412590365768346	1.1443045110421832	0.5073423372810955	0.8097078183711811	-0.5577855096085726	0.4313766945438131	3.3627264414763625	2.627241366428987	3.19709562448121	0.6032427534131767	1.276119228955843	4.8506474372467006	5.096370684154385	6.950924855802652	3.793137302358674	3.915166844973552	8.523645379480842	9.298636412985601	12.574267355643164	9.381015753903103	7.855620364382774	13.134064641217115	14.838428459851023	19.107027005592403	13.63203331366592	16.031526525076043	19.02701373064793	18.4164084923214	15.092765769999898	13.357940640102568	12.15516278059046
248	-0.0338131635527449	-1.7633243754689933	-1.2084645002371894	-0.5758408293490591	1.631342764550384	0.889182148118953	1.2418575255511346	-0.38338497184279124	0.830226896097238	3.6790735628700455	2.8880119250815177	3.533819904942098	0.8075441101666525	1.6829359488912539	5.106284605485556	5.457887158919134	7.263120156070343	3.8850190541408547	4.38936756933173	8.840646721453927	9.743894552425399	12.883323636906328	9.363766646585812	8.042920092303442	13.523913349339288	15.260354003524533	19.39644236435877	13.571143116065747	16.231956440951844	19.311328839183034	18.67993731550859	15.242553672453752	13.448740925212674	12.288881270853441
252	0.1756858076189894	-1.3966293299699437	-0.8566646554299031	-0.4560717630792576	1.8875296068219702	1.146292445149713	1.612070317966657	-0.15024141929364287	1.1320650548963271	3.775057544713891	3.0370180530164705	3.7807402515324293	1.0212609742129457	1.8554600430372765	5.128954874440771	5.6418289995802136	7.485650043661585	3.982795943695017	4.548552978475724	8.89254758497035	9.96704575883221	13.068895306970031	9.284467673702528	7.927396277440082	13.596009220128943	15.410107573703081	19.47398753017861	13.275689091543143	16.12633319597926	19.270793866140846	18.648862791661266	15.083893737856771	13.270271267765317	12.072505920447586
256	0.18049955322470235	-1.1677274674497207	-0.6819031817385955	-0.3286643616007748	1.8668365431382532	1.222000715031505	1.8585715246959857	0.12217108129412106	1.3549576963547565	3.682137241603766	3.0712551993075934	3.9250898262107063	1.228702065226683	1.8643531752246014	5.012049185496427	5.7033629273423365	7.6152868078606515	4.10325001634317	4.475342739250162	8.810559250521589	10.059434865349438	13.145861592481277	9.174115157806824	7.669194678970885	13.501917804961227	15.419333419016702	19.370525311201547	12.82796570400166	15.84544654660298	19.047538709233805	18.428293181622447	14.754983864724785	12.941427198160998	11.635298699566565
260	0.17307603315524914	-1.047195431926398	-0.620929299217369	-0.13004912403174207	1.6637062984423676	1.1662938565372025	1.993586654398135	0.4047949005874119	1.567114230014059	3.5182766825539726	3.0524513644399076	4.006381978410248	1.4221545421934014	1.8607163382281682	4.899918067005117	5.742180332945015	7.665913085656416	4.2251696479933605	4.3593902477826605	8.76449105910958	10.136859868205716	13.125054326298459	9.034290290911313	7.463307838670387	13.43305584377034	15.43227191843472	19.12508959709953	12.329961745603237	15.551727255657537	18.806972456179068	18.148628189042398	14.428038560679639	12.612989393814443	11.18954464948349
264	0.30363416595092674	-0.9103502012156858	-0.5168214427297277	0.17940424337391397	1.46763014422855	1.1086125345850557	2.0905241913466894	0.6705813987013844	1.8285810901250978	3.4271931561726086	3.0702543181150523	4.086839188747885	1.5944248397626113	1.9792264649965248	4.912375437731722	5.84062908605339	7.650597076173601	4.298103321667863	4.394011963240903	8.865431763200432	10.2663888672073	12.997040715781818	8.834280945407986	7.434349041288667	13.506403888934276	15.517676314276223	18.758352232302798	11.85204884397782	15.34122272432866	18.638156843812318	17.885080292368926	14.207212412250353	12.377171485169104	10.90409752953767
268	0.6106676443894563	-0.615140555736043	-0.2192690068907807	0.5885786995332687	1.4554455243557487	1.175566074264342	2.2279615345971058	0.8992261267846955	2.1370789950774167	3.4954478652440564	3.180811397151108	4.202736367105175	1.7294292406287282	2.2538192215282815	5.076021658479443	6.006161197757043	7.559964637742758	4.265319336612696	4.665792930267124	9.095585800094936	10.417113277837501	12.725485769568014	8.523819901880302	7.5666117477113275	13.686719859853534	15.62007518639318	18.256010009449998	11.39576813681683	15.182013473326816	18.498090697315366	17.6102809461389	14.064504587903626	12.212267844838374	10.803409549140028
272	1.0090881560597802	-0.11245131464223518	0.3035137943711067	1.032058832423904	1.6820185142011874	1.4022220337750984	2.4257299838811135	1.0746896239803951	2.414934390646651	3.6938338186463784	3.357035866844734	4.326068390414397	1.799473042713237	2.5940463477444857	5.300028310745912	6.15142773028823	7.35233448079627	4.089054574179303	5.097708689216925	9.305725074161552	10.464001629159549	12.2573766398905	8.057591417949995	7.709662417973939	13.792552913175198	15.580612143279923	17.57481189105267	10.894494982870022	14.92771907852207	18.23395533726447	17.209615663947357	13.852888072324625	11.995635002367742	10.751487704788696
276	1.3322985138634424	0.485018192497218	0.9087228752081367	1.410072799937223	2.0333232828302195	1.690227623486797	2.6124424868429377	1.1770750254476658	2.552015536540789	3.878580560428473	3.4816510589434406	4.360827911811013	1.7712393954380234	2.8383009362086127	5.412923322362735	6.126352771550269	6.963994485438844	3.763148775136414	5.482229218946788	9.286213851371459	10.24582192695161	11.54740616743984	7.41978023563087	7.659025172923562	13.58824249651574	15.219206771572756	16.67002864443566	10.253480885367333	14.402461969252514	17.672950700008997	16.552095371417984	13.391796078249511	11.578846902223741	10.53209206783041
280	1.4085242712698678	0.9289628243834152	1.3231279816600334	1.6246014792433072	2.275184625603367	1.843526716346214	2.6488742761491495	1.178259488945652	2.473291867687423	3.8585297963952336	3.3940052900454623	4.182116497925057	1.6185376603270374	2.8510918545265387	5.245870100128254	5.790370449705671	6.339570029465316	3.309728137243105	5.587250695427239	8.87606618547583	9.649841284230243	10.587708446474172	6.63803861849447	7.267168980370424	12.913381543934932	14.435965501577593	15.53267284286385	9.410521483503901	13.509423221812396	16.730165439327777	15.577848395117956	12.576577154831668	10.880401583857752	9.979202245312749
284	1.137420651425164	0.9505746936640249	1.2737439838675406	1.61455034802021	2.17682527946193	1.6683056312402036	2.399172061584885	1.047077057102173	2.1901128236788705	3.4975366504102916	2.9716384335831494	3.7012789155971855	1.3350533213287163	2.6049294405972576	4.723841178411583	5.090077864193466	5.470748410717717	2.76831650035015	5.2789201603170275	8.055020311999455	8.680891968744476	9.43018147948698	5.78091906041679	6.5264382197589	11.781850785073022	13.279336895794186	14.21880813823426	8.386541345403167	12.303345649173854	15.475603064565554	14.354223215101843	11.452073068315299	9.944834684059186	9.084108329725964
288	0.5386636243571682	0.40661322967866154	0.6384575350854373	1.3779973948973558	1.6420041281251512	1.0836002799332396	1.8125392152800406	0.7657340745666462	1.803257222391183	2.7969176698641207	2.204025501408637	2.9237012789342818	0.9414022541119879	2.196549171624046	3.9166214367209786	4.101277341024665	4.423699844635675	2.187209123811324	4.5961675527878825	6.969234925794265	7.478054027750588	8.189294794387495	4.940325247689231	5.580330834604867	10.395531628111716	11.94348904455262	12.853991476030679	7.297090988809282	10.984931918066493	14.122116053212272	13.06797215023408	10.209052060101087	8.935173012108825	8.018548945209211
292	-0.25057554181730873	-0.6299203618358125	-0.47180375337691	0.9721941327345022	0.7705233673669019	0.17695452228215275	0.9664981936848571	0.34903314621540993	1.4438143932129344	1.9090626191577413	1.2143218486644787	1.9648219297393137	0.4836106288144009	1.7855011179667135	3.019836418156896	3.009167186769038	3.336538067976808	1.6200927455053011	3.7342650796069212	5.874667629668623	6.267078383835352	7.019455892006581	4.20683525930674	4.65623234526929	9.062120414742415	10.693475696268171	11.606157273553714	6.315973265914052	9.816519712459323	12.938668218370601	11.95552918276685	9.102911926175071	8.061345080049891	7.059790116605675
296	-1.0329906914379696	-1.8926941108601396	-1.7491979554836021	0.49025538439950744	-0.18650174093843014	-0.8293217995686089	0.042821127813229894	-0.14843718670084705	1.1961476772626103	1.0707346173909542	0.2127555603377828	1.0109611724124732	0.022548960464886556	1.4969469271058873	2.2715442123282568	2.033319706551542	2.38146924371271	1.1244033546669527	2.947806350894907	5.0255441538766625	5.270247446105525	6.07161615746117	3.6462185290784848	3.9579040904253437	8.058836916604076	9.754372572113299	10.633303615426438	5.604963765298289	9.00293252579273	12.132548301582615	11.204117746675701	8.33715341370413	7.482778530302136	6.45631025591618
300	-1.6313196379482695	-3.0393752975020965	-2.8230326104414973	0.03232937670532342	-0.9500668620918208	-1.680647726584104	-0.7488691191839637	-0.6397290213645758	1.0553353998242427	0.4916409837707803	-0.5936529025348314	0.24603696105350664	-0.37874460124713094	1.350742694305462	1.844948406329807	1.3363223042127805	1.7076392130653344	0.7557051162713493	2.426707976890119	4.563708770673788	4.618579376004003	5.4458541732622585	3.285460463811943	3.574839582954378	7.511901359665864	9.219655967323192	10.02676389070048	5.24336956607695	8.599816300614211	11.760011643282457	10.872178050248143	7.972337702650102	7.236429196207312	6.306070788674649
304	-1.9521697710340746	-3.795394172622751	-3.422061196270404	-0.31753575721679295	-1.3443713154229273	-2.2045524064671214	-1.2596291271832065	-1.0282593939569342	0.9443899965284558	0.26139587097929057	-1.0866570445281831	-0.21859130208139554	-0.6659814698571022	1.2602081267010927	1.7765152409523524	0.9644679402796437	1.390894409482714	0.5548837766942984	2.2177796307837014	4.469494808356724	4.312013138374688	5.16157816537403	3.1127905767051685	3.4584851177635256	7.3583555035777	9.027169204808686	9.777820562471579	5.195461260076081	8.500842072958823	11.713632554044084	10.8711328232	7.910757998520908	7.2290668305032435	6.51418827319559
308	-2.0048186728405413	-4.0483641522239315	-3.479697457111215	-0.5053743111248704	-1.3645355666995322	-2.3759310185527425	-1.4560595714046745	-1.238700029106775	0.7846099714496838	0.3231056324430563	-1.2738461462284276	-0.37669712209962086	-0.8014710525304657	1.1066282959654925	1.963661546517756	0.8493688085092365	1.413291689165546	0.5317867980882146	2.228774780368368	4.594599235378512	4.244644631159523	5.158248888343861	3.0894043367587196	3.4724609764165946	7.405113678355887	9.011057830947996	9.783660863970505	5.332050786861352	8.507000901678627	11.788506478110417	11.014254542199005	7.960697153973437	7.29387662953395	6.848497373456277
312	-1.8738940906897097	-3.8546228311493604	-3.129646770205091	-0.5114405738315699	-1.1485471696465839	-2.301080221088524	-1.4132021629893194	-1.2418011395573194	0.570960103023949	0.5241328464626415	-1.2603517738946388	-0.3073810033190151	-0.769602177584224	0.8355517366294484	2.23068928155372	0.8658484794690636	1.6817655520893993	0.657187698612367	2.3061501921603185	4.754702556049729	4.277700890231338	5.327038274666976	3.1675491253034886	3.482950201777685	7.447611313136286	8.99878976457272	9.891258214773067	5.495273576213658	8.43754289404149	11.789385765827923	11.106116266820592	7.942389945004766	7.278542977076326	7.061530095391565
316	-1.6619132715227614	-3.3702804957175445	-2.604553454498964	-0.3486841014164865	-0.8783966876740767	-2.1374826377308165	-1.2564533917175917	-1.063097831903033	0.39517107506163035	0.7109205108813372	-1.1756355732799744	-0.11904268681749955	-0.582596062142978	0.5106638061028181	2.4252006946368447	0.9106482244388103	2.0749542660777722	0.8710259773197612	2.338376516160376	4.830072390759341	4.319029320302775	5.559163079531357	3.3067963039832953	3.4365663441677423	7.381709557016051	8.901581741746858	9.961065267209126	5.5725355007622435	8.221992471917245	11.622986764172845	11.02838036613795	7.778004626663695	7.117063504370009	7.011159879149109
320	-1.4358259403217264	-2.758731835075887	-2.1024215168323988	-0.05944384992015682	-0.6748946888096655	-2.0014150092138805	-1.0900586815969264	-0.7717534880226706	0.39401617546737827	0.810454366545108	-1.100546953283703	0.10770054879414899	-0.2818026535548741	0.28681340741223355	2.4906728204786233	0.9557914113708857	2.493275636100104	1.1069908114141012	2.3199558199483388	4.818393218272959	4.36506794781105	5.787958130528412	3.4828407676501536	3.3824503336384786	7.247549515545691	8.750336624941216	9.92219636319349	5.5431895116090395	7.924340704938031	11.328188867578271	10.780950519045366	7.51852510461374	6.849662286630826	6.7180490324159985
324	-1.207904931833451	-2.1336331313623615	-1.698818321707295	0.2893000833836622	-0.549800334972819	-1.9184402178965774	-0.9531632041707953	-0.4554773557607358	0.6531555636127816	0.8512195923294843	-1.0367373201898018	0.3465458145928904	0.06785384548460363	0.3131590477666309	2.476866715853446	1.047700283266371	2.887912266115705	1.3204722371141262	2.3400576055573765	4.814643370870317	4.48491715252555	6.005560382939224	3.687400331724145	3.4282500657310973	7.184955101946402	8.661537148541877	9.793424581597222	5.473376737127097	7.689506988184738	11.033343287267998	10.46171471815458	7.2964620405992004	6.584023935861068	6.3336930115053
328	-0.9557922458359105	-1.5599052866652554	-1.3532856668637387	0.6136070474391334	-0.43763881811275007	-1.8418998671758218	-0.8268915989979623	-0.19395409475472064	1.1257030935476433	0.9155543423425307	-0.9332894063274476	0.6093378647678747	0.3904067864097949	0.6287907346108813	2.485469096584291	1.2555677859077548	3.256113282565847	1.501580472969738	2.5053484376595887	4.93295382207918	4.7586879610079285	6.246031745399719	3.9183823963417765	3.658482303919348	7.329944115252215	8.755081154653357	9.659100508144855	5.461873040714491	7.645188312301759	10.86854741213475	10.199310276983592	7.234322052810532	6.4227194623913695	6.041148647314705
332	-0.6608176214700237	-1.0856565209635096	-0.9912179683454987	0.8313716629019039	-0.27442422439907965	-1.7168650583789555	-0.6785091740643643	-0.03763316189682004	1.6247672993646538	1.0615179511926054	-0.7464827876317611	0.9054738260296332	0.6196100100132413	1.1177828283698863	2.5893328124475485	1.6057052571764527	3.6129383949614593	1.6679797130433947	2.850285522894053	5.22035072915997	5.209547506530995	6.547508700052382	4.167239178626682	4.067715157729274	7.7160086436964415	9.072564102155013	9.614381765887153	5.571461186647524	7.817848185828237	10.883728953539292	10.077663396187205	7.363980274681663	6.400784953169405	5.949265465021052
336	-0.3392149499435066	-0.7666558007911258	-0.6008558854191725	0.885893461851774	-0.06746873987568212	-1.5427138766439623	-0.5083773719350069	0.0008919606312009976	1.905241484600128	1.265971418999164	-0.4908609973912188	1.2084525793082646	0.7204278093268771	1.5564150770945997	2.7747075487654107	2.044399733150154	3.9607410330909105	1.8419512463794885	3.2939834511561474	5.613506779803088	5.770291790698748	6.915450078670538	4.411398399659409	4.547626007042518	8.237361887161645	9.541399931659793	9.707940077113342	5.78498695820315	8.109967211274789	11.017298670609287	10.091805432589489	7.601995925783612	6.467172129515466	6.03883407975463
340	-0.041376195743523275	-0.6561588032368519	-0.27327898075725676	0.7663598041259185	0.09646128838742103	-1.387466665579625	-0.36365908292508026	-0.057045481955030244	1.7931674673583684	1.4302436077247365	-0.24435619948205128	1.4565138780060056	0.7004826051192689	1.733140345012364	2.9449014589344675	2.455873960016555	4.277616013217392	2.025649304044052	3.672285547521583	5.9655861703936655	6.306070311837492	7.308198910381579	4.616594779756572	4.936489092761173	8.696110703447262	10.004411672128985	9.911307309876257	6.009500011530352	8.34943959989137	11.129813166174825	10.154807065120854	7.7928614419643205	6.51645897173722	6.18447349894259
344	0.18634699237982272	-0.7585566620748493	-0.15212094745376112	0.5204345570776001	0.11384827614888962	-1.340903755617229	-0.3059818736934124	-0.16499842661684339	1.2957313028046427	1.447955962340051	-0.10118972484551461	1.590246315755827	0.6070981010368047	1.5705995520038556	2.9842121525760623	2.726393692762514	4.531328189853442	2.1937437002108413	3.8294529818171563	6.127543910768453	6.680160505595153	7.652632217159674	4.748705851963307	5.102839457026237	8.90532205240636	10.296857807865237	10.129944775754915	6.126059516698714	8.38099191457001	11.080241175333185	10.147747014174323	7.793135146492438	6.44921205799709	6.23358295774194
348	0.34747409732827866	-0.9850570534631348	-0.3252197793855793	0.24623174903214082	-0.04677174973600051	-1.4391005002881292	-0.35525518566083664	-0.2617393725462639	0.6216700657407672	1.2897363868575593	-0.10335886452328467	1.6020082194889484	0.5106607066612977	1.1773273915130078	2.841064445952002	2.8146283555493863	4.706969726122636	2.310445779689146	3.712368478938938	6.035426124593557	6.824043256696728	7.879979590548079	4.788952338525513	5.014113413549077	8.788200356229895	10.326728794728297	10.24845979010413	6.055211051911769	8.146872499877901	10.800262423903833	9.982216809819297	7.547296981829916	6.22476862289481	6.092193111297158
352	0.5156394826268159	-1.1555016011628392	-0.725709972933536	0.06711994839649835	-0.29011797831720515	-1.6108622510293993	-0.4475055921700227	-0.28041210699809743	0.09341109520454738	1.0497571203430873	-0.1949773425901575	1.563328619824642	0.48207819340109465	0.7958124259883559	2.5793979102814695	2.78437232268205	4.828008162706691	2.3594360291992467	3.407693377474282	5.753394589203323	6.771981699058395	7.961042384075105	4.744609343947527	4.752984988610218	8.418375947678749	10.114966366979255	10.185426686320403	5.800289616245569	7.712625007230375	10.32625958696581	9.642015432809572	7.11378048054407	5.8782529682521	5.76967953178916
356	0.8030465224971911	-1.062899229227143	-1.116295334858627	0.09118159837351403	-0.4183776666091795	-1.6889886813436237	-0.4424546051775415	-0.16138569969916106	-0.007436144612581541	0.9169746614192976	-0.23482997656184304	1.6045988757629253	0.5710029587634342	0.6706471426244057	2.3620600640742135	2.7750449110539877	4.9510626667905395	2.3646619260213795	3.1015429418458704	5.4454536300503795	6.638203127313634	7.918007353818767	4.646749484728046	4.472361553344603	7.978624800565138	9.773612951398219	9.926913236350527	5.442135320274821	7.2248172577600664	9.772304510239412	9.182325339976037	6.627375585989653	5.493154035050797	5.358975873768471
360	1.289915677628591	-0.5738706574256276	-1.1830030649834802	0.3675354709882609	-0.22847078682913444	-1.4890706501558633	-0.18743532848719	0.12825791505379677	0.42140766871868646	1.0813989611979526	-0.06653572602162679	1.8500623656293345	0.7914871553465052	0.9182131267253139	2.371231788370515	2.923432581196313	5.132598387157402	2.3835983216187113	2.980201952085699	5.290864454262701	6.549347384129771	7.805352191291915	4.533282268522824	4.315620411467387	7.6628608510144645	9.436336493509526	9.522534346380276	5.089153753783202	6.827977640079129	9.26273534343513	8.69083402346791	6.222528441931227	5.149662004820619	4.971078383292739
364	1.957000250643766	0.2878060333614944	-0.6973062140025631	0.8594745375868102	0.3676033904808109	-0.916793284485704	0.3927893330670639	0.574601231554795	1.2489023177086411	1.6228530365978804	0.3889984180642754	2.3412687719361545	1.1185358734500772	1.464271064876069	2.70556663783768	3.2786829388809346	5.385451780073695	2.472513192610043	3.1296803872246595	5.387228475320675	6.569009287461476	7.670757751171529	4.425664413722512	4.346211899274673	7.574508171031234	9.180600143142014	9.048163391157049	4.812029349575647	6.588152868803524	8.862950302635408	8.234867075156226	5.962015136924898	4.880430686072873	4.666549670835282
368	2.669987671786761	1.3315857615230178	0.340977459285065	1.4472942315754256	1.2735446659359149	-0.03939085816332497	1.2327294318546984	1.1067628832530556	2.170767063382255	2.449220174327788	1.0740725966992382	2.994933120795454	1.4938470087482354	2.0878250546194956	3.3147458946462076	3.761471977273826	5.653372273476851	2.6438069276817187	3.4933996112361663	5.695528969689996	6.657933695195949	7.520442943659191	4.312406052192055	4.522400367762945	7.67626998870644	8.985286689960816	8.559193589535132	4.601706016366428	6.464457972417827	8.547124841091483	7.825149039539052	5.809937462443134	4.65808676497286	4.425188530239827
372	3.237318746022723	2.2807815017336455	1.6707951980368967	1.9690380046722116	2.2390375080798837	0.9280452108794147	2.134161943769474	1.6101720292446429	2.850825779392933	3.3261797344153137	1.8081995203141907	3.626629820250378	1.840661640288384	2.5423324043936057	4.0123433965470525	4.1953573121006125	5.825424179628155	2.8440139221866203	3.909489383363741	6.058676227531683	6.6942901442313545	7.312658291473836	4.151362885484392	4.727944362147561	7.81690547876885	8.747720696297918	8.064345339441731	4.3775820621593375	6.341586573802266	8.220164278257311	7.417422275889508	5.661933407793615	4.419810760783189	4.17131375213324
376	3.5177976996297673	2.906920425705165	2.8788638042244874	2.2874867858353687	2.9794711991425973	1.7209132866325896	2.850344412282942	1.9665512988984606	3.0765242498924352	3.9875996012146273	2.372996562688569	4.034671296423542	2.086391205288399	2.6851658753312035	4.56341933051949	4.39614819370426	5.788388237644026	2.973063461426842	4.204728115909961	6.282914145819295	6.543064100911992	6.985425931460175	3.892778863615282	4.83773325652369	7.8170370858241816	8.349173524757765	7.534701328327782	4.041535367298546	6.100921615456029	7.779155234723535	6.948815328220088	5.411630139992953	4.1113324061543075	3.83370470032754
380	3.5122566134468576	3.1399433533547536	3.5949273018672847	2.3494465291786915	3.318027249542098	2.154657120033036	3.203322640914463	2.103567356520668	2.8461718487406205	4.264920700749444	2.621214621601674	4.099858750482592	2.184950584617197	2.5410022671441563	4.797351348208897	4.268845070551548	5.489115224331013	2.9374174997553646	4.286971558237717	6.23486851071721	6.133661731492753	6.501492483890485	3.5108358771375783	4.777805793143499	7.562678794840398	7.728818397082068	6.9391550842564405	3.544353714577368	5.686399922319246	7.1764621553430885	6.384853823754061	5.011696802837404	3.721096506260652	3.399773112296525
384	3.3851532850629287	3.0996203344288498	3.6791980173680225	2.215457433829115	3.2775547421674744	2.220760101433525	3.178160182558192	2.0352353998297863	2.354655021444594	4.171148289639762	2.5553252632475205	3.85304020862528	2.1359889453365164	2.275354379631259	4.690523612577732	3.8635480306354935	4.977097021888384	2.710585110496518	4.184412945673166	5.907209858285191	5.507454381389204	5.888555035029068	3.030087224939487	4.551541316938638	7.060936909968258	6.928900224358015	6.2865443070955305	2.9277670309534356	5.132313715374673	6.452978594700227	5.752329334994587	4.498398769465389	3.2876734650575767	2.9321052954078146
388	3.3936407480389366	3.0334870738688915	3.298938981310262	2.040877337071401	3.070809118147221	2.095586056186815	2.9416208192943127	1.8692665052903215	1.8938254070151204	3.89334486932064	2.331659787966885	3.4724495323248266	1.993701214525104	2.0971763081054076	4.374285686893002	3.359395733934723	4.4015531428788455	2.364499324550843	4.013411988615888	5.41891001286886	4.809293257968786	5.250192628956452	2.531544678972234	4.223924149339279	6.431928618404496	6.087226375469854	5.647531018303611	2.3183174074768895	4.542408454870633	5.725257382243113	5.139573084252829	3.969904651155543	2.8793125079892237	2.538730138091055
392	3.7536485100389396	3.185863248410936	2.847713940106356	2.008911604577644	2.989610664449029	2.0507326074322614	2.766553156543567	1.7679450467296052	1.7209806398810157	3.694509020060689	2.182620758268099	3.205152741923026	1.8550147963419286	2.1476075595039594	4.063055981868235	2.9814810677593493	3.9570326705209276	2.0478324838433917	3.8990797898078693	4.951263892070793	4.224922169508878	4.73465489145801	2.1289014762534584	3.877969016774621	5.844704136397105	5.379054532775394	5.136887060547453	1.8716350746584258	4.034313191718635	5.132617460643681	4.660254466688579	3.532462111137543	2.557558768490905	2.313340896487867
396	4.513815391588331	3.6694819834570063	2.747796528554424	2.24281048208464	3.253870240579323	2.3124723376063927	2.898317806555742	1.8755586099955046	1.9510843704554552	3.779328098291976	2.2988598288669575	3.2519109167012132	1.8263771487854474	2.433393949086984	3.944289912755859	2.8959705756504133	3.803143014842567	1.9183549832547637	3.897622337037501	4.657906997364671	3.899045219113987	4.47619484724972	1.9243112753921303	3.57260989240825	5.4362501960831375	4.940918433112539	4.864116656420458	1.6972925620141868	3.684386005636174	4.77479122863695	4.400805939053828	3.2487945474616446	2.3487794339960493	2.283168548541584
400	5.514549241448195	4.413621414485339	3.238307467867761	2.7425155570406576	3.902643432300703	2.9465300962441985	3.4332280072315906	2.2476332130905305	2.5246131356395143	4.196846951379078	2.735600464589855	3.6745061781617285	1.9797673175418513	2.8386864590500465	4.09167860905427	3.1389205376529903	3.998220910468207	2.0636212773673717	3.96863388013214	4.598570335222002	3.8770673177107358	4.5381102447374415	1.9640216777805797	3.3261849796240406	5.257894025879146	4.81703280186404	4.879325377542949	1.8050402357304922	3.502906552053838	4.673112857464219	4.379915226368535	3.1172435204958053	2.2393307629314383	2.395771020562588
404	6.459441645526194	5.209923731047867	4.256877411585181	3.3780887041634067	4.778303134298249	3.8246617220636283	4.268851746271746	2.8177480626490534	3.2496337808579634	4.824732768275264	3.388214818029442	4.368591774401274	2.3163604677845644	3.1941594996869873	4.441373813859851	3.6096196083487446	4.47569750609497	2.451350921163839	4.0082430738340165	4.725191581240204	4.094887246283718	4.882124888491691	2.2132420483976967	3.1274657170489766	5.269402490663323	4.949771391769386	5.140359388724721	2.0971298164826	3.444857111816488	4.768774497389933	4.536722648610573	3.085810176687838	2.1903099958432897	2.546779149301202
408	7.062881451894501	5.828579887933176	5.479244695181129	3.9476210971346553	5.612264142171948	4.691882121638023	5.153414236409046	3.421867361966084	3.8888366124197904	5.44305418547636	4.050494183804247	5.115690695244523	2.7567200591105077	3.3608844195388747	4.843064772776099	4.130211342874221	5.075078474582899	2.938843242854792	3.9237923523065112	4.926362025220823	4.420435417458858	5.380641446833887	2.563644164288529	2.964134447243453	5.379874215848275	5.216801630200424	5.521826730138318	2.4110889373940307	3.446289769054692	4.9567627781653085	4.755183684741142	3.089884511775818	2.161518806722255	2.6331167154589528
412	7.195459824515095	6.137313827278209	6.488027556251141	4.271994579973528	6.161229594887506	5.2948641643356105	5.807080731035552	3.870952119590799	4.252521027318837	5.852734074120972	4.520964134246063	5.685337529133451	3.167924396146047	3.289156667034423	5.151626573907456	4.535869586936702	5.611160740990652	3.3380200778607616	3.699862709240898	5.099353300571416	4.721574294567208	5.866199001760316	2.8722793983420636	2.8452656197237434	5.506177888319917	5.49201105638547	5.863372787930782	2.5900123053962725	3.4606420906432116	5.135070787816442	4.912286269183363	3.087565652681331	2.1284849589968196	2.6002802783165153
416	6.946925145729743	6.1573653065671845	6.975129109891934	4.2785124670725505	6.320219977634287	5.501947865900177	6.051815494516777	4.036341180147353	4.258988369679217	5.972843155086037	4.698944079933182	5.9352507441396885	3.418089858008336	3.028651468259762	5.304772363620898	4.7471723436663975	5.947691425565798	3.501508703928095	3.4153444680769134	5.206566797462592	4.924395548785358	6.195105537032202	3.016226760878412	2.8011803556291155	5.614413247238543	5.697723851123663	6.034100040459942	2.544808142912746	3.474565974046168	5.243596540563682	4.926400172193383	3.0725858133942	2.084104532702009	2.4580511984754136
420	6.574382765383701	6.034572109245371	6.87620018176646	4.032607068370892	6.159625991528517	5.35596464712202	5.886389717499134	3.906326999338522	3.948608388468222	5.870635971506194	4.623528468856498	5.86432646224478	3.4346041592666907	2.695946686613799	5.348229871598336	4.792820918380247	6.044553264615679	3.3880417261414517	3.204955569758607	5.289061532972087	5.036834227242933	6.2997350533696	2.940972320760794	2.863208525104467	5.726812348212087	5.82694099862457	5.985444530634055	2.28391599078518	3.500674000484768	5.278974519752925	4.787930953335221	3.0637774390115315	2.030711645721335	2.2644848766374617
424	6.361559851797492	5.945358261356601	6.371728404170501	3.700828066065243	5.8704299778543705	5.035583960217281	5.472076879037117	3.5868577866593867	3.4537911327900255	5.7112192963410555	4.4387583620537105	5.597616181546089	3.2403383173194205	2.4226136146415453	5.396965490066599	4.776644694666206	5.9610543100535445	3.076234094482401	3.1853969016713912	5.431877599353454	5.129844652575731	6.209086402475419	2.6837069920493644	3.036694519005447	5.894411072154176	5.929732784558893	5.769173607565585	1.9022895049704351	3.5574109464474777	5.283725248348109	4.561018932271155	3.083060972059159	1.9727024982237507	2.0924377388577273
428	6.469050391076886	5.992105468880177	5.770977005693355	3.4655282409909827	5.6571574068291115	4.753717410483369	5.0426778666019585	3.2466277994202404	2.9508707448843623	5.662092671404053	4.310416210735897	5.31774662582569	2.9466752931585045	2.310221427806778	5.5605788090504875	4.813780295616149	5.819717392533189	2.7234992912195284	3.3912308130474624	5.704980358978878	5.291598306647323	6.031607612640307	2.360333675147298	3.2853953755400127	6.155701144889257	6.07692669287867	5.513915048029387	1.5392889937638154	3.6523365882213636	5.3193797930884115	4.3567929157884855	3.1391582409757546	1.9170396279571815	1.9986386248672525
432	6.863750440434368	6.154468997675571	5.351347432930797	3.4388067635499033	5.640037045544211	4.652731883699759	4.792119014085144	3.0386309547000203	2.608961575596843	5.807736858963583	4.343538750172534	5.182730661658515	2.705307476842851	2.40569900858989	5.878234848440133	4.974108683425469	5.752679810304981	2.4954631265578375	3.7560219669879036	6.116013034637898	5.581913933966104	5.911225303984282	2.1212251132815063	3.538735142356446	6.507302744648521	6.323427184352264	5.3735842569102985	1.327467557416594	3.7790577316239577	5.438765035249151	4.29147433151126	3.2266683497025666	1.8797984075769634	2.0110487887153146
436	7.358015995521916	6.321192725434566	5.242026315805683	3.6195845512557145	5.814393028838135	4.751744258327706	4.798469054504904	3.0387287063172055	2.5491342480196213	6.118840202141746	4.545060146300705	5.270051942871156	2.6428153448137386	2.6988456181097757	6.3007044633097795	5.261489854880078	5.855372890947805	2.5011160310540634	4.146937359830282	6.602593405266089	6.009483799067014	5.975451931171979	2.0940701908647146	3.720215549613096	6.903222543453607	6.68850038747107	5.470618234173856	1.3519734110076769	3.927335967638751	5.668612942688861	4.445079792244049	3.3382997428533416	1.8907929611151837	2.13293265757873
440	7.725116233395126	6.372632487420171	5.403371797270884	3.9101605316622177	6.079030021578194	4.9650668972544505	5.014642702793346	3.226773969132842	2.8195636201243284	6.485394938307349	4.843564974953791	5.565077767626775	2.807857744757154	3.1313633839702883	6.724509222219024	5.631359562961139	6.161655887305863	2.7595174242920435	4.431465614574564	7.065330010695692	6.537037832921835	6.292606337872462	2.335373157327016	3.7813308143513726	7.279476624229731	7.156326275877325	5.854894146442178	1.6312490660490335	4.095100869330054	6.004785999396257	4.834133612825504	3.4773340137425484	1.9869351336858636	2.352911943217183
444	7.8244013588768775	6.263363822382328	5.693525776793442	4.177076806012733	6.306211455635964	5.172050463016046	5.3217310771095745	3.5160026461522436	3.380087367106969	6.786435586961356	5.1471047271476325	5.990781768932347	3.1577703873063268	3.6123979000440007	7.0527338803564	6.029278263128366	6.64537523499206	3.209037534241099	4.5384797935341155	7.420338611941715	7.1063351451746835	6.8527722185687745	2.8101589608768323	3.7223079110580084	7.587894420539674	7.690497855796982	6.4922227695584205	2.120243782412402	4.291700829160835	6.418070300110627	5.4072084290361	3.6589009669431936	2.1937732641145753	2.6505737237766946
448	7.667860488605601	6.054462894412437	5.968645557592972	4.320864189682908	6.412148459457854	5.29319571112327	5.606358990819669	3.8070535563671175	4.105088700420559	6.956922990400546	5.401485429477795	6.454847796355664	3.585986605173549	4.043124188705667	7.2487401779267175	6.4244174795074445	7.239869576295061	3.7438933754810497	4.486076343654215	7.64266155220682	7.6666788861305575	7.576028327887748	3.4078709993152643	3.591280212871976	7.820642451568252	8.251280763774453	7.281716328356156	2.72895263936555	4.530102718359953	6.86600015814109	6.063359722087728	3.8988671204358476	2.5057966645871677	2.995178215094152
452	7.393252830912688	5.876468643610608	6.151669963563985	4.315566528868646	6.386940939990247	5.324654565719137	5.812762722598355	4.033550729104594	4.8098864433920925	7.011100274504484	5.6107945300540765	6.883940679336029	3.9736032385638076	4.343303192616977	7.3479118161651025	6.814661962469925	7.859879950706248	4.254666794525333	4.361283291295947	7.772626380369902	8.187331178974972	8.338978746341121	3.9858832258680086	3.4608671577813155	8.008851984784476	8.80260751409147	8.088805178247163	3.3472351943383503	4.8110856888419455	7.3028611952461295	6.683365804964502	4.195563305752436	2.876592152008543	3.3409624015380253
456	7.167467576050613	5.844114765671054	6.240075095634485	4.20329188239308	6.27726600969464	5.318457113189618	5.946221336610769	4.177272786084259	5.2992319926937235	7.016625863479791	5.814053520782352	7.233452778673322	4.237606037885057	4.474926460412102	7.426004391041181	7.205510121273168	8.418586709702144	4.655830848383096	4.269820679374768	7.885105589985821	8.651289918037964	9.009483314655585	4.421184051795347	3.3969883832996497	8.19899366216086	9.309115386347818	8.780706383470497	3.870306482080222	5.111995684114936	7.686482886935049	7.163201790844098	4.518823612248294	3.229490271997688	3.628951540367807
460	7.083849889036385	5.978683456584963	6.262629493160548	4.057756890542502	6.142005904903082	5.328602777379091	6.03534935381128	4.251997460120451	5.431525216694432	7.040853482589765	6.037943824782513	7.476320247847739	4.351923931578367	4.452234256947666	7.546063880941917	7.579956035549951	8.836976029019347	4.893849837345145	4.2837123762696265	8.039866427150018	9.037787414620745	9.477319693479295	4.64735745210322	3.43288015452556	8.419727304181686	9.729075407260176	9.252357459550199	4.2189574135119745	5.387843118416047	7.981116751547615	7.438365917499228	4.814372527365141	3.485800495883648	3.8014533423767403
464	7.121554356714628	6.190862163172066	6.232441409588084	3.946242799332349	6.014154895856978	5.3633403642664845	6.086359485518429	4.275675285988405	5.180140482221695	7.104782086554337	6.260183795382299	7.587011318124911	4.338197220339829	4.333451260116216	7.716242770740528	7.882224063046075	9.04891297916785	4.944081770812071	4.4130449183625275	8.241161325628614	9.307363486633003	9.671745275874159	4.661008823070951	3.5595705419315276	8.6570968409359	10.010789845941005	9.437805151953082	4.3498883137551365	5.583841786591852	8.15627191391667	7.490371685190192	5.02104424162606	3.594607820972095	3.820682277569891
468	7.180961113919377	6.334644301633514	6.134289249191363	3.9103023907164247	5.893880352398435	5.378054128420009	6.0645212974021785	4.2511143577056885	4.660045135176656	7.174290638930114	6.411690695787135	7.537868957561728	4.236469258102772	4.1955404175689	7.885287741779795	8.031599024521967	9.007682777550755	4.804203498154976	4.611234176437587	8.43132016914265	9.403899169067495	9.565091108968142	4.497962940303892	3.7356972600079685	8.853202797472031	10.09980771375825	9.310412383414855	4.25382183908313	5.653357968362141	8.185112932520612	7.336646061493839	5.092015253562354	3.548436632734174	3.6810789015338057
472	7.156394463590776	6.2930645783803385	5.946986660247753	3.965227117063959	5.767436012965479	5.308931337304244	5.912842258783667	4.1643981828452805	4.094619263801484	7.187986832590603	6.415242178932465	7.310008984229548	4.07421349450486	4.099557866236525	7.97417972458759	7.959662894179906	8.69398973177293	4.4888462906992235	4.806629645609788	8.519970872349004	9.274858451314678	9.166137672170226	4.19481419457879	3.907446851401735	8.92859361301655	9.955672238963466	8.877893425461451	3.943575849113252	5.571740613221525	8.045866945933698	7.01244209426428	5.008143412343446	3.3769161615943455	3.4099841031765066
476	7.009763699953415	6.054324611636908	5.686117634722303	4.113677014455273	5.639029011794315	5.128190504478101	5.598909363915871	4.0034894842158915	3.7325720692809954	7.106452923952462	6.240275844077582	6.914410096831123	3.856135358611362	4.0718083278849555	7.927322844517905	7.653756599175878	8.126255968557883	4.029162396748729	4.942029463688346	8.434323289557431	8.902904488020374	8.512872674429914	3.76047348026707	4.02990435536502	8.819258667613884	9.572422957094162	8.179537752480977	3.4397365960060515	5.340547548161921	7.728663425006044	6.55564640297373	4.77833794341071	3.12343691990949	3.0543663424624166
480	6.792414171235812	5.726539120521126	5.426259027132533	4.352178562620204	5.546478257480864	4.880080210762478	5.1559438575269265	3.778745403286123	3.742387523739246	6.947813493353233	5.9368252604321	6.406660063780793	3.5756463914240206	4.106563557747158	7.7502655787295796	7.180146199218065	7.367248516555735	3.4720666320877562	4.99981783558224	8.161661127465075	8.330966928429222	7.669945697493159	3.1770114818469812	4.080458630750078	8.509135224793354	8.992356277650487	7.28682134695899	2.7636613776049455	4.98315190010796	7.246015530411624	6.002263053998575	4.43057965113686	2.8213157582577217	2.662566655112382
484	6.598927958040236	5.4732713561154	5.275240407976464	4.658955085435755	5.542618737532112	4.666706073422778	4.684548366163375	3.526697626746579	4.129716862742413	6.783198339502489	5.6212186671432365	5.8791427463870605	3.2359032549221705	4.184324730799121	7.509024124260531	6.668055517527571	6.518500311606334	2.874510519399663	5.000716196786026	7.758617858371578	7.662713985170108	6.72774503916642	2.4284653602322397	4.058176030403504	8.040324190820739	8.303156831758713	6.301950915638176	1.9420475910745845	4.535237777703678	6.640769464892604	5.391715989805195	3.999906529818199	2.4831654962788274	2.2713103237027483
488	6.4961280658742435	5.414459214845429	5.314328657084319	4.980086314025612	5.6570296144710355	4.592274177400983	4.313210476475913	3.296627751610287	4.730264174916361	6.6975569555939565	5.420819745682643	5.433642850508665	2.8654942440165434	4.293091286310645	7.29514310902294	6.261278136657612	5.703126892949622	2.2953977526885643	4.9805202358384815	7.325019817931884	7.035625916837582	5.799762234349928	1.5417348107513535	3.973672141532994	7.497887592458814	7.6187538908291925	5.350616441569117	1.0215897534326968	4.037780274687177	5.986960395956156	4.776654708246503	3.522487154650276	2.1101226753365148	1.9047893237660036
492	6.467980845333736	5.543746934245572	5.540687547046265	5.227419363175326	5.858878597726064	4.693951118062243	4.133199204499978	3.1242577950752644	5.286473737721052	6.734743578119698	5.404081807797655	5.141877638232606	2.5137238439037017	4.43510674310541	7.173301678666498	6.05624054333373	5.036541926065692	1.7861872866356354	4.960128771656566	6.954637033069892	6.572442991829028	5.008434759846373	0.6109448059869621	3.8374996088415183	6.975397092374167	7.047167760222749	4.5636892203503505	0.0836110932504158	3.5343172460968484	5.377319322361074	4.226139534770697	3.036765806160418	1.7124490694679857	1.5833713968355014
496	6.417041285525823	5.7192854736888545	5.851433262356678	5.300982461897068	6.05009888075158	4.905185687078487	4.1477751627151305	3.0121853275542647	5.56928013349141	6.861364347300744	5.5382704594974355	5.015759932252195	2.230612033934286	4.612201202191981	7.141942006199287	6.058851703605458	4.596271503288108	1.3849772179922213	4.926005827864545	6.689784033097712	6.333677275879119	4.459369171327845	-0.21518629735023098	3.654168358159976	6.538641913117981	6.658684713718222	4.050623406673794	-0.7553620319368883	3.0708794516278783	4.899888503101383	3.8158278368930603	2.5872554713730813	1.3256785836128222	1.3316304650064865
500	6.226364120022129	5.736971840679113	6.081153377438311	5.132227884686413	6.100802406166779	5.079238878777717	4.268864620874985	2.9308235571298007	5.486209378696261	6.975086194547804	5.7026314591434994	5.005556570766726	2.0436758943458297	4.80149983147479	7.133206826320218	6.184226497295264	4.403816212025964	1.1156910629714198	4.834992873382416	6.507932646532916	6.296385749178838	4.212881554457491	-0.781151054317456	3.4273316773667166	6.208445533336413	6.469362242577564	3.8731627366506474	-1.3647079433317875	2.697038405284749	4.614658344061998	3.6084842590779296	2.2261059228006435	1.0112094853619806	1.1796680659074277
504	5.844647869612579	5.444944844803861	6.076704009926352	4.72560690640395	5.911371216154324	5.063256250949417	4.363714683959486	2.838685266957154	5.118343817186067	6.954241735066739	5.751295552038212	5.026858317081352	1.9456872890939594	4.943359839356375	7.051101189930835	6.299693091699784	4.424602020536717	0.9882132386053127	4.64097117205953	6.345690711212558	6.370110018859645	4.264491070470988	-0.986084816350402	3.1733291069020546	5.969860538669006	6.446163161215237	4.0291881459552075	-1.637859578765803	2.464405292011007	4.540636051158066	3.6338472274587184	2.008536095316507	0.8393084981708667	1.1563744515787262
508	5.33596180522306	4.836443412014008	5.768127903680285	4.170616616209707	5.469262586136508	4.7837428925852965	4.32693241934288	2.709464781596149	4.662535178810506	6.723772031974303	5.59300135154065	5.0038676135566345	1.9014555167828435	4.953823077092409	6.828088266299552	6.2908649285751	4.586767185074799	0.997137603626421	4.331536758930865	6.146440013626018	6.444210036220168	4.546780574763158	-0.8262514451146907	2.934178821785026	5.8006524893220455	6.531557066639286	4.454747188765052	-1.531707879013974	2.4200115142758003	4.659332263626942	3.878636111957263	1.9816682288682286	0.8628721811443637	1.2785129514839793
512	4.857766616000699	4.061106194733265	5.1945671904067074	3.6089086441476588	4.8665389891780135	4.293030251154549	4.135735501338057	2.546541922815595	4.30894755229234	6.300276740379951	5.2425203191003344	4.905979620944891	1.8670080853054838	4.761318194765937	6.467866881253213	6.1171798551610745	4.80992983557338	1.1184430094137516	3.9517919917469273	5.9028410762527646	6.44324682516303	4.954302298435192	-0.39545321364696234	2.777284376761835	5.699498639022014	6.674760324792137	5.044241415639759	-1.0876649590687903	2.5947389537150274	4.931813704436795	4.2922396551482445	2.1703932230511676	1.0960172387107887	1.5439857205509684
516	4.577464568978901	3.348144045959591	4.4756245500099485	3.1703567424839	4.265147675236176	3.7480511570715045	3.8569295308963443	2.3761329590887317	4.12663935573114	5.789319977448802	4.8139223930889345	4.758097159770407	1.8104851200169771	4.3506545910664345	6.048949703203212	5.828023895808115	5.030314432795282	1.3069741692923704	3.599069586250137	5.667598710055923	6.3611359435649195	5.38056944442318	0.15733325441691967	2.7769825388414544	5.694300637173566	6.852953416688434	5.68007324692018	-0.4234995831287644	2.9894301815851048	5.317843423768561	4.803601729662843	2.565371745308337	1.507039662370933	1.9303063105485032
520	4.560403335501469	2.878374092464249	3.747648706510997	2.909026853846209	3.8188910387896233	3.3254990493736973	3.598023167109102	2.2225787583503203	4.026497353878261	5.330132947815901	4.454261291702069	4.615836131839786	1.7209523872794636	3.782951822266592	5.6823506211820085	5.528086648335403	5.208798395357349	1.4995560608196978	3.3837287340563935	5.521830067998416	6.2532028994038305	5.747419342788966	0.6891636235003551	2.9790379925854635	5.820284828750018	7.069036942754204	6.258448584967979	0.3013362578890251	3.561310759135996	5.782837376299398	5.338523851267617	3.115206472161105	2.025116676939684	2.3956205784395546
524	4.700100410038905	2.6775696210016275	3.1007563989554003	2.775809996272393	3.592480411996143	3.1201081197164786	3.4317715081355367	2.082591766821429	3.825004806398089	5.017927157130757	4.2556166541420755	4.520709980041382	1.6022230346281765	3.1749682346292394	5.446577058392269	5.312255845962843	5.322087751303011	1.6273827511707946	3.371484747957546	5.518534646406395	6.192306026083459	6.014678463055364	1.1114805908751166	3.3631749068225205	6.079772933868799	7.329324703785273	6.704536897898111	0.9342043972270845	4.218454827148498	6.290382846209375	5.8310632558468285	3.7275199796025884	2.5572230751323777	2.8820090221120545
528	4.739349830105825	2.595906727912518	2.549640410661776	2.6435711317075823	3.5236596972193373	3.0856003683387585	3.3411328708216526	1.9166890334374977	3.372566929885356	4.849127280390187	4.197269429100179	4.463047969994094	1.4589756690383033	2.6474595003043326	5.338425145976118	5.207548605168854	5.34736012062397	1.6363849598577829	3.5399243742260023	5.63647125728417	6.215294822259549	6.169554694811556	1.40187060479039	3.8281373881009957	6.411529047990912	7.61674736007254	6.975813848049384	1.3703770602913512	4.830479132854261	6.7885227031975415	6.227006419672607	4.2824540030123055	3.008274309192557	3.3201026832679372
532	4.3779168018435515	2.3863961636374045	2.048535818649966	2.373372548786863	3.4488899620718088	3.05241440956024	3.218451491813156	1.665815706815643	2.6676566533447703	4.7195982813886035	4.151350964555467	4.375434387604213	1.2852232423758507	2.271209711062622	5.267928110173881	5.15455292353996	5.25408934220345	1.5066276750672856	3.77379917145657	5.774352059090596	6.292070372907995	6.207610114637349	1.5803403814470358	4.213083733412058	6.693866235998782	7.878694991247123	7.058467370332159	1.5718731840502005	5.2580880986020455	7.204954605985264	6.48490999491868	4.659044730821272	3.299787989868299	3.639176836362499
536	3.422301522197532	1.8412020159965534	1.5342608651525478	1.8877434682868843	3.18412589222941	2.816689007323358	2.922998420964865	1.2862174478481943	1.8769614649113964	4.480914104592541	3.9523622889866985	4.164649952864176	1.065789220026426	2.036439652069788	5.104588018880953	5.041186319974865	5.0128869883812746	1.2614676920513064	3.9089336296572585	5.794694885882497	6.3382696945381785	6.121541484636146	1.6699448781766777	4.353567112421386	6.7889704532879644	8.041614512167579	6.963903886379015	1.5612719019572152	5.395990358080535	7.461933593983915	6.580589277819203	4.769885527965742	3.385710230862304	3.7837223911123026
