time	FP1	FPZ	FP2	F7	F3	FZ	F4	F8	FT7	FC3	FCZ	FC4	FT8	T7	C3	CZ	C4	T8	TP7	CP3	CPZ	CP4	TP8	P7	P3	PZ	P4	P8	PO3	POZ	PO4	O1	OZ	O2
-200	1.5684395988919384	0.009545813290515818	0.13720379735161464	0.8206897953293857	-0.10057327125906212	-0.3742466559498019	-0.1571522798146773	0.4776095437865987	1.3991737330396916	0.12213431267896808	-0.3074215046750377	-0.08002554605068243	0.5855821356293963	0.33034083163781713	0.4490914929495575	0.030381385160272906	0.08316499718888187	0.45417481546174776	-0.4135165502121509	0.6464237554442004	-0.056251332021789766	0.5429266081453858	0.7272000890491587	-0.28641748356031266	1.055996415333133	0.4873781787964964	0.9126529074514796	0.8624120332878594	0.6749360544330353	0.6291266663879872	0.9150380469107898	0.6924355012577499	0.4811409699690127	-0.032074782916388725
-196	1.450791474494147	-0.30367532295804023	0.11451169819530653	0.866183695990434	-0.17272226468823917	-0.40960577026902173	-0.1270713057886042	0.4585747111186689	1.9611263225632805	0.0874553767618853	-0.2774103574901427	0.05952374622098621	0.5744357094566717	0.22441551032627335	0.4463476527388947	0.13988554442373946	0.3427660158563245	0.598299978653012	-0.3520878544501139	0.7818467001248732	0.17565993920322218	0.7889900783645895	0.908422825427095	0.05448036627127522	1.243133780201843	0.7874822000648687	1.2284035651664014	1.0452889177634261	0.9466256475390467	0.960503694970286	1.0987808676634672	0.9046561695146688	0.6298761351895008	0.022197555694565003
-192	1.4200648033528525	-0.1615557964537594	0.20571692235983374	1.0233246062191492	-0.029493426829618554	-0.2562579208103016	0.0616374945574483	0.538810788224747	2.19005250377851	0.26076561146702687	-0.0637547372162015	0.3672071984079892	0.6188522561661249	0.2555488043531991	0.6266278012667328	0.43763613590374195	0.6871584636505287	0.714534996136036	-0.07333802413305752	1.0635406944125962	0.563772676951855	1.0731439563359821	1.0533090803255745	0.5645552263311353	1.549425121210148	1.2197307317456103	1.5575811823620411	1.2053618400658848	1.3213094439525275	1.4187238180580812	1.3736660445817535	1.2145022123191136	0.8858488179729499	0.22838680388485794
-188	1.38989710456885	0.2620830529271711	0.34737360389744104	1.130597588545662	0.1906620706274426	-0.015947654803066424	0.2971884004719004	0.6534371359539896	1.885932321555312	0.498110442096045	0.24135190187553882	0.7291308623024931	0.7034962159515039	0.3084483436903132	0.8477135279233582	0.8138670304731068	1.0149980757836286	0.7831140736835326	0.26802277497333193	1.3395715918098625	0.9743170117574628	1.3092843261087426	1.1228313417696156	1.0076770757029303	1.8202646924791637	1.623369212820332	1.7910553171714405	1.2710319725371075	1.6062095124699793	1.8020789577762377	1.5775222738491703	1.4347254001633722	1.0668393346554277	0.4158028949729952
-184	1.2248685329029876	0.6798713190079773	0.46881398440252486	1.0429507467640804	0.34905928285207793	0.1885557765968489	0.4364751566357381	0.6969768387363658	1.0454422209094012	0.6518595798247022	0.5161271678291368	0.9955223773617308	0.7600181679610519	0.2741972201100257	0.9634552573674666	1.1283665866973518	1.2155191867657038	0.7786084989916915	0.5229771124033646	1.4703719578812955	1.269496080054413	1.419064398997468	1.0882196398916697	1.1992452114344772	1.9186297606664846	1.8501396132487684	1.8458800269252942	1.1952038973196195	1.6558284717715834	1.9455394695752897	1.582030769168598	1.4280960523789012	1.0363308165134602	0.43872105964520447
-180	0.8321709611863238	0.852641043894499	0.5259039984776704	0.7176271658898867	0.37729176783672125	0.27295949986206725	0.3845236589737054	0.5873249158335839	-0.10257905695765707	0.6505560262467557	0.666509209380611	1.0583622428875845	0.7122747880118597	0.12103606729943192	0.91037654646861	1.2803488937477154	1.2342026202512475	0.690938113375483	0.6158137901970812	1.4098291361499962	1.38007521280898	1.384864922841748	0.9638015603527372	1.0954304905891012	1.8041890814052486	1.8497664881734164	1.7231098369963065	0.9992182229563424	1.4516818486755538	1.8147444679218727	1.3757952416970443	1.187062022073147	0.7873281220585132	0.2682404511355021
-176	0.22016273383344764	0.6942201835271087	0.5042439090395591	0.2363310748332378	0.2921000413672394	0.21937283818171727	0.142460628984308	0.3146543792886582	-1.1823912829110503	0.5209019767007486	0.6605215652001717	0.9019272900698069	0.5252264128775745	-0.09218756831259026	0.7327755671120167	1.24917423409742	1.1039587231420325	0.5389975295763568	0.5587713108260239	1.2220400540969574	1.3312066759832035	1.2627186743326937	0.811344561912581	0.7994941452821915	1.5514925679136073	1.6933461384935717	1.5125155410726228	0.7728264908352082	1.1111396523078623	1.523701783147957	1.0759253474727586	0.8392704704075961	0.4512304950288891	0.013081275824957973
-172	-0.5009860383736511	0.27829682756732654	0.39765563506817486	-0.24687443611280885	0.15811586340084466	0.06773016584700696	-0.19657398710688595	-0.0506737044664349	-1.8390618516266517	0.3488361826672469	0.5292806612003159	0.6045588239664946	0.2311800861482371	-0.261665552193896	0.538336156439599	1.089437124362778	0.9265186167212817	0.368821709416944	0.41156920686761067	1.0281730864315173	1.2114878862311431	1.1490739554957787	0.7121490222117012	0.48688712593175415	1.2984126773477387	1.5226623973549878	1.3409219946384843	0.6278895123841528	0.8201334455764568	1.266127463958792	0.8603321888183181	0.5753203019875499	0.22509850504786896	-0.1438773121777527
-168	-1.1681408852648392	-0.22996483685130226	0.19307140957247043	-0.5933909401217049	0.03625201424744265	-0.11202093185514049	-0.49423599118381467	-0.39140489598636125	-1.9002774905864768	0.21575494056111372	0.34433659824219065	0.29801773949721133	-0.07998243699145746	-0.3104812196998902	0.4203544248458421	0.8924764372227267	0.8184403160412418	0.23649090468779946	0.22620592954267735	0.9223725772458181	1.1114356489730695	1.1250725956168013	0.7238122206533237	0.29966109915416456	1.1596584290789798	1.459859844336669	1.2974652019167812	0.6334565265874741	0.7291445117661122	1.202007648294263	0.8623136260195837	0.5409179316215267	0.2590910487786125	-0.05549118281301751
-164	-1.629538889585456	-0.6639584882185329	-0.12163422971056514	-0.7473147492614355	-0.045576032136051194	-0.2478723966777636	-0.6294479354225155	-0.5971066936676214	-1.4473738633806443	0.15358436068859174	0.1868490721038206	0.10770903500542747	-0.30046993418172446	-0.24266008971460504	0.3987029184765567	0.7393810134339931	0.8522824623524355	0.18574330163790054	0.019227005492781092	0.910947797382695	1.0706931325582953	1.2120460241234106	0.8481512048288389	0.27445036103574766	1.1587409943889133	1.5330452880300676	1.3820118869221323	0.774224875402753	0.8727276899238022	1.3659563030088113	1.0907517644046247	0.7565573434801961	0.5700781330974343	0.29882597847832504
-160	-1.7968877508572765	-0.9205470657948911	-0.5322697149189656	-0.7506924252630396	-0.09082381404357247	-0.2868910424618575	-0.5490104542222498	-0.6131092294472262	-0.7609321455817302	0.13925863767273589	0.11892700165286318	0.10038042043137825	-0.3549633315184308	-0.14366684817758216	0.412022112759793	0.667916951877362	1.0220397684996148	0.23018386901913762	-0.2174207115644459	0.9095338560029032	1.0623775693773858	1.362048264879335	1.030133840821098	0.34051811609126315	1.2160015075500086	1.6599829155019392	1.5060869417312484	0.9584245061518355	1.154399630493014	1.647858973157366	1.4214712345474216	1.1074035139734841	1.0286517117278553	0.793784139536415
-156	-1.6668064552185982	-0.9747123693652597	-0.9716684793735552	-0.6996533853032472	-0.11243493081554391	-0.2066212440280828	-0.2840897433737763	-0.45866817120144077	-0.16815315144522797	0.12368512867456055	0.16554650622533054	0.26178499990172427	-0.2345414304772139	-0.12739746240399166	0.3606515219642746	0.6663414819106366	1.2492141692093186	0.35017007500930764	-0.4789125013180991	0.7971172312638396	1.0198663447380123	1.4868166409147279	1.187860009055385	0.3818051805393305	1.197501894788488	1.6976892905288101	1.5446083506687203	1.070880529560996	1.4021966421964882	1.8543977690607716	1.6638344484283112	1.4065086806072322	1.4257675373319847	1.2210218875574748
-152	-1.309449669392932	-0.8593341686487186	-1.3253738846694998	-0.6790656430265825	-0.11536422342737652	-0.02163110109172709	0.06757228804455674	-0.21215113943896396	0.11350087047769337	0.0681923924154925	0.3071288756722517	0.5076479898987319	-2.0322680887679087e-05	-0.26586863331426563	0.1687960024386687	0.6890602094419308	1.4206690752400597	0.5017551171032463	-0.7186171394324617	0.49125155682512345	0.8835226275071738	1.5036423168366027	1.2539561955263867	0.3180203429775934	0.9935573910423815	1.52580201240596	1.4054706061164448	1.0381500694767014	1.4607684575393312	1.813975329587633	1.6619254308702647	1.4932707510440018	1.57973110276968	1.3965409958866095
-148	-0.8339626171991038	-0.6375882609482277	-1.4751138649890745	-0.7159169298216644	-0.09977194641672493	0.2144684041092075	0.38214737080412203	0.026674628190404504	0.05568164945491639	-0.03727811938053122	0.4835897373864599	0.7203122359209494	0.24543330011390677	-0.5426574931749044	-0.17226344303507785	0.6813089234316853	1.437341805643827	0.6321991070044671	-0.8582648613241479	-0.00012548906638734693	0.6369302852762134	1.3707531655989345	1.2038478820924121	0.153154879421747	0.5813904389961501	1.1135611506003935	1.074202892452388	0.8644357897868088	1.267443176884242	1.4635100327734982	1.3695505822889824	1.3105969395926722	1.4219322168689505	1.2490918604785484
-144	-0.3477155855459764	-0.3800070276202864	-1.357394095808444	-0.7773118595525214	-0.07698646168345075	0.4202312220454024	0.5578788504820552	0.17820389523813537	-0.210853084389484	-0.1807968462909302	0.6126985534457606	0.7966384271535678	0.39965012568661334	-0.8590074755915296	-0.6027421936076168	0.6009461268511346	1.2512596814035561	0.6960540396282832	-0.8335736968929263	-0.5790546521825893	0.31307378332249497	1.0949027510655924	1.0543885204397316	-0.035579267799432227	0.037827044629913986	0.5335807786821349	0.609805642018891	0.6162987335857494	0.872850237073151	0.8712519981321788	0.8593749978302867	0.9209684706323892	1.0167403195460145	0.8429638722117782
-140	0.06834079307944736	-0.15483738442905762	-1.0118275855267407	-0.8116117099297898	-0.08057396838587616	0.511414824625092	0.5483799562914076	0.2051703477686234	-0.5091763125915592	-0.348184733703819	0.6188059433572514	0.6858073455661714	0.3970501412857528	-1.0884166928467995	-1.0296342346898522	0.43011039386875705	0.8754029847931464	0.6617748720626996	-0.6421413405418349	-1.10566258151328	-0.029145669118489988	0.7121099215648272	0.8372364619097712	-0.15235742888131043	-0.5003661500695521	-0.08024039099223289	0.10036861126116195	0.3685930361978405	0.4035800089183448	0.1916657085347979	0.2696224146234528	0.4613161671435467	0.51364695896165	0.3305918267963326
-136	0.37149467970514777	-0.020453397132970504	-0.5780116305062981	-0.7954156378690879	-0.15557171365083644	0.4360446024852901	0.3725366284978357	0.11222328962364203	-0.7318992000220967	-0.5352656231717471	0.46468052150707706	0.40462559359435485	0.2231804424850007	-1.1462302179007247	-1.372491475454775	0.17734837487267296	0.36807438638263695	0.510228751801701	-0.36054277329015644	-1.4642025195347503	-0.33950781736487107	0.25919836694125964	0.5685096368741299	-0.14343640172030114	-0.9036573744846893	-0.6031151398690348	-0.39102086326104296	0.14833252094488572	-0.007295099999963715	-0.4175000180194001	-0.2759076349921819	0.06732613576341705	0.06407128258264322	-0.13299676742353855
-132	0.552582918202488	-0.0071621765201760335	-0.23397582710320702	-0.7526125292849861	-0.3269840172618318	0.20508195408064467	0.10134501729650422	-0.06901402754048563	-0.889357743402018	-0.7416987996448771	0.17338928536507534	0.026815257898816384	-0.09227373427697613	-1.0351729366869766	-1.5929421146229221	-0.12594634262711493	-0.1957838083330936	0.2320222550733035	-0.1114466560053407	-1.611438627942922	-0.5992128237854424	-0.24347895322362312	0.2359675461056705	-0.02652106986204445	-1.1079534264247934	-0.9761660670430164	-0.8553405978542055	-0.08671934880773469	-0.28273186016225405	-0.8669047333764615	-0.7253549080655055	-0.18990798246597063	-0.24947434600786367	-0.4639492619244964
-128	0.6131536349074718	-0.10040554378908766	-0.11032794388095647	-0.7357804160614919	-0.5718340859280839	-0.10352275494426143	-0.1745145167474654	-0.30001866741726935	-1.0661145421767888	-0.9552741622648309	-0.17476087764486128	-0.35024508745456806	-0.4960638570182043	-0.8393354394702371	-1.6971900420254318	-0.43385535369053974	-0.7520522456255121	-0.17266729430473388	0.00231827888052472	-1.5856586654683373	-0.8203742483407415	-0.7887714485281053	-0.18674947274265238	0.12572458354678798	-1.1355495424210988	-1.2193057506294347	-1.324432488912294	-0.41749101771806174	-0.4249189485312172	-1.1578469247195398	-1.100479242407409	-0.3219609550453573	-0.4332596350698361	-0.6686591489122313
-124	0.5467122183348028	-0.2382116609757981	-0.22580891790599203	-0.7843415121302932	-0.81554853710262	-0.3741337945552046	-0.3818880309953591	-0.5489949570146473	-1.3238682713462746	-1.1397106618716526	-0.47211542606365364	-0.6464623792539173	-0.9311389303540257	-0.6732295138527796	-1.7139351324677736	-0.6973192674197359	-1.2626409498761029	-0.6880484205994231	-0.045211557184750485	-1.4756096564230643	-1.0264826987099551	-1.3653809989788919	-0.7092532497618894	0.23096834064820712	-1.072621342811911	-1.3996814454026065	-1.8289051009732789	-0.9000974870844669	-0.4950318025965241	-1.352993365686498	-1.4511967860775965	-0.39528024096826087	-0.5501539693293785	-0.8065009096764274
-120	0.33310234462561117	-0.33487841402382174	-0.4797089385795771	-0.8900333024441967	-0.9610768532329991	-0.5044621216435309	-0.4909346389296529	-0.7931075076106331	-1.6216146905011535	-1.239851590840928	-0.627962408864529	-0.8284010270184433	-1.3462711538657015	-0.6132490619435162	-1.667143817507175	-0.876166579895436	-1.714445944272209	-1.273579594257665	-0.18921758186728038	-1.3706324065889244	-1.228248712299666	-1.9409046124092573	-1.2981662717468594	0.2408183210968567	-1.0193865273487819	-1.5786102970321534	-2.3569076001742584	-1.5108246765139035	-0.5678090438812088	-1.5204242429493227	-1.7986131861098782	-0.4809490728156428	-0.6632990820350476	-0.9305793023456425
-116	-0.051481209565361646	-0.3221457890483391	-0.7058278304399409	-0.9943393443752157	-0.9379954910438069	-0.45207083111113333	-0.5165917860339879	-1.0112830374934476	-1.8119409038572958	-1.2056447237092744	-0.6055421813935162	-0.9120864845136092	-1.6943422513145432	-0.65065067842242	-1.5612728556315292	-0.9488207673912925	-2.1052534527078173	-1.8583089066317684	-0.3150843373926599	-1.3184310164543016	-1.4101743662516637	-2.458299869052789	-1.8738564205543067	0.156777873239466	-1.0399128172368381	-1.769636745753349	-2.841467134931088	-2.1347649043544994	-0.6885443312427023	-1.6866867499682099	-2.104709858348838	-0.6128073915268457	-0.7913959602402291	-1.0438877317775839
-112	-0.6047670229901694	-0.1869502807903937	-0.7587314824975341	-1.0212455962146325	-0.7417911868440458	-0.2501456731202739	-0.496494858203487	-1.1764149636130896	-1.7205053524447769	-1.0202974055279395	-0.4325820494697402	-0.9391930079589658	-1.927345151803538	-0.6939495188358671	-1.384318109831959	-0.9162181592697183	-2.4264595447313226	-2.346114152707002	-0.32989582336104756	-1.3084443774566883	-1.5355673989627256	-2.850244991735708	-2.3345823229021327	0.014115015940493972	-1.1354291410389565	-1.9321829031798736	-3.1866779246936696	-2.6094508105199243	-0.8556311704967519	-1.8269153787264103	-2.2902100028389913	-0.777004120772323	-0.9033007598958985	-1.0997559996495305
-108	-1.2627057997294548	0.019170220892905005	-0.5826641902517842	-0.920974550306141	-0.43787398823811763	0.017724918156814626	-0.4563727665346134	-1.252487537082829	-1.2605173555974067	-0.7140833717437132	-0.17942182674407833	-0.9394397115830683	-1.9967138716830253	-0.6217956527269919	-1.1234689922578127	-0.7971852401633567	-2.651693575839907	-2.635499709151057	-0.21816100125068721	-1.2845690217964478	-1.5642263849819824	-3.0628313940920453	-2.5951628619475993	-0.14790955148546625	-1.2501594988730695	-1.9999517151883393	-3.3166692173189642	-2.801778071005414	-1.031537768620593	-1.8911268663343723	-2.287555211967398	-0.931504843267378	-0.9490616297602218	-1.0438781950344438
-104	-1.8825733614121203	0.20703300781431277	-0.23130710364593277	-0.6997522694086799	-0.12696114150417623	0.2675754719177444	-0.3858843734058473	-1.2033588855879096	-0.5113723265134744	-0.3539580991868318	0.08112306127332193	-0.9036039091184608	-1.8663696003522618	-0.3551417878244378	-0.7806114534696668	-0.6182519181854629	-2.739404433009816	-2.6514685087018037	-0.04516077775282036	-1.176289197812931	-1.4720541201618995	-3.0760667246402944	-2.6210122042285278	-0.3043646208708049	-1.301750895074601	-1.9238232325619418	-3.218426219443835	-2.676481478609355	-1.169031378655535	-1.8442468596625718	-2.092977518519451	-1.0366830799631932	-0.9013729668747953	-0.8651825763793142
-100	-2.265241378787041	0.3016799680722546	0.1688067610770235	-0.41775578154948556	0.10801771255877868	0.4591736483901822	-0.24154500602296236	-1.0104439233064182	0.29294064567038436	-0.013992822693722632	0.30764654201081904	-0.7855378965572043	-1.5343097409611401	0.08877358563182909	-0.3781157126416936	-0.4042584289834655	-2.6494202546939136	-2.3780927598039985	0.08916933066981614	-0.9329909062671661	-1.262992736488679	-2.9104075358343002	-2.4395985541738576	-0.4436750996832033	-1.2214995591794988	-1.7042276816255835	-2.9532687589469115	-2.317908758033341	-1.2372955052608337	-1.694427128328489	-1.784389968181616	-1.0788969966351778	-0.7815781215961934	-0.6214451178119529
-96	-2.219949239848048	0.290780394535244	0.4896681892429852	-0.1540252711460433	0.2417222106314322	0.6081176980877583	0.023025613220016474	-0.6880601031097696	0.871415314858451	0.25635197693951967	0.49956059329744656	-0.5335037694812795	-1.0479562256103905	0.5928997978499957	0.047208446890135154	-0.17407798723139378	-2.3647530019183667	-1.87332355503136	0.11830655455522084	-0.5469397888679807	-0.9680048202870408	-2.6159241133447675	-2.1242349094164856	-0.5509901032841766	-0.9854286288177264	-1.3946806157185772	-2.629055731811369	-1.890413279528923	-1.2329591481550828	-1.4926274977192098	-1.491581078578175	-1.072851416740163	-0.6523172838907769	-0.42024037135835235
-92	-1.6463384586729848	0.23824599325110205	0.6650094373125592	0.04051735614441333	0.3129301957335936	0.7605248670450082	0.41500732197886436	-0.28750634120832036	1.0442297432284415	0.45111527925082917	0.6792091114061946	-0.13379526104525608	-0.501297830269684	0.9943467949557937	0.45922154072213833	0.05768894389607839	-1.9075143289089649	-1.2558529345276404	0.057163696591772874	-0.056202582873067175	-0.6332200749622471	-2.250357383768467	-1.7600055888562787	-0.5935952648434791	-0.6230308993821984	-1.075565216209935	-2.3469560087076844	-1.5569571217328184	-1.1728676527928832	-1.3047548499544068	-1.33268665930924	-1.0444068882322668	-0.5817199334716365	-0.36310446170684557
-88	-0.5957230910519435	0.25828975373859764	0.7124325019015372	0.17165860490374663	0.3940775682513419	0.947921929350349	0.8756439663713649	0.11506105185307253	0.8364604690413996	0.6023194178632924	0.8600736238699352	0.3606804898215623	-0.008520655312483232	1.1667891711340355	0.834442792216202	0.2750248902052871	-1.3395438160454671	-0.6662691218720619	-0.0006433791697545342	0.4689998316844653	-0.30479773802097176	-1.8571690274079617	-1.4090932572074573	-0.5246011601554593	-0.20380917140048563	-0.8150415399954406	-2.151038879685726	-1.3991126978835957	-1.0778622600044894	-1.1756818264842033	-1.352787610453253	-1.0091654036792141	-0.603421150114539	-0.48665940638696475
-84	0.7231822591642831	0.45864453795984694	0.7126869541294409	0.2953265599900746	0.5447982535912524	1.1538481683209443	1.2895847526416335	0.443970947336799	0.47508928059792394	0.7560446243271327	1.0244021389846782	0.8375094511821533	0.3374806932035004	1.0898926230570014	1.1654125422617787	0.45697390917797787	-0.7452842574376436	-0.21600966100991825	0.0626236943809605	0.9496077871189198	-0.016934119122189156	-1.4538762532720644	-1.0926308604310695	-0.3070421211120002	0.19093865107966332	-0.6384516938302641	-2.0071055838455094	-1.379978772493977	-0.9586237048741719	-1.1068087788294168	-1.4995870552349027	-0.9609387492714032	-0.6966930610233067	-0.7372257094843566
-80	2.0089528509917245	0.8831452705020535	0.7656390051584695	0.4848196792282948	0.7792597989435078	1.3166158166068949	1.5329368075768501	0.6544617397950917	0.2775186889317484	0.9464600658362786	1.1273844213632227	1.1702794999139807	0.5042552935266824	0.867022571758885	1.4574943744100852	0.5826541170668426	-0.20197583683995168	0.055390741536243966	0.3179078392108639	1.3238167729333188	0.21579025631305399	-1.0326786015187137	-0.7932721356390872	0.058817572743212095	0.5004059063675169	-0.5195938931698104	-1.8197139455628295	-1.3667557205025207	-0.8093733767101907	-1.0563755008729474	-1.6468089777376538	-0.8740975238665717	-0.7956919650015689	-0.9921158527121282
-76	2.9716112538652006	1.4767305813698803	0.9394242143754657	0.7830333689947104	1.0588198873490147	1.3628621066970434	1.5324809512547588	0.7479095440101474	0.47905528424429805	1.176149246107352	1.122068521527706	1.2765248981671602	0.5314419852190595	0.672273812980864	1.7170137123626499	0.6398628933964033	0.24516095159145443	0.18934477817890993	0.7422279100752124	1.5633594950305578	0.3982099284608641	-0.5743408188624288	-0.474995999329086	0.5207906352245892	0.7040513140068957	-0.39882770080007895	-1.481508251264434	-1.2029098241953056	-0.6140773280852239	-0.9623675322077068	-1.6545801120945594	-0.7194266897157572	-0.8235310295293655	-1.1186599703201863
-72	3.4343917283132472	2.0936489052365057	1.2380611865256852	1.1692151993795583	1.3133767810086885	1.2521125046588493	1.3045302596534603	0.7652177195302607	1.0922477217754207	1.4146689140842492	0.9902259682450064	1.157112595497761	0.5080056177664813	0.6555785520214285	1.9414907644844985	0.6333456023438272	0.5914899095860383	0.2802234284955373	1.2253165214119883	1.6773468213647769	0.5496135340165645	-0.06690757704769983	-0.10808633240590311	0.9879700516552431	0.8238114097776811	-0.21484278088209652	-0.9288833713921302	-0.7899230698669031	-0.3577290764359933	-0.7713671903208567	-1.4325569831919183	-0.4806400823379073	-0.728798924036577	-1.03682183957588
-68	3.3837096605701134	2.5452978546729836	1.5982632596671658	1.55748760306998	1.4725632630362855	1.001595375393273	0.9489189958456344	0.7610995154238369	1.8820279789138024	1.6103017289513468	0.7571058254200345	0.8934313632342623	0.5247640000445746	0.8607413150990234	2.1146774238601713	0.5851250276097679	0.8608896710594948	0.4228323091321886	1.6216283995694172	1.7018225150056794	0.694329796468574	0.4789661156959392	0.3120096616020066	1.36510955942727	0.9081298685987635	0.06601091457628509	-0.17747160747543494	-0.13812372053559424	-0.036111920980832386	-0.4583722043385558	-0.9742467974860946	-0.16213987726759996	-0.5045543300287656	-0.7516376953221459
-64	2.9456522390381625	2.6697289876290893	1.9122544478774048	1.8274240447636392	1.4898904524380343	0.6759783608535909	0.5991892799508155	0.7717227320260441	2.474115603876139	1.7081837610986275	0.4799593674939686	0.6031943544417413	0.625680206626486	1.1977126568118817	2.208430046227839	0.5244948254694485	1.0802177163507765	0.6609888656140309	1.817117686452258	1.6798700051810382	0.8501392581456579	1.024349567688119	0.7579424362119896	1.589861627379418	1.0047601436042768	0.43541598210075355	0.6775968057690909	0.6355901344464672	0.3386371425185128	-0.03162182114485206	-0.3503828933929409	0.212941765247591	-0.18363057030568739	-0.3409937015507253
-60	2.3020846785597433	2.392477029482037	2.064788097890549	1.8726328564094468	1.3502050604109452	0.34859648258888787	0.3539903154972516	0.7929005602844955	2.539849513317111	1.6669465261334666	0.217297106432655	0.3791637411081333	0.7832697610152929	1.4867162666931797	2.1906845514301128	0.47221177697168976	1.2558730808975236	0.9634023880476843	1.776918287559306	1.6404750305719438	1.0179175112773564	1.5087834558540791	1.176199433218126	1.6534349876620258	1.1347491712530757	0.8474019148412593	1.4955618343740937	1.3602684701908354	0.7387572508279935	0.4745426165997466	0.32999336636197624	0.6116189345176698	0.18373072100981838	0.09175892151077027
-56	1.5967255790451325	1.7576186612576299	1.9723178098473415	1.6443984466997335	1.0649701329999905	0.06076049044288891	0.22843930067561133	0.7819387296961742	1.9702901790464915	1.4703739844392127	-0.0010073819405111023	0.24598306355360455	0.9130926109148776	1.5573826988954402	2.0372612424912977	0.42834171544648	1.3669662441073358	1.2407958476210759	1.5493231972678394	1.585456605723059	1.1765533655979088	1.8676903200678605	1.502548213979868	1.5920309980251859	1.2789077726499745	1.2358322112352924	2.1415886824897368	1.8853096914375604	1.12403833582327	1.0089926694190912	0.9657154058869983	0.9976274345959484	0.5515843019864424	0.47125932455290614
-52	0.8836867190938261	0.9145027375974136	1.618447776522943	1.1771415442310673	0.664120553247268	-0.19414733301259457	0.1551042344230433	0.6869273764433179	0.946491000646839	1.1309753627832946	-0.18412417126898736	0.15987440903353548	0.9243643260506038	1.3431056703989621	1.7408411458886122	0.3711980273888496	1.3799962962594967	1.3969798052803382	1.2282794682962923	1.488461609897086	1.2862193551968222	2.0542914815535247	1.6824175076923065	1.4567713700707852	1.3816679681226467	1.5344520768525045	2.532676451964371	2.1402385180796935	1.445063587354983	1.5085355005324395	1.4921061954973203	1.3315706219432832	0.8857574440527399	0.7781678418539796
-48	0.14546374939908913	0.06786918623001396	1.0710645887035977	0.5830715283931508	0.19375522385792965	-0.4513997126149792	0.03338748953257557	0.48577031370541734	-0.1388715502093806	0.6880496126923156	-0.36520326045337764	0.04790696117107498	0.7768608908112894	0.9166779494983548	1.3156338896913442	0.26871913603648473	1.274463769556031	1.3822394574553103	0.8998184181383331	1.3066107001694478	1.2996915546028105	2.054952377853126	1.6875867801020459	1.279195305455645	1.3702441419338376	1.6903535084962447	2.6568701200162907	2.150403017336868	1.6455805260119345	1.8977533530959014	1.8796960067974977	1.5659462173979894	1.1543322772445876	1.0351009342762698
-44	-0.6384146197413074	-0.595568893836299	0.4660114038145842	0.015836777125548093	-0.2828944914351131	-0.7350876908816614	-0.20250880667102641	0.210185124939495	-0.8642374255294971	0.20090654441654207	-0.5714654908057235	-0.1386715915278252	0.5106327520829687	0.449598877486927	0.7972055057425291	0.09715170388727244	1.0634790632100541	1.2197174995145035	0.6042869075777157	1.0015844081386618	1.1794691056036697	1.8929566097150676	1.5267429313260088	1.0528963777661917	1.1825761765186766	1.6703509050158627	2.5622167522590518	2.0079317042200104	1.6684625106648565	2.094193691688377	2.1147882884991738	1.6441661077949856	1.3147317137903016	1.2669862476785476
-40	-1.4195057117862708	-0.975821790615663	-0.04208255548581185	-0.383417664990368	-0.6916395408334289	-1.0267338726824045	-0.5374828563471489	-0.06020660683213142	-0.9811909770034744	-0.2649764411911978	-0.8004216531571997	-0.3904274990238021	0.23131182731401928	0.1147334498250529	0.2347312712703442	-0.1447262313288229	0.7949438075022371	0.9910489891779871	0.3291818193230859	0.5593030438607227	0.912556884368989	1.6178327757997033	1.2440066306177302	0.7403728347205515	0.7915602306408153	1.4616812430671169	2.323593372200507	1.8156572534496584	1.46721541511125	2.024784083022677	2.18007969305845	1.5100142917655832	1.3120845523132205	1.4627364836955563
-36	-2.0558035321783694	-1.0901342602863109	-0.346612065155391	-0.5368710146700743	-0.963049349737571	-1.2632434336239715	-0.877997634578313	-0.2336980992615773	-0.5289462791439702	-0.6527385695189857	-1.0161106560801971	-0.6444020851078128	0.056766666328636105	-0.00943169181647829	-0.3177283100212537	-0.4322619129234599	0.5318861590308043	0.7894164303875914	0.03364719814507714	0.002595061196912966	0.5180339800153321	1.2856866088831649	0.9043836570794437	0.301580994559855	0.21879520957065735	1.073341486128269	2.0070824572433947	1.634567256615302	1.0239394877330996	1.6540303188525394	2.0532004781383106	1.1297926874246473	1.098685857859935	1.566703911640461
-32	-2.3665473401401544	-1.0592393848378847	-0.44455644376094944	-0.460898040561503	-1.0582535240157889	-1.369770881055516	-1.1031413050456464	-0.2559903257582581	0.19382762859998776	-0.9285879111687245	-1.169121024041051	-0.8237746337119476	0.05297626169061723	0.019872758487357006	-0.8108589032681772	-0.7250162940793914	0.3221161655399606	0.6661375744213748	-0.31349611203198474	-0.6093278511875777	0.04354998830886437	0.9396452880023796	0.5716776833405881	-0.27294316818944003	-0.4673816549898661	0.5392764197085568	1.648916001925144	1.4606459103899823	0.3675949266212742	1.011969921418105	1.725117559845852	0.5180999027522872	0.6665663702348062	1.507284518251052
-28	-2.2383568230382673	-1.0476084921136488	-0.4475251126911374	-0.2625778012798801	-0.9907219384929302	-1.3072588410750992	-1.1351996631571508	-0.14585208855998152	0.7785410861386207	-1.0903441878446798	-1.2270770041956296	-0.8873905517108177	0.19347956727770063	0.048205535737162276	-1.209128138350443	-0.9844952200829005	0.17399796799598483	0.6011719092449737	-0.7056294661826292	-1.1955757110927896	-0.4480053175105579	0.5977239593673569	0.283916979311331	-0.942370591168564	-1.1689487666180851	-0.08040472844804433	1.2551270691653984	1.2380890814993697	-0.41834384097335486	0.20307834395157853	1.2233252494443596	-0.24823738571912418	0.07238063197935059	1.2450137106933126
-24	-1.711007590742377	-1.177766081697447	-0.5242722021217745	-0.09173513180698435	-0.8241571167165056	-1.1004968853822181	-0.9844784115731162	0.010744441273503463	0.905012247661658	-1.1617192000622412	-1.1931371658718957	-0.8554018714288799	0.37193208838972763	-0.07808250914171636	-1.4934265575850512	-1.187181350571686	0.05495383949114343	0.5188675509704114	-1.0920187207307717	-1.6746997790969849	-0.8945428110425829	0.2548964911224242	0.03919451301334996	-1.6182401139410698	-1.7824150278866144	-0.7044172269202479	0.818989453632171	0.8995864964660977	-1.2070624797863225	-0.6158579572387483	0.6203961356711991	-1.0397396061395583	-0.5654722437886894	0.8078392127621904
-20	-0.9842355822509143	-1.456029649873073	-0.7951270321798141	-0.06851474923478514	-0.6428400857907727	-0.8273411372277233	-0.7412965278983037	0.10707796337988072	0.4901260125183491	-1.175193545235436	-1.1011397810791421	-0.7950178364708613	0.4606710660747714	-0.41172647372245347	-1.6594450431888441	-1.3266657557370998	-0.08649346210576746	0.33825880203675623	-1.3947153056217487	-1.9866611907391676	-1.2483637301398105	-0.10377747539306595	-0.19922739217049162	-2.190129274560787	-2.2246892396071987	-1.2461919753082575	0.34060338053539907	0.4099628020903249	-1.8616946888650414	-1.2873349157256218	0.014644741043726935	-1.711160774679063	-1.105673191140023	0.287626772392785
-16	-0.3307431331867129	-1.7515213445310809	-1.2352254359530108	-0.21750025396269784	-0.5058117496117726	-0.5734003767795371	-0.5199262486682389	0.07881569097408614	-0.2797935896008248	-1.1504006356758398	-0.9905055736329419	-0.7753596882317665	0.38419139288224385	-0.8596219994776123	-1.7113490061467884	-1.404413219720799	-0.287058203687708	0.029245508760881847	-1.5383771619103437	-2.1060018486257275	-1.4816725216650202	-0.4859477269301434	-0.47943222401690594	-2.5607428486067674	-2.451134198675983	-1.6361192423520452	-0.16334220725781237	-0.20889639801689883	-2.2780680598917415	-1.7109086470322996	-0.5084944950616949	-2.1502804701875187	-1.4409493171551047	-0.20103169926909323
-12	0.04418694961835811	-1.8481163931916207	-1.6474013286959361	-0.44349121935453545	-0.4131876517831107	-0.38158795141199503	-0.389266311139542	-0.052078172433021784	-1.0467070314683418	-1.0823883982987261	-0.8794665910450937	-0.8215234258891095	0.16567861992014163	-1.2209920852351623	-1.6565204816956784	-1.4185672962612963	-0.5440859184833402	-0.35898259191477727	-1.478875037274195	-2.0440039583098453	-1.5862400491720088	-0.881141243140475	-0.8291229584741401	-2.677070372498249	-2.462989085654719	-1.843137378807524	-0.6651713831320051	-0.8827319718962244	-2.4212860999964594	-1.8805619430746083	-0.9143483019631905	-2.318699115621067	-1.5461332758968038	-0.5781442508405885
-8	0.12473553387620465	-1.5419582089594077	-1.7331124500386794	-0.5645049200110719	-0.2997275583329213	-0.2236870819643124	-0.32854390061398786	-0.1787801976458524	-1.4511365853865252	-0.9409874653900432	-0.7508574109193613	-0.8935347176880419	-0.0806673986663257	-1.287335869399936	-1.498898502380196	-1.3565541471563898	-0.8112518766901893	-0.7147542816236111	-1.2201043336581192	-1.836848731171729	-1.5674465855124875	-1.2586805788686457	-1.2288680045573186	-2.545219653379236	-2.3004529418084916	-1.882588500991855	-1.13881647299299	-1.5118463001227744	-2.336879724324555	-1.8791497898341551	-1.2305028407500904	-2.2628862800686216	-1.4884540997118634	-0.8360399582735709
-4	0.10152077649234191	-0.7482451181593857	-1.2428759305091956	-0.395542173579065	-0.06883099657800372	-0.017673693552694957	-0.23870129823023054	-0.1624542321633517	-1.2851052251794934	-0.687223730736393	-0.5633565173230839	-0.905476567843286	-0.21049492007993295	-0.9496754979952137	-1.2367273537882693	-1.1992750137567896	-1.0172637675351104	-0.9184542871174661	-0.812733528946275	-1.5268468818262346	-1.437970396226041	-1.5745226105037775	-1.6061594445684944	-2.2232844773426788	-2.0244576879887113	-1.804976220342165	-1.5682111938937358	-2.005117172900823	-2.1269907897653626	-1.8295278503003198	-1.5210796556216182	-2.086535448528391	-1.3890126908519058	-1.0319497559242403
0	0.26919534734471534	0.4368762362894191	-0.1289344724737729	0.15289302131674865	0.3490830949076056	0.31799167314352883	-0.004034070287890628	0.08939951635677693	-0.5661708102236933	-0.29934498592139636	-0.28183379698169064	-0.7743577341556219	-0.1294925358602347	-0.25668075615927066	-0.8667885639240875	-0.9355227923615428	-1.0970673533397903	-0.902748165235581	-0.33863606963490955	-1.1461122007043674	-1.214552995476334	-1.7827221110157219	-1.856257672391647	-1.7961260034989701	-1.6937960343512006	-1.669732685641813	-1.9425724695751512	-2.3019976557785906	-1.900506610840415	-1.826659913219548	-1.8359608603853963	-1.896511907557654	-1.3543077673097665	-1.2368253438240324
4	0.8567936398808714	1.7593257382796872	1.3902589047617233	1.0152161095736665	0.9483674144642755	0.8063076118139089	0.4325369585560815	0.563766478068814	0.4917934524517308	0.20800699241096718	0.09290214604525648	-0.4698360550462304	0.1528836484863814	0.6058809741935642	-0.39112034341292196	-0.5769983515476748	-1.0186609004051181	-0.6861690861543999	0.11541785270637778	-0.7085655313722073	-0.9178841090869844	-1.8466907693014822	-1.8821103525326741	-1.3429093326995678	-1.3454855646495454	-1.5169732532348301	-2.242121452392776	-2.3771369397227935	-1.721347685282616	-1.8877724361441721	-2.166595215095669	-1.7502434209503228	-1.4161875212200024	-1.4747415743787473
8	1.8718975735133538	2.8968653605755224	2.8970320151618933	1.9784539888021861	1.631543751412059	1.3786735499859808	1.0186557744056806	1.1316571207085142	1.5835987289501008	0.7761112431958419	0.5089964257740811	-0.04004303355835922	0.5222265111136032	1.3984079325655507	0.17068578259766243	-0.16741475420645352	-0.7959389666488945	-0.36371666101178796	0.48494303104034603	-0.2184704685655797	-0.5769149646498445	-1.7499587491675943	-1.6379668671261278	-0.9124020911068981	-0.9899118517678331	-1.3545893396509745	-2.4290695129101576	-2.2338874283657137	-1.5825428922752152	-1.9502193878526586	-2.4390392241886976	-1.6333121020087906	-1.5154219827538222	-1.6940258698608743
12	3.055770627889779	3.5805270581444866	3.9524319072116203	2.7620625426175267	2.2391011658403435	1.8898919773070337	1.5975338180262462	1.5968100984312106	2.4340968070564006	1.313436147234735	0.8742395617347128	0.4009564806828574	0.8134962895835399	1.928376908201995	0.7724748830365659	0.22198949698191167	-0.48373010632455155	-0.05965305849749994	0.747811553974384	0.31149431984457965	-0.2325927907316531	-1.5044419727488905	-1.1563869685540975	-0.5138057457349308	-0.6207743867459888	-1.1671022147276056	-2.4549167094238795	-1.8954702567881891	-1.4200710022358933	-1.9181600760668402	-2.5519537861289576	-1.4789823256345198	-1.5400971135356398	-1.7915017559596809
16	3.986127366492392	3.699112167555781	4.298807133311595	3.138099900905795	2.6136369639212207	2.1765246336344424	1.9701174447863685	1.7839534237643833	2.884840957987473	1.7228326753988008	1.088572022550692	0.7175253015522228	0.8940168000537682	2.1210896915289186	1.342594024129502	0.5107543455580034	-0.15983790118870272	0.1311963942314822	0.9279378629144452	0.8441810586596633	0.06329444779866628	-1.1546444863731329	-0.5450132475444145	-0.12701836196301614	-0.23398014843994233	-0.9405373311138359	-2.2861070575215914	-1.4026108944766311	-1.1587867707559854	-1.7300355390738527	-2.439420693914297	-1.2176713912738197	-1.3964749539403651	-1.6779918628289074
20	4.274637688334774	3.326808682625396	3.969512929431068	3.0254883689788077	2.66244625373024	2.1245284026866185	1.978207225573439	1.6152880151020876	2.9191291258543948	1.9301741074467251	1.0791699859075599	0.8024134019619854	0.7241664510563295	2.0302081056835433	1.795065517661804	0.6314969046861412	0.09401110535966398	0.1788332308784074	1.079091307776655	1.31303643848788	0.2542723112839122	-0.7769615630560608	0.0446545741324725	0.2720452540204882	0.1533800657691399	-0.688924966503277	-1.9373266648017136	-0.8198804238600241	-0.766271529647229	-1.4074127638569027	-2.1214861816249635	-0.8290756919909525	-1.0717053386333155	-1.3458960022324324
24	3.759190073059006	2.6620585851215997	3.2454368986206346	2.5144424374992993	2.388073199918571	1.7134238438261813	1.5701520403320117	1.138753053651109	2.6294243269337296	1.9027912568688876	0.822592315981168	0.6112231596773604	0.36686167028309863	1.7878298714322085	2.0493578859086323	0.5477444515704168	0.20809468574437157	0.11449091852607417	1.2549624411369444	1.6351431566916677	0.29120629952341126	-0.4682156431774578	0.4655822503732849	0.6850034577241153	0.49602115029033056	-0.4631718087423315	-1.4881597719767055	-0.23874309598727375	-0.28286126184573473	-1.0527547571305629	-1.7067478852096136	-0.3650994291624411	-0.6488862617322336	-0.8918603040112392
28	2.5904285842343326	1.9265870999331984	2.4882984098553456	1.8148695184662957	1.876150007279473	1.0209039423916426	0.8238523581685384	0.5010378944144748	2.161371464040742	1.6536390739652214	0.34882521541263595	0.17307648019008384	-0.05135543258933223	1.5321220120848278	2.0549199529264497	0.26318517260860785	0.1396810110857091	-0.0012807376883253456	1.478798147282629	1.7413576797389314	0.14941087327427832	-0.31886681833823394	0.6238874777301029	1.0783224078609936	0.733391759928149	-0.3317308715551145	-1.0635917159883952	0.23500449896130476	0.19163954209580755	-0.7928842286118682	-1.3381519283841865	0.07195533048821016	-0.262752055458441	-0.4733910250632712
32	1.161329147267816	1.2698957888012676	1.9429472635805527	1.153369900652474	1.2490820853168298	0.1871302868171609	-0.08454440512769427	-0.12202952026313692	1.6584510761350792	1.2305104701446026	-0.2729381912016139	-0.4246194947966217	-0.406846581862368	1.3488799299516443	1.8090451910121288	-0.18171314849274886	-0.11622072726947523	-0.11965202509949993	1.7254484848328093	1.6079499680930265	-0.1582587208328494	-0.38072895907598325	0.5063126670452003	1.391130682294007	0.8157145360379003	-0.3442655495057978	-0.784297047065403	0.5085580932175096	0.546532152703391	-0.7034308296563504	-1.1138387890350563	0.3821555962450803	-0.02318522514509624	-0.2233729803883003
36	-0.07737353424564487	0.7277225833639406	1.6245090920441387	0.6735627634208775	0.6138728841541605	-0.6381626113038333	-0.9461828446341282	-0.5990346655026585	1.2221752374309667	0.6984897834308798	-0.9553860401827918	-1.0646531554998755	-0.6345174892617974	1.2496845690646985	1.3611185516324757	-0.7212749701409309	-0.5209382759293252	-0.22807812633150673	1.9293889950677259	1.2744148937474387	-0.578233955830749	-0.6421337111473229	0.17763538613770302	1.5625799854881532	0.7310726028104386	-0.49862518780702564	-0.7093135696622499	0.5362251983455634	0.718077777003251	-0.760666964517794	-1.0308039162359712	0.5220010863476318	0.048141401139545875	-0.17369002059953026
40	-0.8121277073383075	0.2613155239183362	1.3602180446614827	0.39706718821411546	0.0364101490949228	-1.3339453901944285	-1.5835220773771133	-0.8796622730933973	0.8975247718085222	0.12839500573643406	-1.6071498353435818	-1.6260125596001573	-0.7420703153948242	1.1943128078824772	0.8040673712456818	-1.2762678829395375	-0.993091878767861	-0.3453254392965178	2.0156111666334833	0.8392146804602272	-1.0248724196307686	-1.022928950588129	-0.2473902696085539	1.56638788781466	0.5205482827395445	-0.7311393004077739	-0.8025544265511679	0.34265205177580166	0.723252354226362	-0.852662978403721	-0.9888083313772478	0.5271172510190104	0.02740191847618214	-0.23766016900140619
44	-0.9754869913268049	-0.16072730679463437	0.9549369191855431	0.2564481192312997	-0.4507165539806109	-1.8210471822537992	-1.8921312045963021	-0.985191938773921	0.680943964192647	-0.4077402641015515	-2.140176529249284	-2.0051796385683893	-0.7834782580621907	1.1334547967904014	0.25340625579751236	-1.7651040509482037	-1.4249294960285586	-0.49532705420367357	1.9410983275042881	0.4306236494636221	-1.4029016459331114	-1.39945363645085	-0.646999357497343	1.434385534479721	0.2702180736395118	-0.9413998699262028	-0.9478606557756746	0.01898228931104783	0.6490329487626555	-0.8480131604718876	-0.8585103132507133	0.48895928140213896	0.0365858710378576	-0.26716425947447714
48	-0.716786203958874	-0.49202224488012347	0.3690386703233786	0.16865661697721337	-0.821153579069212	-2.0559906907624916	-1.8518928242657653	-0.9688461398459214	0.539615808555051	-0.8390015342510485	-2.476961606447689	-2.1343190616127052	-0.8145981410440759	1.0436215374346889	-0.18200583710017945	-2.1160306877117354	-1.714611525974977	-0.6808784586882042	1.7251731113746422	0.16244611103052156	-1.6376945931094813	-1.6531470972284874	-0.9326499676999116	1.2535316912473682	0.0803895218130844	-1.0412615511354106	-1.0094649766230988	-0.3109380296962954	0.6033643468882115	-0.6820978505079405	-0.5752320275088604	0.49978524320303785	0.16150161583179534	-0.15297488829614095
52	-0.27284941008344504	-0.5981801733173159	-0.21091894752179452	0.100561335428976	-1.0352696154205583	-2.023005957264227	-1.5161334237920652	-0.8763371087837079	0.4384434808151863	-1.103904125287556	-2.5654051239093274	-1.9989787289694823	-0.8613213875005129	0.9379423833054461	-0.42990732084452	-2.2832767905762226	-1.8059221460523622	-0.8776134826437055	1.4480228387513203	0.09295702702179487	-1.703194375506366	-1.7228529409779731	-1.0728869411083595	1.1340347499826016	0.02549373352051534	-1.0020443175765876	-0.9064267850878962	-0.5405933247268994	0.6568490250216084	-0.4061476279971741	-0.19898129949399654	0.5993764385349377	0.39153322478623864	0.09391134953630362
56	0.16934132533234195	-0.32899299180891417	-0.4658903169790287	0.0798502785931629	-1.0517835590510447	-1.7416298345462888	-0.9948556994116011	-0.7341564279140419	0.36170861033669727	-1.1710522145268978	-2.403666013371024	-1.6537588793009175	-0.9184367037473018	0.8471316077778853	-0.4795616555027089	-2.2663731517791788	-1.7184739069466708	-1.0495710346425684	1.215869066029652	0.20182354697293506	-1.6358545977299106	-1.6344397026758046	-1.0938366623918314	1.1616238326308415	0.12212158708734067	-0.872489688577815	-0.6578683240493388	-0.6219742282422881	0.8102776983784398	-0.16263151127762732	0.10488145771964726	0.7574986796327573	0.6230900867943109	0.3365962496842338
60	0.5292170630445011	0.35476958662107755	-0.15916988213406913	0.1431978490313511	-0.8730086066139193	-1.2914278474627248	-0.44123935588060664	-0.5703322276974702	0.31534558455005085	-1.0692864629451477	-2.0664334245007745	-1.2270776002420758	-0.9756916736764468	0.7838862518546482	-0.39605039258145924	-2.1262505000791214	-1.551805969135045	-1.1759223908299095	1.1067098351193394	0.39310794969490626	-1.5272974929395988	-1.4909931383635948	-1.0586472722981808	1.355255719577881	0.319780199912466	-0.7549651246083311	-0.37078478838766515	-0.577150224182179	1.0069724295941747	-0.09435775107164125	0.1627887185278255	0.903906581503866	0.7295513730703218	0.3939612497873564
64	0.7780629972840845	1.2768520084568615	0.6583108885356787	0.262250154548377	-0.5920480474783059	-0.8309900739670152	-0.03609123816914755	-0.4454416323382739	0.3066498629457237	-0.9067901350015296	-1.7113732056325062	-0.9017469264151718	-1.0479730341201747	0.7149422150681134	-0.31226238529521616	-1.9835544774520284	-1.4536716901317117	-1.270021077764269	1.1266758413479219	0.52713399992415	-1.4925051889884395	-1.422896381600403	-1.034373280774689	1.653150673507165	0.5221725689102177	-0.7470905165883566	-0.17213332609586168	-0.4720710802080527	1.1839772432952296	-0.23452781081591711	-0.08077250400654114	0.9898384188456553	0.6596871001754231	0.16823863940678124
68	0.8304131606116908	2.0397942014692774	1.589118238251656	0.30535206121598335	-0.4028118540607414	-0.5848748073116327	0.03895467137395993	-0.4628235388037882	0.309703170471279	-0.8581340887338409	-1.5497369727108254	-0.8682280756964236	-1.1843287914892273	0.5601406679316365	-0.39257964392727346	-1.9904048392587685	-1.5615826805742894	-1.3752844298926088	1.1999583214027696	0.47196125865033134	-1.6232881505036423	-1.5203535518407976	-1.0593285533862435	1.9373457382879935	0.6321547611488663	-0.8781037308457453	-0.12228427051426376	-0.36681231763734923	1.3310804333458879	-0.4438351679563435	-0.4827541696757857	1.043406364667593	0.5037193881668599	-0.25855314666319507
72	0.4778388130521484	2.1373610442557816	2.026542420039112	0.06808896345590713	-0.5512359128386097	-0.7870419601596691	-0.3577691307571812	-0.743491111308748	0.2404239916691795	-1.112793561986914	-1.7816311076005078	-1.2624155251101314	-1.447912450949475	0.2228233957625364	-0.7751927952268168	-2.278537982909964	-1.9423519323900391	-1.5392438134431896	1.2034649818553418	0.15663252731354815	-1.9450191210277143	-1.7819716885398944	-1.1232781381857238	2.0875506348356425	0.6014136060789277	-1.0742676230964507	-0.16083724756164502	-0.2686603658568846	1.5211313924531527	-0.4391072679400515	-0.7225926500196536	1.182930943363484	0.48206299421671533	-0.6207016690795464
76	-0.5532866106369296	1.1627844542709775	1.4382123910832183	-0.6255338176192873	-1.2306598393840325	-1.5870163400636035	-1.274530526758011	-1.366587516195389	-0.032088361599492334	-1.793432111980503	-2.5112106736677373	-2.1062254852523603	-1.8739050579443206	-0.3561085453579314	-1.5078436098176335	-2.8971664832401673	-2.554332011449491	-1.7775431826535533	1.0327103111896543	-0.39079573651829475	-2.3927364288954447	-2.1045548862728136	-1.1674156159490432	2.0413203187902536	0.4642028200827308	-1.1731052369063582	-0.11984980821152652	-0.11497269541799669	1.8899000835387028	0.09010086930891702	-0.4298604417915225	1.5737220009171757	0.8513786771259881	-0.5750277623917308
80	-2.4324107108692514	-0.9759282445109632	-0.3477067640585719	-1.802728052356203	-2.468911641563228	-2.9596681520124197	-2.6227352552953445	-2.3067600668841206	-0.6274315698994997	-2.8788914607795935	-3.6788535025220903	-3.2784819520192596	-2.4315566955210657	-1.1454430789638081	-2.5036544736593487	-3.7686455154637226	-3.2515895284573957	-2.050804133005811	0.6648957116506149	-1.035908458001648	-2.8196864056922553	-2.3210265577843803	-1.102371332246382	1.8327516271095023	0.3393343976513349	-0.9831141804669414	0.19790880332093835	0.2060164655013962	2.5736248428216797	1.3310940232048625	0.6389664395412448	2.3484694898439997	1.7739012196576824	0.1337285932502431
84	-5.030210482295057	-3.938234319280547	-3.0083010120733493	-3.276480666471334	-4.0642771618273095	-4.6650819660660385	-4.168311585392773	-3.4071974668310028	-1.5684993227458526	-4.170046318969936	-5.045549856798565	-4.532705772400012	-3.0143196506689933	-2.001404280377848	-3.54070972502358	-4.687047946540365	-3.828925123084358	-2.2663545551300555	0.18800593865134535	-1.5673704107766568	-3.0383384151042017	-2.268072837825302	-0.8371256568754135	1.5894634683533235	0.39628770847403333	-0.36283534673636414	0.915610549522412	0.8061959127098818	3.6346154121186443	3.238881341386209	2.4625372824484626	3.530874481823314	3.217273227198211	1.5340053996456855
88	-7.826945285109468	-7.002092820608769	-5.816393837548904	-4.677953231444919	-5.613332257403626	-6.28869913420801	-5.5701494076286195	-4.4070005305604045	-2.7157308986762754	-5.325236783887833	-6.245770438637684	-5.557434544837235	-3.463110676604997	-2.69692062650697	-4.315354336333781	-5.368374810970082	-4.086101998503164	-2.3026475848235806	-0.2225740099294258	-1.7567305520527188	-2.8795318530814433	-1.8490288210915387	-0.30756217163635247	1.4871150217657203	0.7963615039746405	0.7167578917526771	2.00978302448206	1.7425502494685865	5.012436854105068	5.524982438443338	4.727424132809275	5.001520144232727	4.9380869740742765	3.3858303938258674
92	-10.02310273500904	-9.288578009995861	-7.921264628438229	-5.586075768672393	-6.63977382890879	-7.365411739826975	-6.468735201716109	-5.021563040452875	-3.7685959243993947	-5.968867286870977	-6.902047616698761	-6.0652971114566165	-3.6168906597372477	-2.996872894350127	-4.542600620244903	-5.5438294270737325	-3.8888285061881214	-2.050323957988713	-0.3739650538062715	-1.4360270463926907	-2.252552503620713	-1.0661873790525205	0.5037423955596851	1.6771944718931155	1.6258265931089275	2.150608772570113	3.30685590862792	2.981794588190076	6.523803217629322	7.749221305355751	6.929137689262201	6.52255771897524	6.559390051493331	5.259411321712718
96	-10.828848811465937	-10.072599385579874	-8.678299881959028	-5.694485173153325	-6.770631296229774	-7.539287071266644	-6.593672258895791	-5.04045771279897	-4.352786053158221	-5.828930363243571	-6.755975706209402	-5.877222046318668	-3.365354052630007	-2.7486739089233025	-4.061787118193459	-5.058047758683514	-3.201545468830327	-1.4503066503147681	-0.13914638722574602	-0.5627428875066705	-1.1809103459107	-0.008733171947603036	1.5635482033354402	2.22011732494589	2.849112265069256	3.7281086350729042	4.5529923324073875	4.401020038937321	7.911724547438146	9.472635245248934	8.557251908631832	7.810357550928936	7.705876807784522	6.696207029602491
100	-9.817142461786364	-9.05696008302937	-7.876569251201221	-4.934940325675239	-5.885438904208078	-6.695521337770726	-5.85209082079618	-4.400644768094763	-4.171446789700043	-4.846476542634428	-5.7635159346977884	-4.972891795000807	-2.6830089024515176	-1.9531694601337235	-2.9039392397996058	-3.931345929710536	-2.084613317948527	-0.5149288760535978	0.4857155966416517	0.7534027080587785	0.199930205436425	1.1924545734816512	2.7981316972658408	3.0522446555323484	4.301667679416433	5.197934137572279	5.520823464759991	5.823340878089225	8.922363258723198	10.401697132551716	9.280936217717791	8.623738267106548	8.135048845732948	7.376938801260274
104	-7.158323746727995	-6.491579516233628	-5.7758006903735595	-3.500897875529979	-4.170576561888519	-5.008447157612455	-4.366152752343223	-3.2076976218299307	-3.1480410019549145	-3.207749358661465	-4.115211476426496	-3.4946114928706797	-1.636812086741165	-0.7752084116437086	-1.2895418372975036	-2.3594999253782847	-0.6675179583862428	0.6692674739152731	1.3730267251635067	2.2748801650786232	1.680127616455107	2.4130725799671477	4.108164300083205	3.9989590543872415	5.727107987249426	6.339604361740619	6.09497831713119	7.06756303910192	9.375535941294867	10.460844967180213	9.050982452429228	8.829316116929311	7.8055534165721685	7.219385605704688
108	-3.5941574482773095	-3.0772697847874033	-2.9586656018898285	-1.761247868859551	-2.0489089437253174	-2.879649155022065	-2.4393618045254075	-1.6970409112045803	-1.4841790161807866	-1.2785141435768717	-2.168707365282597	-1.7034618811514426	-0.36841338779894106	0.5146381842017621	0.4481540907035417	-0.6468569620013341	0.8868741966744321	1.957839126412217	2.3124792517451693	3.7084903623410637	3.0358631534222185	3.5625226407705095	5.380693898921157	4.831447112282969	6.849801046243512	7.0164050878761	6.294920905432536	7.990861395688052	9.204483008987477	9.77347752964563	8.081306437116194	8.423135736179916	6.861876947244518	6.373427851798046
112	-0.15199679097900745	0.2979601614105037	-0.09270440763671337	-0.11149448128207161	-0.018435195041842142	-0.7931802252770755	-0.4633809912426426	-0.15543180664874062	0.4011754085425646	0.5303077684364922	-0.322754501481571	0.09466458833158968	0.9397706365700257	1.641136046080834	1.9807499597131373	0.8979303814151947	2.411686891188908	3.177838079058639	3.0910873335043485	4.798263537690237	4.08925055425083	4.5795540694008725	6.494278891379401	5.342958436827709	7.45683668161275	7.193934899287012	6.22765110350887	8.508810975526595	8.455953576673231	8.575350739762895	6.730806810551512	7.508401851770647	5.554472909255113	5.132347093975663
116	2.2768034877513794	2.8791592048432486	2.2838087024248552	1.1650459736973355	1.529746170950079	0.8530727007308725	1.2022727697535545	1.1640281647857207	2.0325913377942255	1.9087467145412294	1.1165703506889264	1.6300151306960087	2.1045815891536055	2.4238841472463695	3.095295182996288	2.0616269059582226	3.7555653954100765	4.163611878373389	3.5702438264352194	5.405510411920025	4.749439227510772	5.408966050796798	7.320966225260234	5.4158696991558335	7.461825351949276	6.927543145809196	6.003219589335515	8.589131333600173	7.2606658752232685	7.113065224808571	5.350346074901099	6.248825534302578	4.140904416119929	3.81176470747827
120	3.294814816739376	4.289023865361441	3.8794350526138155	1.9687812278631676	2.43732904772512	1.872380967181262	2.336334222616948	2.105293507029005	3.06901835620411	2.744652741178328	2.0256881662723476	2.7354543140012346	2.981543056589759	2.8315689492260976	3.7521085644404106	2.783658497458022	4.798750388427533	4.795272815041537	3.726078024039823	5.545497403448916	5.0256743304205225	5.9844636766021075	7.733517627264296	5.055336462608817	6.928146821649957	6.33317659686427	5.6659722185133985	8.231616953094118	5.79270504442634	5.577367768511273	4.167181481330685	4.822025763734979	2.813995831060627	2.652520888307301
124	3.120984069573886	4.602457511725859	4.658769595781683	2.3725566804112375	2.801253788551293	2.325108522266872	2.912803404129643	2.637075179117782	3.432991496001719	3.1350753228189485	2.4790720877045676	3.3827233229108606	3.499247065292448	2.9674022122803683	4.070926655981664	3.153809777880291	5.472999558935911	5.031027304344996	3.642921200137835	5.368660436427125	5.0141868464712545	6.238667472347023	7.626366596040685	4.381153095628105	6.044913276669213	5.557903275762565	5.182716356543805	7.450930099749001	4.233907212058215	4.092335213819458	3.2507719911517206	3.388743868855133	1.678882594638182	1.7791899397752502
128	2.422775739274925	4.237050045759997	4.780070292802088	2.5486524040724734	2.8951518462518457	2.4600553450462814	3.090033761805959	2.841370336988217	3.318248740401524	3.316617242068851	2.6927485398018054	3.679474106081925	3.6794609930601077	3.0031788273328637	4.259845722887501	3.3590466891357993	5.7832646223920685	4.919137465455128	3.4693596275474716	5.097335802560152	4.867539870370555	6.140305503601223	6.949184400179606	3.5836205392005187	5.066432940089346	4.759098994637262	4.49301480112571	6.273861869230823	2.7506349017314617	2.7465259959496	2.55778359721043	2.0806093163412047	0.7722064833218198	1.2107776372857928
132	1.955072278808729	3.7308344746808904	4.517141330758401	2.685675137414879	3.0380349082537714	2.5968186789752794	3.1410405556530088	2.876205437074217	3.0798821371520235	3.555830469690604	2.9284412786934326	3.8307945631583737	3.635237684608528	3.097519866752268	4.525864112871387	3.6089713482338044	5.82204197367356	4.5844783667212035	3.359768859010075	4.947116839316371	4.758961665536046	5.739459500127178	5.741657719420944	2.862163774893482	4.239097107674994	4.093046178020544	3.5911669640471886	4.753962504782066	1.4816621504568555	1.6330934721723065	2.0187795111231646	0.9994737480678494	0.09917029713388115	0.9011465884345099
136	2.199152225664105	3.516439428988055	4.185900200765847	2.9293136522721626	3.46901344377149	3.0006101055681085	3.3505234633730168	2.92330431200108	3.0628642958558783	4.048185815127214	3.3989908609404678	4.073462952819742	3.537857046731832	3.338063708460627	5.00516174960073	4.069707860208374	5.759560093643323	4.1870040787843	3.42516850560399	5.062746512028585	4.848165976681677	5.188430773033284	4.149834145559053	2.368096107226088	3.7402346039753946	3.7043836023264074	2.5870456630240017	2.990473501284619	0.5302205072367614	0.8650181271647941	1.612255092364994	0.21743856315551105	-0.33883741412445245	0.7790330628753547
140	3.1799576202215007	3.784589281063727	4.078748692705079	3.3613459979068496	4.276461590460297	3.798327913231189	3.9165432354272305	3.135051719379677	3.4594676407255225	4.863468157886939	4.208893765313507	4.600692260570648	3.559553137375297	3.7337388898041723	5.735384449783462	4.825901972984226	5.801152691499738	3.8661289117477518	3.704655399505897	5.48885201022035	5.2509493695246094	4.715055453793871	2.408148282646817	2.1667094175947703	3.6463351157633714	3.7086388971154687	1.7044991211772054	1.1356767387327285	-0.043275430689270616	0.553355513606116	1.3888845408659622	-0.22687816562591817	-0.5377098308338805	0.7734770159266443
144	4.5334439163190465	4.474564541009939	4.397010315284114	4.001758088498827	5.3961896760121615	4.958158957361002	4.888381468828677	3.5890781788809534	4.2578496825483025	5.946669563538348	5.341976629121448	5.498828874056245	3.8074171446993295	4.246260632284594	6.667218191479881	5.873781666230918	6.119374259757585	3.68993877432943	4.163032044390477	6.177236541410813	6.014335140302324	4.550276267961119	0.7857443074415403	2.2277858201047516	3.934064855179746	4.167469014136356	1.2108641832297882	-0.6203600152565565	-0.22899722995162272	0.7618213872748891	1.4410954677437249	-0.33534082685682176	-0.5021911250786775	0.8267472961533253
148	5.762612328285275	5.371401296405557	5.188425527824557	4.8112106201770795	6.661861402858151	6.327211840867367	6.160285934153804	4.263514507973453	5.280404554386766	7.158606511162096	6.6875657866433516	6.71754501554105	4.278180111574122	4.827224242420584	7.69641111338093	7.135422211751637	6.785849554095404	3.635739078879113	4.708095061813154	7.017903787060549	7.100477200700948	4.838026511375245	-0.48903563495190344	2.443395846873621	4.505600917884705	5.063583838076275	1.308075782334328	-2.089704031436651	-0.0724153814871669	1.4642196856724023	1.8391892863568597	-0.15532535275344056	-0.26317122512176566	0.8983638859955516
152	6.526674730988772	6.24232433650405	6.322621806394092	5.693990693021516	7.8786434928341675	7.704143981555986	7.522604923329026	5.0471210352308775	6.279513343215577	8.333298662126948	8.08859918459534	8.089010218224674	4.861747252587329	5.437911019900966	8.699906327216977	8.485247590576321	7.73802183104931	3.6158428100847417	5.216801153363267	7.8798479834927475	8.389078119078404	5.573297009701971	-1.2936974731207518	2.6666870049860125	5.227294908677349	6.291526301711858	2.0421411939560277	-3.133777848914754	0.3330221465762684	2.5337340767785954	2.574582570251513	0.2265216404440943	0.11642719030787532	0.9678317880036947
156	6.803179246892227	6.941535455344181	7.531915645656593	6.508927328842417	8.889031387774638	8.913574196245388	8.74717042621874	5.781798824971453	7.040091973650037	9.329935050296717	9.391942954192897	9.391031241548715	5.393951879234364	6.0428919639606935	9.566125845598831	9.781474088768507	8.801205612849893	3.5340969473303145	5.569749818091053	8.648502328018147	9.70527551108003	6.602478487511252	-1.6362707573586817	2.7626345087873476	5.9699163286163754	7.676746349026282	3.2790985024632597	-3.696665039266061	0.8687506892204947	3.775358667378536	3.543384543055767	0.7048808318461405	0.553880690129906	1.0366754505686813
160	6.849506360880487	7.445051174440358	8.521339394989592	7.100422364427893	9.610540365750367	9.85435864821584	9.670619940183641	6.324572070366219	7.438665848070981	10.063744519574398	10.48339268898608	10.42804429282455	5.735383496109148	6.587494356689708	10.213605854950428	10.894205065878566	9.757781957785843	3.3468909179109967	5.686567292161352	9.247967696682865	10.865801783784748	7.68710563626209	-1.6296499926430366	2.653923027967457	6.637170774868731	9.018859840510817	4.758848178292681	-3.809447994150989	1.422654386743226	4.986176955031963	4.577337253457983	1.1838768690736814	0.9703992580709124	1.1243687839730703
164	7.011227590025403	7.819833735749982	9.099734283360828	7.35195634893077	10.041949246802277	10.511131260083038	10.24423310554449	6.605819208633189	7.451384048722464	10.515355083619738	11.303383798671172	11.098427744501135	5.8395743222621075	6.987515908719303	10.60315606301232	11.729453057239006	10.435703251240273	3.096811763574124	5.552608475971246	9.648972486930191	11.731312722151301	8.604014374944432	-1.4248130285529614	2.3484973848176844	7.179656964294984	10.147438023696589	6.202229960994927	-3.5609283357360826	1.92141770831417	6.019501670898411	5.508722768226821	1.605315085172738	1.3177101578822081	1.2588263718293984
168	7.50341651929422	8.167830446602332	9.268880820714536	7.243288975547903	10.2456645706898	10.933762522748907	10.532931301226728	6.657183630347989	7.134449463951358	10.723685237512699	11.845492333069082	11.420193643346959	5.773923382486454	7.148945313524134	10.744772883943833	12.245799987392873	10.774755450701631	2.898519747091731	5.230481134560418	9.865511869318052	12.245475738126114	9.233812308840186	-1.1360839576648059	1.93957733618275	7.595291595356203	10.969872446974145	7.419697265965551	-3.04941271965693	2.352318042538141	6.826483232429093	6.238964065058677	1.9671974132461947	1.596661444447516	1.4668884240308377
172	8.278510072787736	8.559253671016915	9.207201934456686	6.869799119770903	10.307382557594524	11.19130036389556	10.661083194518898	6.588382704313198	6.592798216387012	10.758767100827447	12.135932891722996	11.499128312642297	5.677172169656997	7.00792596955034	10.688326808646893	12.452866522819788	10.834526988331485	2.8804747985594092	4.841554629499883	9.937826131525611	12.439059226101719	9.59176347218205	-0.7975181321035867	1.5721232851390465	7.91484163193345	11.488080949388939	8.367315271232957	-2.3418652952195607	2.763033859906334	7.45700834298927	6.776698095378275	2.32227873215866	1.8586389971537012	1.7702277854094497
176	9.051850296054967	8.983732200829	9.147608733923551	6.402094348002525	10.28851506496638	11.322765321754563	10.734286281187106	6.521689398512344	5.952056869738126	10.684046718325668	12.204277961435695	11.457851380983815	5.6752724504235115	6.5695056749419125	10.498098346907936	12.392291037743234	10.743230792578098	3.1121308724984598	4.519860733064767	9.908517812507812	12.398019759347424	9.78993222625936	-0.3695606579986812	1.387641784025533	8.179296472879535	11.778427094285767	9.128026939234221	-1.4606562815981472	3.2389972128153603	8.023334482916855	7.2277426537182565	2.7567107607859462	2.1893124525108476	2.1883547250810147
180	9.457996344529057	9.343086219086755	9.221969581208953	6.003086551768712	10.190443013212034	11.307904214919525	10.778150531259465	6.52031086229146	5.335469709277037	10.52156922544975	12.058526008678683	11.364109010615023	5.804235920556895	5.917202457747267	10.219264958329696	12.109381645146966	10.616911861317433	3.555976858697803	4.353650082086704	9.800801252416	12.211664168997613	9.955292676586494	0.2112785274416554	1.4674947224759622	8.417645433154227	11.944442718866618	9.83398053547432	-0.40495616095344455	3.8650615117718092	8.642872788542613	7.739596824178879	3.354237786407462	2.6777543953999645	2.7406654288715004
184	9.227473235675038	9.47088334553412	9.357894873834525	5.735212311569786	9.943320249248558	11.06712433881845	10.71870991861657	6.543095095327197	4.8334960815465955	10.233194325359957	11.673109025093662	11.191672296878021	5.978835090800889	5.180199610029163	9.849850629733568	11.626365632267342	10.490764591433287	4.070184220528216	4.339949120054644	9.605903601235706	11.92511174052187	10.1484403354006	0.967973170220745	1.798236127127981	8.63182923998651	12.063310592712014	10.574562999730018	0.8085842708200017	4.6855549694018	9.38404653087299	8.426131227200186	4.158017148010317	3.3804907713417904	3.441567889107507
188	8.297933557540942	9.18211362427833	9.302616095897918	5.517654405014574	9.43647382261074	10.49891278477209	10.419728252806484	6.456139071376818	4.472985733183115	9.736283277725377	11.002057047722964	10.838372203165525	6.0280785408413555	4.476719844959576	9.339862799905442	10.935617419289635	10.302734348988096	4.4645376092725595	4.381177414323112	9.28975389042502	11.523670167438732	10.329685185101692	1.843623633498374	2.277852052659621	8.797106720648328	12.152885406328632	11.341134996390801	2.114379877474204	5.680189118349331	10.237569783112582	9.308552718502558	5.146482931494905	4.293782223351137	4.2863640676997
192	6.8261728114398865	8.350592592136996	8.772310234810053	5.172284113222976	8.585414864798521	9.544239020092567	9.763697599555575	6.1050200308204365	4.206174839844296	8.955088592808055	10.017733548621228	10.19551751423682	5.785635456736669	3.8707227609182824	8.627388932380535	10.02168843600138	9.94093606346356	4.587015617233596	4.330451954398691	8.82085607208983	10.959659548745535	10.392460796820641	2.7139475277090983	2.764075987512956	8.88067433976107	12.175818412557353	12.037660568362712	3.3992824468619727	6.769180757598182	11.124673815296688	10.30137536309065	6.23686931942798	5.347860322801662	5.23397348989828
196	5.103579508293899	6.981673223034591	7.637722472934622	4.532273757935771	7.400513630302315	8.24206159418103	8.728438355343183	5.404295907681148	3.9314496417921836	7.88133809960837	8.752639748409521	9.225703216148256	5.181451307566286	3.360789290526053	7.691367606771349	8.89657113690111	9.322986579244924	4.392398346301618	4.06935261652641	8.201517084395698	10.20174023913566	10.238889668363155	3.443192711719982	3.142344466858823	8.865573860673218	12.073558776890241	12.545305220401344	4.540699947337104	7.8443274299935615	11.93452545967535	11.24972340604542	7.315180760034362	6.427605135901984	6.201643451291818
200	3.4317786606928915	5.24727867709003	6.0355572548117316	3.5543410688307167	6.017093643255564	6.743752462526884	7.418889026984438	4.39716194950004	3.5431404024313835	6.608436567787958	7.31819866240101	8.005324343496994	4.285392750410892	2.903990022956826	6.589066488796335	7.625586013614678	8.461139657592755	3.9606323142191147	3.578259459044377	7.483815174281452	9.276328063432551	9.8517331828294	3.9518144030933064	3.378465405517436	8.76570031813973	11.80966278909216	12.800678220855222	5.461146817724381	8.810210205722665	12.571991888729963	11.999803512794228	8.278414705356337	7.411577206019012	7.081546288730922
204	2.029492373110888	3.4555997761265234	4.330060471092795	2.3676705300634664	4.6636004330192415	5.274443136249961	6.038311943067717	3.252489081754075	2.9877226277258906	5.316545473027208	5.887008175291762	6.709289533841922	3.2815823472140684	2.4607493815282937	5.455273614461621	6.327887519118835	7.47777412433943	3.4585788162648763	2.9571685716354295	6.761695367907608	8.278670290072489	9.322863555258419	4.25965689537333	3.5307359606292055	8.626901604806081	11.40223404866574	12.844823804850211	6.169331058184922	9.620466208010463	12.997898068990102	12.470440833078152	9.073785758951244	8.217134454961737	7.778429011733425
208	0.9989302729181596	1.9497847507840538	2.9388158247182647	1.2251533238950054	3.5734202771565697	4.051267613672899	4.80805157401196	2.1949891988649233	2.2975594939398203	4.207315434323839	4.639198768346963	5.542446122481278	2.385714048084317	2.02597546065944	4.456728447152384	5.1455721725250365	6.559883101113669	3.06232690037994	2.3848209320892577	6.14012955069029	7.345060806803405	8.820130325936878	4.4772405511350195	3.7147688771872724	8.512591340507285	10.928441020076797	12.814537969660561	6.7595491238639545	10.291400883440538	13.243822064340884	12.689847914128206	9.71536443164782	8.82998368894911	8.25096319022789
212	0.3414066127263643	0.9713974570544457	2.12125157774372	0.37871587180842176	2.8797056602251696	3.195940724886958	3.8776590726225715	1.4055353367605075	1.5769150217297319	3.4175279054188126	3.6970493700146023	4.656001079248146	1.7510185197490251	1.627389188472414	3.72298621191384	4.196699608697565	5.879575714525616	2.882644884460913	2.0356776662929033	5.69817875377144	6.603286249655209	8.513360955678682	4.749728190827914	4.0394039052067585	8.482903459112512	10.501793834874679	12.882780042547349	7.365205269337994	10.88762566678629	13.39790150120773	12.781014410174889	10.27069852143226	9.304118132942465	8.533779122741388
216	-0.0024986076105632175	0.5551630244543662	1.8523871851882843	-0.05241597803114314	2.5525574619697187	2.6887998513046947	3.272671691261224	0.9449065899834198	0.9452182030655187	2.961326114807306	3.0831661146522773	4.094349373970623	1.413773652321983	1.2991237607581136	3.2946228897836836	3.538691273338002	5.525287137386661	2.930547945253055	1.993931169244067	5.467877374195425	6.130401595850349	8.501672723286317	5.184026705051239	4.548048007926463	8.580097176823665	10.236117337132363	13.181243863204934	8.089245775780231	11.488844842514451	13.57015415580213	12.903987851942047	10.825363131848272	9.731930708156288	8.724177338508238
220	-0.11629779607497523	0.515742598662017	1.8580390168009069	-0.14022357726456844	2.4195423065133133	2.3922975002924267	2.9069144652407024	0.7415047269219784	0.4766323256379734	2.7365879943420004	2.726624005109344	3.7997012042433465	1.30307471423172	1.0511586639567974	3.120264522303974	3.1628615776316074	5.48051594304169	3.135008804035547	2.217362398271327	5.441687093347243	5.940743431351162	8.781974770308114	5.798619732521757	5.19991396544814	8.82841680205121	10.214417431791642	13.746805156332693	8.949205375964999	12.155932395761857	13.854341471979158	13.18535706052121	11.444657296849646	10.199892018315131	8.938389755569942
224	-0.08541682340990783	0.5465064034969129	1.7941133930685658	-0.09676395332224572	2.264764303211463	2.135036224696832	2.6508865289516863	0.6486403925731559	0.17232267515067384	2.595185988549714	2.515611403789683	3.668380966461495	1.3037137952313882	0.8638913013581603	3.1043579500022154	3.021558753967977	5.656848893188533	3.3980898771323176	2.5748290950616814	5.601571545763397	6.006860241029204	9.271322226958372	6.52046964906474	5.901189789178076	9.244951224827687	10.474189731855994	14.516382180756885	9.865712140923991	12.91219135839106	14.301897012841376	13.668885196507448	12.151209800558938	10.7519511905053	9.257747626772918
228	0.01283703648038171	0.3845793595141074	1.4564568959657442	-0.14340215885196414	1.9521849106138094	1.8101054384307165	2.4146206317973458	0.5362634049227679	-0.01611760254605318	2.435488456299103	2.3653016030674943	3.6206324009082205	1.3311270441779846	0.7143037301148915	3.1737747112252706	3.0669112128073306	5.9553999750458475	3.6527485755250106	2.929536335224481	5.945444568882018	6.293121798839178	9.863141988647765	7.227609139314297	6.564860327358426	9.846890424662917	11.008039446694676	15.366573294943366	10.70103165785798	13.743694270720429	14.914598427310079	14.30834480487832	12.92511841371731	11.376683206445094	9.692743276919778
232	0.12161025374226477	-0.03992507596664654	0.8981661773893308	-0.3752240231100387	1.5060706100586212	1.4344316684746605	2.198219293766436	0.3646248867842599	-0.1302852925349071	2.263770812994855	2.2622575702771184	3.642139425618935	1.3725087608017164	0.61045968378436	3.3222792064710602	3.2756047166139264	6.317704184793959	3.8903975388532275	3.225151053868995	6.490945799651977	6.77681015211017	10.480866405728298	7.811288337059398	7.1625051317577215	10.64487168485524	11.772220581850267	16.172042805849205	11.326132745757292	14.612604104342072	15.653944929654834	15.001163444791718	13.72171589248002	12.021764724896984	10.183479283371218
236	0.2146742487494196	-0.5558457956585444	0.38653477928799423	-0.7012571674761694	1.0984131070061314	1.133303281783765	2.081332916726951	0.19971229085567638	-0.15755382140435412	2.1847279016648784	2.2575702610238157	3.7727851772422114	1.4738532267552578	0.6105042084538949	3.602380505049761	3.6421248820856467	6.735245687646018	4.146013726257175	3.5184926897860933	7.249078732308187	7.440709572125879	11.09617230474853	8.22116372893838	7.734032611393855	11.62081238673693	12.693732229609122	16.849838214294184	11.678533524591685	15.471431693116124	16.457275349074372	15.640645941346126	14.492152177461126	12.623656241016516	10.633728000496168
240	0.29102989957764386	-0.8458151795966997	0.2234459066709989	-0.901140210737535	0.9430654621156012	1.053970334253043	2.155894512455449	0.16025876958439916	-0.0303800421931237	2.320623630386716	2.410054439181921	4.049664487151069	1.6844165282637367	0.8035519698836103	4.065451134907842	4.143578995733537	7.214622479343423	4.452384937489278	3.9347753425436744	8.180326441138654	8.241805055790564	11.704569787038157	8.471610047886143	8.347714403057347	12.701057402014944	13.67249676113456	17.369447664276244	11.781369179544454	16.26726527875332	17.249862627346722	16.157693822120784	15.191764793187449	13.132349934800546	10.958147974957848
244	0.35002264292082796	-0.6440634115170542	0.5367507921018657	-0.7708904723731467	1.153260108897075	1.254968997647853	2.440128797092441	0.3255377105600085	0.31649935165605514	2.706656449160002	2.714005701842252	4.442012298813073	1.9939427325451242	1.2512986628411409	4.689600455841782	4.702544677305683	7.725377540157162	4.793192851362707	4.5688543204349665	9.164579368341153	9.081747032124504	12.28023525952273	8.610742547229691	9.032099701012058	13.745547259912529	14.584856950176288	17.73075480752907	11.715700119956834	16.935949282802362	17.9497584843443	16.532611805182995	15.773533781281612	13.517982448780531	11.11632630402626
248	0.35884910731313985	0.0761102287039812	1.1723060578312274	-0.2674771838587579	1.6477416712167443	1.6392073589900613	2.8298308777888357	0.663268504852355	0.8716782905505361	3.230298272560223	3.0611793917616215	4.8252577659851195	2.3086664618378037	1.9282689045859347	5.346577154012176	5.1808171141474775	8.172001818051761	5.089755045438178	5.392900453303181	10.013801549424613	9.80837628749209	12.747668234111618	8.67624471381236	9.72464463639734	14.57118126051355	15.299141845223478	17.934160187264542	11.568881005642458	17.398879960954865	18.472009612176137	16.779890018059653	16.17863460270756	13.76193806034722	11.12115380340372
252	0.2385694676574814	1.039310929535416	1.7575344994994195	0.4346201408857219	2.163917297621961	1.9749376723971845	3.1213478963246764	1.022762415211047	1.5109748802183582	3.656814327544165	3.2667555726543345	5.017121302335428	2.485245459957658	2.7006378105643574	5.834432587198185	5.417587266595344	8.414585092280605	5.231574522161417	6.227099402918222	10.529360744595119	10.257090542645816	12.994003263091733	8.66676137643396	10.2716550567692	15.005492172502958	15.704190214562157	17.964517548027743	11.389224023674172	17.571176484567708	18.736694288631895	16.91865916748957	16.33582301783804	13.840982402188668	11.017875643569257
256	-0.11595412314464862	1.7704036191110932	1.896735782602865	1.011581895181597	2.3773140847266188	1.999796504693736	3.0992391031218287	1.1996703117599419	2.030112499833565	3.7353069687949643	3.1530086914565327	4.861541735772662	2.404380315432209	3.360088101486686	5.966269954876802	5.299669252366692	8.332720735492664	5.135942446139437	6.800606233593059	10.582016918168229	10.318050358470911	12.92115208224539	8.546707131741952	10.488526317818334	14.95159622232165	15.744768102948477	17.80090327536954	11.173793764513492	17.387079194993447	18.686649275330513	16.952007250901467	16.180402714885716	13.723200763386917	10.853483172670831
260	-0.7812923173252171	1.8239768697464025	1.3870544398573992	1.151439067794495	2.065816635638196	1.5556433161559964	2.6461038522669837	1.0415356132913958	2.2391495648117785	3.330468169386786	2.647802584638794	4.316935528346391	2.043656105603814	3.707030763803489	5.66906593798801	4.827562319964897	7.89839170369129	4.804059016496406	6.877749902526708	10.17520806604591	9.994724248447387	12.508727995762248	8.279786089019867	10.251810047969206	14.434336625849284	15.447727164367379	17.443473771877432	10.891659709134503	16.83458896201335	18.310888244174723	16.86617274794435	15.688287695376232	13.383283581322761	10.65485570124849
264	-1.7366709665320754	1.0178029511503874	0.33027580297053133	0.7179188114160364	1.2298458783570347	0.6803010088910781	1.8145869924507738	0.5346164689871372	2.0654144234962675	2.505627625815012	1.8397862864774226	3.496532431357651	1.5040372572118872	3.6399845985064556	5.0340833536842045	4.135476578761806	7.211637001903451	4.335822094460816	6.3798036414242825	9.45366094109762	9.416521048613266	11.845624893798727	7.867403964206539	9.569857573189507	13.598665203093429	14.91925426531102	16.9328860809058	10.52055546965397	15.975944478707586	17.657516434911244	16.642925220431824	14.90198131613588	12.824867216155479	10.421445820245996
268	-2.826625578419487	-0.4559052277021757	-0.918225345677462	-0.16896319346684155	0.1025438455138449	-0.3949535777133941	0.8214924910785493	-0.17341121987429728	1.599365230336991	1.5081335268090892	0.955744025678409	2.634780638718302	0.9738917922227086	3.2005197921056214	4.287107933664618	3.448124161597668	6.474353297099874	3.8940539261730978	5.436701284033658	8.649373986341141	8.793350197525488	11.107439966768421	7.366606216905257	8.59213826871221	12.657913176049654	14.30944439136236	16.34622378990651	10.07314488728748	14.93885513348663	16.825679736571978	16.274736363329186	13.93034550010758	12.095035522441487	10.134056065722561
272	-3.7874131107074764	-2.1019148773530874	-1.9278373669588504	-1.1822211712552908	-0.9535898542170204	-1.3421410288303528	-0.03621334945953253	-0.831010935592634	1.0529826852916087	0.6644902808578763	0.2682031088256446	1.9931702563507856	0.6468536837458798	2.5530562336359397	3.694408645839141	2.9921471997056863	5.911094173766108	3.6339123157306488	4.340009201536427	7.992071608392515	8.332322099629414	10.487033817516926	6.875178796576169	7.550710182199717	11.815965622633374	13.757926906182542	15.767774542099376	9.596281027407462	13.87793537450748	15.935474355518748	15.770443876504258	12.917086568644816	11.278298349515756	9.76966092504101
276	-4.334173191571913	-3.340671054035099	-2.394892686519395	-1.9379054259010213	-1.6074155528493197	-1.878472561861927	-0.5037814962065591	-1.1921217411460656	0.6531074626645692	0.239087163798371	-0.021878240574793383	1.7506834224369439	0.6369096024645287	1.913263316092326	3.451293698180242	2.903583280861906	5.675003037429807	3.6322467235412508	3.4180178555976295	7.626323680696555	8.155894258888328	10.112798665263536	6.4923195675012915	6.662639601098374	11.198283167222659	13.344130482361555	15.250279388071453	9.146638847146214	12.921589818755516	15.086912117060576	15.149466476338675	11.99006554437399	10.469767544061984	9.314516997662304
280	-4.27954052798304	-3.7668790722156187	-2.2643034400992232	-2.1677493994341854	-1.6984327988658612	-1.8849999857040893	-0.4730615901924293	-1.1235775919203193	0.5271553979915703	0.32476067461035596	0.1294708546707524	1.9304504345792062	0.9333496070185188	1.4574326239982538	3.6054115204382264	3.173958770367872	5.784220204054695	3.853683461950072	2.897047035532339	7.570171337088326	8.258012750756967	9.995192502535561	6.274664863003209	6.043643936157282	10.820819827416384	13.063446011939844	14.78845020375162	8.758600212872011	12.12944123066761	14.325945818017475	14.430201494023786	11.215882273013186	9.739741300787935	8.770132996351196
284	-3.62409972229534	-3.3188936626563654	-1.7171566443004604	-1.8320369674204497	-1.2865550485553496	-1.4447516166450163	-0.020593553729515674	-0.6617351157647348	0.6454893930350604	0.8193729499156877	0.5980490430991411	2.3970451294460897	1.4132827484688524	1.2587085930516195	4.051827420495217	3.6606533434951656	6.1196198308934395	4.169820298157519	2.8166794705802185	7.730473498854012	8.517502763224376	10.028459523630769	6.211846812777288	5.677150235147774	10.60779759589855	12.840505567556425	14.320925676428587	8.426285722439053	11.482479066468512	13.635938609981745	13.623455013211505	10.584563228586605	9.110581375008246	8.154160478985478
288	-2.5677058631918483	-2.269273752205205	-1.0401414606536195	-1.1135921450155986	-0.5930210336971627	-0.783336160589405	0.6391841753080596	0.012033440142290757	0.8595967271082914	1.4953418932354279	1.1605087489391988	2.926285974743796	1.9048820685930399	1.2830340829880673	4.597756851032161	4.157003869051693	6.485719664411265	4.422693718234407	3.043624631826695	7.962630251807912	8.761487938694799	10.047442410850907	6.232935889719893	5.455420480305977	10.44707009538882	12.574707953176231	13.763086284221274	8.109853724031424	10.913278552158534	12.962231603320875	12.738958326601871	10.034972165521065	8.561643578847795	7.500842552320738
292	-1.4355275594707342	-1.0655592653074633	-0.47100904465012616	-0.31029716055728845	0.12038999765518144	-0.15455852409918	1.2535942761242242	0.6570850594143229	1.0056695912719635	2.113715643314504	1.600600715410776	3.3062248146506317	2.2629487457361885	1.4363429510092027	5.053929316158512	4.481822956213781	6.698865873589919	4.49592446145772	3.366025439347062	8.137068727929998	8.84211919459474	9.906073545241034	6.237827762113548	5.262666688983551	10.249722454895863	12.193025558204827	13.052613225407136	7.7598991198124345	10.358303043916159	12.256551711608893	11.800698250540574	9.5052861927373	8.058688143411093	6.860749704205372
296	-0.5447780476167247	-0.11310072959716524	-0.10574729713921033	0.3087194852187119	0.6673365814526493	0.2683119171044074	1.6346983868334766	1.07495581832329	1.0071690057121476	2.5230116780477325	1.7979953243636964	3.420309296555589	2.416989558793318	1.6272611576957596	5.307267652463475	4.545756328549924	6.659318907137031	4.356979359116872	3.60970615429274	8.181628206577262	8.69107721041798	9.537994360684504	6.1375293576731735	5.049120890267332	9.98457620007213	11.684341401163936	12.182946174380177	7.342376690446656	9.801026319554104	11.515876740944737	10.857048960930872	8.977381683572084	7.5867070960187455	6.293176635112233
300	-0.06819500011869484	0.40235042470437765	0.10542289141025872	0.6182742699271973	0.9982057784627438	0.4503239083841443	1.7255678133313483	1.1863727539627045	0.9187028980901967	2.7019085815877606	1.7635509923278572	3.28200482493517	2.3799557625763943	1.813675637434459	5.3478627069874465	4.371173370769268	6.380196078404492	4.0562500851263845	3.7161137963885884	8.089401224693413	8.334154107986604	8.975395179976024	5.885113701267005	4.855914103645757	9.677508329753651	11.102694483381965	11.210437746354568	6.850771409858006	9.28229997198681	10.794218989776025	9.97602078780125	8.48962877037483	7.165132981329944	5.848746284976987
304	0.028065124455762282	0.559629081266821	0.28302419114181687	0.6659726483696976	1.182696577900819	0.4773024606574912	1.5999733169214543	1.0470215055733827	0.8824563600194789	2.7329518726013027	1.6082583625243159	3.008061878239114	2.2204644623961856	2.007841820415916	5.24595640765367	4.062059869047263	5.964561924180431	3.6882913019519976	3.744014968956084	7.89824722203272	7.86585281293482	8.322686174360772	5.48646210238947	4.7789878724557	9.38271806255359	10.541151020139083	10.235189412024841	6.304541571912153	8.873645760066902	10.180862401053606	9.227390266009719	8.111768702053933	6.836636526013078	5.550546632104381
308	-0.05262241126722091	0.605588136574522	0.5215302096550951	0.6120260938451024	1.3361856903673002	0.4823014425975372	1.4036189282265277	0.8009763339800791	1.0307254765236449	2.7320895126028697	1.4689466916190248	2.749312632295103	2.019504542020382	2.2451202812731443	5.098827349187245	3.7441749478222577	5.548045144378763	3.34064864268872	3.803289880686923	7.659267883036475	7.400908928305468	7.703408698659893	4.990901934420668	4.897033202205272	9.145077682294199	10.089617703713175	9.365038848120687	5.738047108468146	8.629191376833992	9.753949140717884	8.657512642936803	7.896587351889205	6.635074598726563	5.3804297311361795
312	-0.054271191221544696	0.7883119563226919	0.833476660531477	0.6234147532935828	1.540253754541714	0.5634803161699699	1.273927446963696	0.6022247060829834	1.3953179085789065	2.7792961527272144	1.4344673120521463	2.6178243094154094	1.8376864148472873	2.540433400415856	4.979836451355344	3.5081846625446627	5.239022718553745	3.060478679559411	3.9668936629276716	7.412869434714479	7.028156262773189	7.2104568299398775	4.470888603366633	5.208436475955186	8.975034691085332	9.798252080974683	8.6807641763864	5.1907667982654235	8.545653321624982	9.536189055208105	8.272080400562759	7.838986376998013	6.554648382804131	5.282175050750704
316	0.18536637676645382	1.2120074003136938	1.154439327186334	0.7812777737919285	1.7965643360555417	0.7333350759111107	1.2759392229290758	0.543198643743454	1.8770670843416717	2.8821122573565447	1.506337281238673	2.6420531206182756	1.7048811869492508	2.860353701045513	4.910388457298506	3.378612986617527	5.081836687609049	2.851704351854704	4.214389790385079	7.179767590515407	6.78411339000677	6.880790216239736	4.0004472631542365	5.616424546366766	8.847290016725239	9.662537550372504	8.216939905401683	4.704136359735746	8.556746461245414	9.480189299490116	8.039683321681732	7.870360354579934	6.543884737659187	5.187568174616272
320	0.6425232274999466	1.7827165081791272	1.3892883027286513	1.0430339548479768	2.030433172821647	0.9183713174521483	1.379760261866782	0.61980408273614	2.2912046851484917	2.9814927502696955	1.6062884290194628	2.763861649210885	1.6262187916705595	3.123738996248449	4.858937251221132	3.314562312340763	5.051221834781071	2.6964006355872625	4.438951004265138	6.961142999239989	6.648476107024026	6.6960820982673575	3.6358075050111425	5.970441326326231	8.716931321070478	9.629740690714097	7.9584498204525	4.319030273977089	8.56369111759995	9.487907385713305	7.909590224323417	7.890303114997113	6.527666075438173	5.051340090396006
324	1.1231857509865553	2.264927381519157	1.4645036421993953	1.2744877306231701	2.1368398612431814	1.0036644910267818	1.4846547804541828	0.7447447757991436	2.460016005980829	2.990633718569371	1.6212147433357202	2.8731796668944782	1.5912686546204333	3.2340602793103685	4.7626418947137665	3.2364790357892472	5.072445856639106	2.579168551608953	4.512100685171761	6.743381960055896	6.558512194287296	6.600912554287667	3.402199736588494	6.140656455748775	8.541864373575468	9.620788549928594	7.848467807027785	4.066560258135022	8.483731248417063	9.453812575313547	7.8317670624410445	7.816673259073391	6.443830473843197	4.873482215021079
328	1.3727544511468601	2.415310376744945	1.3610231842010758	1.330744978405939	2.0398218580243834	0.8961822367929909	1.4762786589543342	0.8001067022150017	2.2992975653770826	2.842106811977202	1.4601968489973784	2.862484924718721	1.5792103965942368	3.124928704955162	4.559122074060612	3.0642783564449596	5.055139052025819	2.4970426496403975	4.364671696133583	6.504741175441121	6.435349448168808	6.526772005768799	3.2887523091252873	6.083172305961046	8.30071637918919	9.557769751259576	7.803851107921681	3.9513554473296946	8.289342859320444	9.309619880059923	7.768403033670359	7.6253185079696015	6.272852404969455	4.695066917009621
332	1.2316925494568036	2.1272365993197955	1.1195834846840045	1.1433293790561199	1.738160128973384	0.5768871888854493	1.2887160745508701	0.7021082025921238	1.8578114462677289	2.523776048010402	1.0984994145315483	2.676888459122854	1.5607066115075927	2.7962939668627658	4.2181711090400835	2.752305739129587	4.926905142742645	2.451596015462537	4.0372919934384095	6.225902541654154	6.2133402667530095	6.41233347227477	3.253295651805139	5.86083696792986	8.000342348880666	9.385601020004808	7.734457473300742	3.9374456306228702	8.015304545192988	9.044823623709426	7.69070480312312	7.355322342422028	6.040736660011057	4.566788185033689
336	0.7507972102282902	1.5104873142253266	0.8278519490321586	0.7681350688614266	1.3174077239153814	0.11911478608575395	0.9430619454415683	0.4475072611000722	1.2919449773594904	2.0907740540169573	0.5925008639635213	2.3404760301626433	1.5042290649582901	2.3238260687331227	3.763810148273172	2.3107032717539258	4.658381927173043	2.434367412142998	3.6677584555530327	5.904376968735459	5.865549072715326	6.2188911280976376	3.23903059141635	5.607249245791787	7.672538261115764	9.083557105972472	7.565779190035206	3.950141896765132	7.730415324720859	8.69481466005454	7.567918281521505	7.077383500350319	5.793344006216718	4.5063524132441355
340	0.19491156886481392	0.8692370035159893	0.6027311667483611	0.372384428037786	0.9272783375216708	-0.3308168939344362	0.5479183183187877	0.12249203740426501	0.7992000559656123	1.6545442300984952	0.06498347951456332	1.9517759035423934	1.392186757387471	1.8403465701368968	3.2808740056173464	1.809770221909346	4.276904095341992	2.423025363526614	3.423535099922689	5.569717870001535	5.42018602910099	5.9435119478847	3.1993272223759663	5.457375035812517	7.365827541827878	8.668964364099297	7.263802033204852	3.9018881222440163	7.493369083559089	8.309294679643607	7.363433342462585	6.846945745347401	5.5607576229843625	4.472898948820541
344	-0.06725163740821649	0.588612972203928	0.5715719447010236	0.1675849552691799	0.7355847340131884	-0.6000651702035785	0.2629635923422148	-0.1288663592661278	0.5475442395691218	1.3548657859927449	-0.329945176006797	1.652384276986578	1.2413481442581702	1.494933959047615	2.900837414093326	1.3668942416966288	3.866840829623152	2.3957240521026235	3.4169554624118352	5.29029415702293	4.961968409408269	5.629390702339889	3.121746532187928	5.482935414776303	7.135793191059782	8.195186594299377	6.855445844508069	3.7343156243455633	7.320182304974127	7.923200587295646	7.047488194792252	6.671862108551896	5.336348043320229	4.378846634299699
348	0.2557941072681529	0.968083140790078	0.843301890151446	0.31437680045863997	0.86923610944632	-0.5500817285000932	0.23622290730440473	-0.16561028319507917	0.6257695539887789	1.31727444793	-0.45417189483416115	1.5766004284154016	1.1114960880827192	1.3986504042598848	2.762165777862017	1.1139355869779273	3.55129121837455	2.3547625482234973	3.64669441256117	5.157719599099591	4.610692489427236	5.36368273334521	3.038588754611626	5.66229341984715	7.030891400705737	7.740856627947671	6.430120928742312	3.453936806541489	7.178829174990433	7.545098285698993	6.619516355967992	6.51105783725989	5.082433210892455	4.134738434842771
352	1.2245081632215855	2.07616233301503	1.4694943390938384	0.8473119118278757	1.3675367797656852	-0.12650702861794025	0.5429857955574984	0.08859832562489013	1.028054115560846	1.6116836030323305	-0.22810524644481106	1.8020441486637768	1.0919114323704469	1.5848092992824325	2.9594705030108432	1.1555504769714315	3.4580559643222264	2.343029493138374	3.998522033132852	5.252459512800826	4.483262527590762	5.2577800617986234	3.0165767593516493	5.899781689053458	7.077970486890584	7.3930768780017555	6.116696342283877	3.1415817658262033	7.014668446950309	7.170090180414109	6.128494724059509	6.305860503488413	4.761518466371876	3.707904091056533
356	2.629281037368051	3.6980624105546474	2.4076111255894572	1.6539283949102308	2.163093561433245	0.6188964828124366	1.151882883978372	0.6102024301381589	1.6664768415338225	2.223399156678937	0.34281837853662744	2.318733209477793	1.2642860380677503	1.99641596766919	3.4986348063828605	1.5297021827223458	3.6758782770809937	2.4341955123478995	4.304928291895993	5.6018719531723065	4.64975689667724	5.408928380661395	3.126333467219682	6.078822120577742	7.269164067035309	7.224570256112741	6.03767250444018	2.922516338599139	6.787476045637929	6.803355676640317	5.671873078331264	6.021305545863338	4.369826305800745	3.1581342140571174
360	4.084629525362351	5.404579148952406	3.509924641330553	2.5155534680751077	3.0998053472457654	1.542971964755188	1.9326547335467243	1.2809329000557503	2.3966293274451864	3.049290649344738	1.1662696570514848	3.028760187131558	1.6575440126531773	2.5080208715059906	4.280064095181426	2.1859795992020015	4.2153949631120335	2.694515936724223	4.430625904341088	6.151578887666998	5.1007594933474065	5.854476437092647	3.403215399732902	6.118473514368013	7.55544040679715	7.269474964861672	6.255662425459633	2.906693212799855	6.496029837419902	6.473503573286101	5.363640771675394	5.670240864742856	3.949243535561345	2.6231040888362833
364	5.210669981198571	6.719138128482585	4.5612559203381835	3.199368468790047	3.986162175604853	2.460413449751188	2.7062268188815453	1.935803170085101	3.0564463061412472	3.92784618339674	2.0903384632740383	3.780635585776468	2.222184890858639	2.9770092889010105	5.126777159144755	2.9960551186258737	4.995067106987056	3.1382543961446623	4.339565266143261	6.771927339622498	5.744450554649489	6.542355997733848	3.8206214808323735	6.007345661255029	7.855334262088574	7.508717994805737	6.738141042863318	3.130702726089266	6.178495391505291	6.2256073794539715	5.284256921778162	5.307959066341123	3.570605269000225	2.258170122167321
368	5.806573853137662	7.317040424946659	5.355780587979419	3.5581431299020503	4.663790691044885	3.2097442069077715	3.316675893039162	2.43226312976916	3.5121416956920206	4.6940998912552265	2.952554695304305	4.42619227245531	2.841908209301312	3.302267066247538	5.849525436891525	3.796108474683936	5.8623490185547045	3.704307785218445	4.111319531551068	7.303384762444515	6.437724574047822	7.336613636567163	4.291433800352915	5.801613793030556	8.079899767503045	7.872839430959173	7.359475117222334	3.531906119012482	5.890927299885139	6.096528514728595	5.436865316015666	5.002471434360941	3.2979166424456556	2.1601800864039795
372	5.9198794215466615	7.161763173141431	5.7771115157181505	3.58838271188747	5.062641607854045	3.708773126775164	3.691890468813028	2.7066175869317064	3.696068992819812	5.238542543536647	3.6330308822459356	4.8759226675906016	3.379198781064901	3.4607608230953044	6.322613700162424	4.445826996069067	6.644479257974059	4.270180214591146	3.8998229405170526	7.6229510114851	7.039354306568159	8.060742357883445	4.698619353829265	5.593556866828554	8.16609857404811	8.263538339732275	7.941980341886904	3.9682159323640303	5.678672776190073	6.088445648080301	5.734020695514444	4.7994718430460726	3.1554648796522358	2.314762109634303
376	5.784698471723165	6.513400538212227	5.845332130932873	3.4237251195297533	5.219927297764554	3.976943959685744	3.8660380742693436	2.793601744274348	3.6305162814985006	5.545476899451165	4.091506470840593	5.128998743459214	3.733853092303274	3.509677401264649	6.535465700815209	4.879408824045423	7.209425431169288	4.701209056428928	3.857190360821223	7.700553874600939	7.462440948718962	8.563253381089824	4.942479121127397	5.471209512248535	8.10541437009976	8.58781430937254	8.321141221972095	4.276523579290706	5.559376702577692	6.160362704936081	6.027427181284895	4.704775321526125	3.119552127591417	2.5971639090769467
380	5.671297535882766	5.803379521022924	5.701101288706689	3.265631429056709	5.252667890638435	4.114989747148491	3.9538791079831133	2.8008024621821934	3.425685397082177	5.690263733802411	4.372010696816958	5.264145837844564	3.884781589236669	3.5504660516743627	6.591176970053214	5.124426828797906	7.510609130970396	4.913273798935508	4.057778348214567	7.614962081756735	7.7021617694943405	8.776366211667488	4.982012259302731	5.48500965640925	7.951693037937821	8.791014649130505	8.40719220899849	4.3416795620973945	5.524652943967852	6.2460388979570745	6.170489295639274	4.692018973902082	3.1385712544354885	2.8312661576314033
384	5.743237004084926	5.43698071060766	5.535738931030927	3.2904791748893603	5.302303300821955	4.254857529388133	4.091570843856788	2.852935545394076	3.2396478571160854	5.8005275579869116	4.575914371381497	5.397911534986085	3.8940305611524044	3.669351568494567	6.654989225751478	5.281882272736307	7.596664409531203	4.913753497115449	4.46669386689651	7.520744304742415	7.82864854743427	8.740618683681571	4.850117194328117	5.636238560751555	7.8039107125663065	8.875245071891477	8.21620462250559	4.142629612953952	5.556024537363988	6.289733394001542	6.084092601674055	4.72791908977824	3.167824260343077	2.8763050960400296
388	6.003649696451128	5.617798314216081	5.505877957748164	3.576998940019849	5.476911054134775	4.503453243329581	4.373663414403118	3.0340139789273755	3.2155420698997252	5.999027713888335	4.815927493334116	5.630784497349798	3.871430625677848	3.8936676880759284	6.876821500582031	5.476489053250831	7.582587699819429	4.798202025696984	4.964507090432133	7.580334644252608	7.949250201182514	8.58305833556863	4.637375819895755	5.8864412159120905	7.76922128623177	8.894796349002759	7.858556250758418	3.757629385044148	5.641387925209989	6.278677447679358	5.793619618093464	4.796195494940331	3.195827714480749	2.6969776085472312
392	6.351159556566182	6.279066546799469	5.677550301522497	4.085470666107297	5.817889198873253	4.905632483494595	4.815221774341757	3.354510537261266	3.423840990958904	6.355139239478498	5.171348558720943	6.005724414921232	3.92038725816838	4.185536850852213	7.324347477540515	5.800111279148851	7.5961351202869345	4.704129684015548	5.411427007364072	7.891949633700231	8.15794179764048	8.458817460638167	4.452016342366917	6.1784567676955735	7.920489291220949	8.929652191505088	7.491278629462805	3.3291878616202433	5.778963074398779	6.250900729609839	5.417682634026744	4.902801501293491	3.2441077150454993	2.380247110079321
396	6.704209787608409	7.1593875704252605	6.03232859042169	4.7004089236794835	6.307906611729096	5.445620046218172	5.360505567368124	3.761918296852777	3.8398749731391097	6.870114309131679	5.667568192477876	6.501400454319184	4.097072590974245	4.474430549768822	7.961325148509205	6.277706607227707	7.72761056856339	4.746349799570574	5.717039570679388	8.44896028292868	8.497496583465317	8.4859819197981	4.37653445092541	6.458487971212196	8.268366792784049	9.050201393166063	7.257519703661387	3.00726484493119	5.967845901680684	6.27262924517998	5.11337278982435	5.0610780588162445	3.3422760879055584	2.0882253594127964
400	7.09843347664605	7.975573996434656	6.5202040507682915	5.304319368321748	6.909241182049251	6.080146297362729	5.9285411685035525	4.181929577759514	4.371201027324374	7.499358158250999	6.285497649535917	7.059481126127939	4.398693073611164	4.714269626159137	8.679933526058907	6.87034462147851	8.004596689995415	4.965509878973302	5.881877884319608	9.15019605233743	8.95070836668386	8.703838326413592	4.439764965292136	6.693380815772957	8.760960556799159	9.289907431989574	7.238933544955872	2.895933143933589	6.195459827039852	6.398861392078071	5.0056705348472486	5.270325170562116	3.497857084979795	1.9735224197152108
404	7.678743819876951	8.587521531358144	7.116166573677694	5.8362388463488974	7.599973659400778	6.7761788197143025	6.464986307987782	4.563127506179406	4.912808405870277	8.189660051649756	6.986943704130903	7.625199298680351	4.780487525314462	4.9218368406009	9.362150168623586	7.506379108550656	8.396615960856247	5.315319047859406	5.9851264802503366	9.849830602572975	9.457471823656359	9.068916297903968	4.612945544994057	6.875625592992277	9.306576705323954	9.633883451934107	7.435490112605366	3.021406404496316	6.43027542398118	6.6376604866289695	5.133229242716111	5.501722321924916	3.679986944444278	2.1007268375764236
408	8.589375474224557	9.060442901624093	7.835474948173871	6.303522570907645	8.381159761249274	7.527047615120788	6.968625527907621	4.898004519494079	5.40237282342697	8.904194809367214	7.736423949736206	8.17505452953087	5.184322820925735	5.168631540600362	9.933161710455845	8.11923120356097	8.839820839498005	5.690324768958506	6.12856291177296	10.418810818116418	9.944263433145101	9.484139418498698	4.826497065756161	7.0166773618927465	9.806856130635577	10.025502179583059	7.774633864800868	3.327644339743037	6.626410467583887	6.938288671142173	5.434108243573896	5.7024407242807	3.828943481314903	2.4135339199165444
412	9.829211210230014	9.59028241597241	8.69500825594028	6.743556959292515	9.249960875999122	8.336209276133271	7.4769296457343835	5.208856092653346	5.839714035549108	9.620775198488198	8.504727342114053	8.714961029937756	5.558750138553395	5.528433308948542	10.379264805337844	8.669651009605376	9.264261222337527	5.975469097309631	6.370176299224468	10.787864657821853	10.349692318535066	9.842114423698414	4.998055445449971	7.133342724909963	10.185086224590306	10.386138889793145	8.141489962049695	3.697530260287436	6.738662702713075	7.210397225295253	5.775945648869287	5.816452488519215	3.88611625643911	2.762789004026215
416	11.169584246091503	10.344115231146803	9.65299127048938	7.166276436832429	10.156531308280563	9.179811454484337	8.021020869031096	5.511833653839084	6.258557780676932	10.306063626018265	9.253452277662669	9.251741385943356	5.862019047242061	6.0117139664503	10.723209354030015	9.141620612905955	9.609469389495747	6.091051086306145	6.682982427890275	10.953338595392353	10.634722682805668	10.059974645011161	5.058731066329495	7.231996517995847	10.397452328180108	10.637540790403534	8.415603616447957	3.989618529737362	6.736866933979815	7.361827831754968	6.013152584152966	5.807395920396329	3.8234603308465687	2.9776885434311557
420	12.20353504914509	11.30363366134144	10.570142719284634	7.514958362679386	10.975040408081702	9.97268864974814	8.5772790692258	5.7828345152764555	6.667670233104716	10.88642594449928	9.9135379540967	9.757019018334645	6.053382381414677	6.526243193361687	10.977032633723645	9.518210387040606	9.825633024203892	6.014704689098998	6.961696607179265	10.950055094729256	10.777434321849652	10.093811009671827	4.970557677117296	7.298107128790847	10.427358600992786	10.719300243016935	8.503947236525203	4.082202424233224	6.611783487792936	7.3347830587214435	6.044444068906726	5.670110688198995	3.6546056178329445	2.943775407988214
424	12.523260084958956	12.216936080605397	11.228734941742943	7.673547725377131	11.517785996921363	10.56662366106598	9.048626876873652	5.950820907827184	7.0045285048067205	11.243239374384546	10.379285786172753	10.151227925420418	6.089112743262943	6.896036130660471	11.106324167821043	9.757980322043155	9.869607900496675	5.776758179384815	7.075425130146523	10.81230637681532	10.761733027943983	9.934843038271424	4.734547126260529	7.296781044657233	10.271794293219044	10.598278018896217	8.363143899783529	3.91392301524952	6.370504363188483	7.122100812096549	5.8458485455739035	5.42485474170517	3.4207303437652197	2.64808916377015
428	11.925228088788177	12.696333853137709	11.415181131152583	7.521300773704633	11.595660180379534	10.79207322256953	9.29294965305123	5.92770098143292	7.137413960556422	11.244890184622077	10.531147930259552	10.324257824580727	5.934339508332663	6.9390663925452385	11.031932802957593	9.79310414702772	9.708163236902818	5.437995896914911	6.936085683476836	10.54879948813735	10.572594615945924	9.59902570208315	4.389208305721293	7.1865234193557725	9.932274793343828	10.2721318939262	8.007938364791665	3.506473055569614	6.027863010446392	6.759448034386671	5.468646512529665	5.100912558074803	3.162257663372268	2.1724665110098003
432	10.523907634867676	12.407046286729418	11.0228585918599	7.001956922019024	11.098685236565915	10.526898357516375	9.186189628296358	5.657957539578556	6.919990522079485	10.804177256962797	10.28184888151153	10.185393307719412	5.5864267208199445	6.560805304175305	10.670783969640892	9.555491423323433	9.332262015622874	5.066179262721822	6.5448555781108375	10.145564053669581	10.202977154720916	9.120946861127097	4.000422467622072	6.940719110131398	9.417627310817503	9.76989266789931	7.506021957520064	2.9607927724472023	5.602635369460662	6.303257926285511	5.009418951738419	4.722888934609055	2.8969747947030537	1.6461015898152453
436	8.721095063125395	11.25705525417144	10.117465947356244	6.170546516098113	10.063748334271654	9.764903997562785	8.69203374575492	5.161823736509884	6.275029166591156	9.938664411247617	9.629194235332177	9.72026345659883	5.096013056286636	5.816515431023939	9.99895379402997	9.022556282151875	8.77753255535351	4.722661006448009	5.9935479012801	9.596227621645877	9.671269392391475	8.556370713565698	3.645165434217252	6.5671758485928144	8.75888345414327	9.152451492090036	6.96115873486617	2.4249842105675667	5.1219806541825	5.810746655098562	4.570271003628411	4.309307087508717	2.6190662317908138	1.1860333651162103
440	7.035683614133579	9.476584410583202	8.921859718685408	5.187861906304984	8.689086892124664	8.644490220179154	7.897904376116837	4.543047416661011	5.2632422314320495	8.796749092780578	8.684001900682425	9.020200706596299	4.565632331765123	4.90197848036051	9.098093963540752	8.255213716645383	8.134139040437395	4.456949222756074	5.42162893833807	8.937610603655406	9.036432243420553	7.984724501477471	3.3902215872046733	6.113858684362575	8.023584345587123	8.508799531434827	6.485536558942977	2.0401630350102162	4.628927219148043	5.331848607906784	4.226455200968631	3.882183780405337	2.3184921682949295	0.856252310498388
444	5.874674305388821	7.5361127663125	7.723291377595291	4.260382641526283	7.278111916286399	7.414463024493171	6.991979581345972	3.951703300035726	4.0904841319759875	7.6245951460024335	7.649785976169546	8.260150888568951	4.117385853862412	4.072255124301064	8.150442102835198	7.399676781091782	7.530227642120815	4.301730145084	4.950922476666382	8.262145975233837	8.395157792830142	7.498461704395841	3.269788495391428	5.6532492494903455	7.313216667784682	7.940885523774433	6.165791972805675	1.885062808999524	4.181620587281778	4.910346018791533	4.010449876196609	3.475735655592287	2.0043101260126015	0.6617445332985855
448	5.377932534944975	5.950403198477653	6.7567906209107145	3.561895361490477	6.1378760182863115	6.351834757980493	6.194273933030395	3.524410238904454	3.0464897078845246	6.687242491050906	6.7605118580839365	7.634839992320562	3.8482603929635197	3.5310985952871037	7.383042793707021	6.648275358580929	7.0930127918452825	4.268473137569089	4.633815276844442	7.698449115389945	7.860107878867294	7.179338437074108	3.273266307196002	5.252850996106723	6.7414192983176875	7.539899807013388	6.036335453051954	1.945797796105094	3.8402104280790588	4.587315070968192	3.914941300998292	3.1353464047427027	1.7144291357624248	0.5719872102601252
452	5.403404222197559	5.058104502305198	6.115541919526782	3.1704487720552006	5.469821916121668	5.661035046589829	5.668452725404109	3.326532593911493	2.3987235962387268	6.1719112240414455	6.1972923122342	7.278993111352533	3.7893352412873402	3.3465044413952487	6.98040054466256	6.17045973173554	6.900359613162983	4.339629162322298	4.445028770668251	7.364259701255665	7.524118404465341	7.06738184098226	3.3486292277668372	4.947613226796808	6.397950156271045	7.359204750554316	6.069047435696415	2.1249265617127127	3.645528545712307	4.397176731451907	3.9072310825881926	2.904183618842568	1.503932114618769	0.5541263208704053
456	5.638577923843793	4.884741293972145	5.734806999986336	3.049421779562913	5.300214277237142	5.399049268442686	5.456806169084217	3.3269007121966965	2.2847847880852328	6.116995796018473	6.020626529751771	7.21138618555887	3.893228044217175	3.4348287495676373	7.007067185830585	6.045183643337232	6.9474000755381145	4.466609466719722	4.314568985536204	7.3147225195264856	7.426051121082566	7.139992695901474	3.4236376199114438	4.728348243219539	6.313811763081374	7.394754391120079	6.185821517585427	2.289670938433004	3.6004996208839777	4.354831684561748	3.946172227433113	2.8040053773657574	1.4177372419802499	0.5945700392016747
460	5.769794449543998	5.154315458635774	5.454706655081949	3.0800690573175675	5.481823430526181	5.461542115727533	5.470748410717717	3.419004193256882	2.656644337622452	6.402278407145127	6.151423915590974	7.33269069727653	4.05991839337518	3.619844904343436	7.381299953898189	6.229280456074337	7.148541909289313	4.581536281462518	4.178163041056377	7.515809517004629	7.536218624161354	7.316671352987141	3.437474718951826	4.553573596901769	6.447020514423522	7.584370117112292	6.290556414934522	2.3355495870751057	3.667251577655142	4.442247379531474	3.9947261709445594	2.823208801771009	1.4649369679658184	0.6972188931981876
464	5.614720807204808	5.435691342935134	5.1178178658018965	3.120433799494709	5.761693939920894	5.633288369261201	5.536774144498772	3.4729099185999095	3.3017909443462745	6.802319032661001	6.408377631220304	7.476109008987188	4.182823647428887	3.7304642106284804	7.909586886463318	6.576482279385969	7.374327640988546	4.6195821645451725	4.0167703527126335	7.855481604770087	7.76750038093216	7.489267807171739	3.365688553895642	4.378581512840408	6.696517450591698	7.827544192578659	6.305605395609418	2.2306256237932605	3.7834589385830606	4.604452121553587	4.024509419770731	2.9204385206875147	1.6108574826578292	0.8628922679096023
468	5.159654127445537	5.350014673076984	4.651264178930515	3.0627667826572718	5.887580379880162	5.683152661280081	5.478439794060115	3.39345740415207	3.9281647106176156	7.081705075504202	6.587371332703203	7.488180141616623	4.193212498568429	3.6852013971746427	8.368700006336883	6.9011516396807595	7.508757095452611	4.54484795376584	3.8611185453205823	8.190233209912469	8.009883860392222	7.567612628903869	3.227499953704373	4.185269822044294	6.940789682030634	8.021145800366229	6.19966171606733	2.020342106486651	3.8899829289452166	4.763219821348049	4.016548623434629	3.042643062539012	1.7919462873992935	1.0691441270537834
472	4.5097427254304	4.7439432024391985	4.096723546175322	2.868002645880938	5.711223587875469	5.464762673885906	5.198089109648303	3.158838025700848	4.281266201654221	7.092365246986077	6.549307329808583	7.301568489713505	4.083099831762697	3.519792547876073	8.59916494105775	7.058694344818891	7.500456314223569	4.367640961110218	3.7646613025984155	8.40607164167954	8.174862840993756	7.5200190354266185	3.07316898523721	3.995052804397104	7.085414868585657	8.09786794525309	5.997648700830293	1.7944955780499006	3.955681075599413	4.846767413300198	3.9632906813693856	3.1483025471355286	1.9456298302165411	1.268060204165399
476	3.80273412698044	3.7517108822514733	3.5818800835774716	2.569343083570405	5.243778215520498	4.977395521948665	4.719357955461476	2.8244407105661162	4.242075432557612	6.827769739078677	6.275514586816982	6.962907773558043	3.897783984833724	3.3504288111973524	8.564367272688575	7.003569585283995	7.381294231852305	4.143350113898177	3.763775815997868	8.462158181760104	8.228400209633001	7.3868713192405675	2.9576368257236028	3.855166663926918	7.096402150357233	8.049382189455095	5.768093094567824	1.6357767540640304	3.9838464159518865	4.820091235389033	3.871318092108796	3.220703593705663	2.035650963412111	1.4036112988320155
480	3.1441950718651372	2.722109549325454	3.2540836252070804	2.2484021130061915	4.6413016202093305	4.3606243023449744	4.172233571009092	2.4929046567919584	3.863528718730635	6.411773665452452	5.866909965961402	6.603662951009238	3.7070090677128453	3.2972636139591454	8.350203493016885	6.799121362686163	7.244371395894291	3.951461543597127	3.853195180701305	8.397603013771235	8.198924043935937	7.260097962169282	2.9148285315354188	3.8081328772719854	7.005609971478795	7.9254040517981394	5.5960712291574115	1.5808088739537876	3.9995422262302514	4.701496589234599	3.764252653154867	3.266485682823473	2.061419004957771	1.4396713935743466
484	2.5958993369365846	2.0548610635375604	3.211812726494834	2.000214094833978	4.1302986040739516	3.8280525110870496	3.7314612771237656	2.2684585990853146	3.3328108703391237	6.032218441038423	5.490741239036381	6.371514781124165	3.572563877622599	3.41648911567229	8.111137369658065	6.578193647942439	7.194733124687828	3.864251127023489	3.990791787562159	8.3019161014762	8.159541109465057	7.240014057953632	2.947431318470927	3.863638391276745	6.8890509431475895	7.811665038413428	5.555427060406268	1.6159056384296908	4.029194344838248	4.558278072292723	3.683815708396403	3.3044705307500313	2.050502056666852	1.3835281098721006
488	2.1942486707601034	2.0125038572998974	3.4582936676449907	1.897865290618507	3.9017920395568813	3.5662596135699127	3.5341591745793033	2.213995689524334	2.879818909049957	5.848058208959437	5.297894941305498	6.354332431008855	3.526580563224536	3.670442095072624	7.9884719646943285	6.472972376693204	7.295547466932076	3.9184877773534734	4.12301300915216	8.26324174702062	8.190806368175183	7.3880839161308165	3.034185878722474	3.987613191073602	6.8270735568294585	7.7945942681928555	5.687297329848718	1.7036507086656143	4.084900368867526	4.4809093362209715	3.682431926966791	3.3525266562695704	2.040847534749089	1.288554188336069
492	1.9704656551202673	2.591143124714096	3.8899023434656836	1.964410180854245	4.019819726331644	3.643254986147735	3.6124100593915043	2.3254823625979597	2.674741499823465	5.913051113458432	5.3489193781273565	6.533298475936648	3.5654482751472782	3.947304238843829	8.04075429793635	6.54845283762324	7.535484771776732	4.101190079824934	4.215228546944241	8.321690538376957	8.341091134946629	7.6974983020988885	3.147509090106282	4.116561402417961	6.866255742857242	7.927529315006885	5.9897441712787165	1.8188110544060514	4.163529385545227	4.547677505455474	3.806669225618576	3.4221208009150295	2.0653681702920386	1.232947346435447
496	1.936528916238054	3.503862133716465	4.320439327776021	2.156877512254603	4.383803833383864	3.9681153197239034	3.8711700341715476	2.5302412446035762	2.754260294636127	6.149177058907194	5.582196221563048	6.786602003129149	3.6534030345229924	4.115965355971712	8.216467836616253	6.77012823302914	7.831160048740184	4.351747024993119	4.26136349555823	8.44892213595612	8.601340272167981	8.093844393322332	3.268799296709233	4.186983574786549	6.9989251913748225	8.211271265279276	6.419223292356252	1.9678792903807034	4.2578549277570295	4.795210826211128	4.077205647665029	3.520904293707617	2.1453072970585954	1.2862249580334169
500	2.0507774301250192	4.283609856280872	4.532742488861101	2.370767348979598	4.7651705621573335	4.32396077018046	4.123445500453559	2.7096877029670456	3.0139746589859047	6.382172568420255	5.840277657068682	6.941771489736896	3.7330722714586875	4.083641518773049	8.380797365009954	7.020672780431243	8.062521914153367	4.580110061525933	4.270153511710354	8.562561013537861	8.905024506020393	8.464281060783065	3.3920545492361787	4.163341988542527	7.167904835723581	8.594797112699638	6.901548368195383	2.1785826628040508	4.367962826191192	5.205541597575044	4.473696220547044	3.656434526748615	2.289861911714382	1.4790199957699228
504	2.2008535806402785	4.471624839937039	4.347720135202261	2.469955676518478	4.9037427778414076	4.462190139948652	4.169509400331155	2.7408842971265632	3.2656760133308884	6.420521243097603	5.942327007549557	6.852538568361845	3.7406773472756685	3.8285691641466584	8.379085519616327	7.1560454187918525	8.12383649682327	4.694661128589015	4.238061417369992	8.564439751936439	9.153150535362196	8.701250054325401	3.5152084738672613	4.048034180911288	7.291066151330597	8.993808723630707	7.349502544920853	2.467172616451652	4.501511085589123	5.712414727093653	4.933041560116068	3.8340544603821987	2.496241563216639	1.7900738670930467
508	2.2262098733008693	3.8110694789033652	3.690915575245543	2.334587091273703	4.622108447802955	4.216018189276231	3.8855194947371254	2.541845792074888	3.328713885486186	6.140529617065012	5.76829241249945	6.464019282233387	3.622798195275311	3.3976888570832813	8.105080584089862	7.072341901089366	7.965943316374743	4.628558147188525	4.133487690979963	8.382665612991078	9.2528753047027	8.740766503200241	3.6268598941786303	3.8692200086179995	7.2930965239451	9.31872079403841	7.684139709145555	2.8076517511053303	4.6608028294191275	6.222286208655472	5.365323530002445	4.047069062505521	2.74592685006183	2.1550121252964223
512	1.9871647307769587	2.367225164158829	2.638390534415364	1.9157224845202603	3.909342517519385	3.58336614657726	3.2846884644547614	2.1080613083068074	3.1120591085063314	5.541738019303134	5.3174519404626635	5.839121803800115	3.3560814772749996	2.8815035747256355	7.546593647023343	6.75340507709602	7.614278774110755	4.360667217689104	3.907486905722923	8.001050928895967	9.155133224260998	8.582446076659043	3.701438417626202	3.6593310740588065	7.133130532375098	9.503386473503815	7.857286910246486	3.128222219198556	4.8274855491826205	6.642632467665	5.685054287862194	4.267604340269036	3.000968687110172	2.49199389782209
516	1.4405277931083171	0.5162048922857277	1.4099249804185532	1.2654036251544671	2.931724302519372	2.735836737401148	2.519508355455259	1.5207142791500674	2.645121806142144	4.746744143899412	4.711491096045302	5.133841024788541	2.9602246209746377	2.3752610623471586	6.789354307199348	6.276597960837684	7.155338269288023	3.9239790340534766	3.527540198002997	7.463721733322662	8.875035263542397	8.284399011676676	3.7073976899958	3.4386017235723934	6.817412836028654	9.524408316407282	7.866816500829116	3.339416495475034	4.958475100396093	6.907769662582751	5.844667896773173	4.447858799195041	3.207803479678785	2.7319147517848292
520	0.6696130616448083	-1.202451941315297	0.30238950176186946	0.5253219591229084	1.9615554760045797	1.9449199388990586	1.8202809049425015	0.920346078933216	2.0476465173521623	3.9455163379236606	4.138936986010149	4.53182886886829	2.4969940122503838	1.9465122173755682	5.978958591624552	5.774500355446423	6.698558790460812	3.398634902002768	3.0150120182209563	6.855812532281802	8.485693910155272	7.936520079602105	3.6231939701156204	3.2149448313605835	6.394608481474794	9.405055976010376	7.757201175178134	3.379319182447043	5.001813875921439	6.995402795296069	5.854747757434979	4.53706644820077	3.3131890213286055	2.841727011181652
524	-0.1505973484290205	-2.302707189468206	-0.41690075292234136	-0.12385074017965084	1.2567708460548639	1.458446737421902	1.3958330119177549	0.4542643118356521	1.4613938294707356	3.3125348007492024	3.767107238795243	4.167969216314048	2.0510005899144947	1.622795577720462	5.262250886982648	5.37220953538667	6.330944998969514	2.888744585373247	2.4566447672808445	6.2723102411219465	8.088231066310136	7.623935203377147	3.4511175068507307	2.9987542553530675	5.938497528341696	9.203438735613648	7.602960090515064	3.249384395024853	4.926945197063833	6.930260163929777	5.78043268651665	4.508798111022385	3.289071790020477	2.832987778186749
528	-0.8391025045190431	-2.549998515366682	-0.620827256065771	-0.5384406433816264	0.9474679207722412	1.3846243584960418	1.3396707739385183	0.2143038505865593	0.983157632252873	2.935396187046845	3.6627721694022917	4.073351372925005	1.6945549206865649	1.3942111695375112	4.734164702860616	5.130655752579787	6.082869514366352	2.4881741937759476	1.9802874276708482	5.78827951877223	7.770838717868311	7.394972305700827	3.21891330859971	2.8182389665021845	5.524802193997993	8.98926828022176	7.478497486306598	3.017617933283957	4.751077639982221	6.773944837633762	5.713860497353674	4.382532108686147	3.153534881259281	2.756268971159986
532	-1.299733277854048	-2.050271505901443	-0.3781267096986269	-0.6744385940689958	0.9845279430327996	1.6412976938770567	1.5865634639737434	0.1956333513088992	0.6323193891773202	2.787453882809157	3.7609023952897904	4.166388977975752	1.455295320651294	1.2282400100215507	4.411416042634218	5.023116099073222	5.920053467108966	2.2485778274985457	1.701910610670435	5.441311822504684	7.575208167977709	7.246636372390037	2.9668500348525635	2.7203023365004273	5.210480200010085	8.818582512525259	7.42724702867232	2.785418503404506	4.542201984381652	6.603766424672307	5.7342481468383335	4.222899426288888	2.9717671796155396	2.6831338337866515
536	-1.562538262236916	-1.1862229078861175	0.07807217518645451	-0.6025947317168148	1.1750580042735592	1.9966639229908296	1.941349263058159	0.2986335448831535	0.3703848412222321	2.7546236445497603	3.897064199145234	4.292936791071777	1.3046249118291247	1.0909953089825621	4.241031159183783	4.9548940533470285	5.763731465092753	2.1613428538113224	1.6698955255309285	5.22922228446594	7.484196167169895	7.131990414732713	2.727900975015788	2.7510366370362336	5.0207633845405875	8.715640046049323	7.4442887118263155	2.6359133653847535	4.391873348591761	6.486260874584459	5.873268589449987	4.112189282525435	2.8315422463453057	2.680327647117711
