time	FP1	FPZ	FP2	F7	F3	FZ	F4	F8	FT7	FC3	FCZ	FC4	FT8	T7	C3	CZ	C4	T8	TP7	CP3	CPZ	CP4	TP8	P7	P3	PZ	P4	P8	PO3	POZ	PO4	O1	OZ	O2
-200	0.3269046238751914	0.41560250415776634	0.47061407447251924	-0.12357250569854179	0.0862647963372446	0.12080471187132036	-0.10050421927826418	-0.20401473291863575	-0.27606457402147927	-0.1402654644285786	-0.17868669285959707	-0.19588856349602188	-1.117465374032614	-0.43505927810499584	-0.4624942827468802	-0.5780150875756863	-0.3379372647813272	-0.34672564180572374	-0.6553873403214718	-0.6792080385225913	-0.8453317859287918	-0.3957252492450304	-0.23951886533822803	-0.6838607770820113	-0.9265734529943366	-0.9151861644526827	-0.6613923890581416	-0.4803407180102787	-0.4287692297600521	-0.680213628482058	-0.18545292271044916	-0.22954304458361413	0.03317631027666954	0.20854672736920682
-196	0.715228317362313	0.7786360959421529	0.7742986659527986	0.09730411296357833	0.3782269945132083	0.4522562015559168	0.20172648080916342	0.05831459894954485	-0.245946287487871	0.08799029119449092	0.04624396923429844	-0.014389202893703962	-0.8525256493025052	-0.46904784322571064	-0.42848500501215825	-0.4872458564854292	-0.2237188512398975	-0.13879327440982694	-0.6714579446052382	-0.7433812599487043	-0.8902680851393742	-0.3672012379435267	-0.15968038101412027	-0.7834599594362909	-1.0645272704904276	-1.0344756815541545	-0.7952549437471792	-0.46212425711304883	-0.5935584291731009	-0.8107721189056034	-0.3465153864218094	-0.3002730004358838	-0.06250865741683444	0.01998529391905397
-192	0.9487279033549669	1.00192951903104	0.9544898843508564	0.2297181183260386	0.4469206917923185	0.5078337775760278	0.2371220731708937	0.13649730349887568	-0.20074833878854642	0.10964247556660893	-0.046428449334702804	-0.14541867338659153	-0.6680779440224939	-0.474957375519369	-0.5720170721870823	-0.6689311845102993	-0.3928164829826905	-0.10563559803518327	-0.6330609305610986	-0.962841985178921	-1.1174013586442868	-0.5841556176695886	-0.24187742112603544	-0.8798138477046784	-1.284770008658123	-1.2881152597330512	-1.0925036641194399	-0.5783066734971914	-0.8148149231365767	-1.0238741610425908	-0.6754343492620994	-0.45885988954087675	-0.29725858494094626	-0.36103695539874153
-188	1.010349271130754	1.063740966018536	0.9786515807238749	0.2673247151778074	0.3239244214462686	0.3187814346848088	0.025454625423060824	0.01495414968529738	-0.12342586337160337	-0.034046664748062956	-0.371028094547024	-0.5126924501826268	-0.6438117011028032	-0.4320394087850751	-0.8010116795343416	-1.0193490956319573	-0.7652326802960616	-0.2852184765290381	-0.5399324284272985	-1.2106161086988592	-1.4229682648018207	-0.9632025932789016	-0.4678584027398984	-0.9293037629506696	-1.482383366656817	-1.5813847740301534	-1.4613851271926204	-0.7919934968025937	-1.010713932346569	-1.253124114687423	-1.0873533459866913	-0.6481013281671683	-0.5926683530149173	-0.8255226591248621
-184	0.9466450190485497	1.0016690467340292	0.8737004377240806	0.23003677965736452	0.12930536237495135	0.040212701904574294	-0.2841967933155226	-0.22612747492918983	-0.005143299220182781	-0.2242930823862138	-0.7223101240041315	-0.9076559520693509	-0.7748311738478775	-0.3249867252250959	-0.9651492213677063	-1.3365576233497596	-1.1454373569179241	-0.6025403126762723	-0.39944159883739316	-1.3183160986994649	-1.6329678255814373	-1.3117432561180984	-0.7256404739179034	-0.8892160035571	-1.5292501410975106	-1.757695074412039	-1.7301752523608533	-0.9898052786632439	-1.0786423655933401	-1.3854188884088918	-1.4158955776706297	-0.7766610364378621	-0.8158853033447507	-1.1979042261397062
-180	0.8316153862937751	0.8859795905632569	0.7062352281859521	0.14702199362351798	0.00306523148127864	-0.13512664999224255	-0.498113779956144	-0.45724975947330193	0.1404714431792411	-0.3291994622978948	-0.8840543605418726	-1.1056883307197578	-0.977727231895032	-0.15950208862088602	-0.9373176074204879	-1.4261009657140165	-1.3281247582282283	-0.9052361823115137	-0.2298422002949865	-1.1679949730947974	-1.595316167618332	-1.4287333452392306	-0.8689247347827995	-0.7465656380877898	-1.3431185450022012	-1.6792068439049415	-1.7331285432927281	-1.0424927446747825	-0.9500428414200369	-1.317719694625348	-1.4935946426828934	-0.7650914172883005	-0.8507808425404004	-1.3199084963852639
-176	0.7240070682366025	0.7800908665035129	0.545303641373027	0.04202566285251738	0.028872338982046483	-0.08322773852793015	-0.48560485121193864	-0.5680068120920743	0.2757015519333913	-0.27288258006817884	-0.7437938432987978	-0.9907460187693587	-1.1350597114515715	0.03187037251293791	-0.6826049072197645	-1.2043495147815755	-1.2069416015670231	-1.0385385725503664	-0.05953895285594614	-0.7589902858644955	-1.2644432751202708	-1.2121553390416528	-0.7965000847733934	-0.5327854739089048	-0.9367929077338548	-1.304314967677075	-1.3996514046617154	-0.8778384901771645	-0.6314187629970379	-1.0151506636738683	-1.2400499550982398	-0.588015972083365	-0.6622601134745909	-1.1316049070398229
-172	0.6401330812504881	0.7079074960955484	0.4281452883401186	-0.07119714450742023	0.19146001290619732	0.1831437791730358	-0.24921101268791082	-0.5200657831413058	0.3535549929752336	-0.07275972496974555	-0.35121065289516923	-0.6179688557281392	-1.1543912858427663	0.19967579791200477	-0.2770470969834762	-0.7428327184042213	-0.8271141627409916	-0.9206896997094786	0.07949089983897763	-0.21277196651621583	-0.7304442506468029	-0.7145919781762975	-0.5076115714608661	-0.3142263285332844	-0.41968601836101843	-0.7181639653193786	-0.7979930023073133	-0.5245342837441902	-0.20912237412583298	-0.5375583754318886	-0.7088817340119424	-0.29191186950415854	-0.31751060405676124	-0.7046634537071934
-168	0.5534750209185889	0.6438866241410967	0.3460759511793123	-0.18379251612513323	0.39001792570826205	0.5222159014868599	0.08078271875251374	-0.35877308158892074	0.34173756751564405	0.17495377317602864	0.11210619629927641	-0.1789162899506922	-1.0102988456014013	0.3020531825545735	0.13443759049805634	-0.22802807333118297	-0.353924541771908	-0.5827265367100618	0.16486972528793709	0.28811928557132055	-0.17439189509231082	-0.11563681036840737	-0.10289600465544999	-0.16051593382363333	0.052430052177855194	-0.0962245089366486	-0.10757281604071783	-0.10139331195981155	0.18800841224409728	-0.017193892927270783	-0.0664809493532165	0.02360388630629642	0.04816269489883813	-0.20850144274045304
-164	0.41688093437800355	0.5290866480820619	0.2553498738517635	-0.28619220780595284	0.49616685384411613	0.7398570757306122	0.32085528888756537	-0.18155713333544318	0.24096345840651834	0.35007792622871753	0.4321803141649684	0.10840624543476611	-0.7516181449987089	0.3265948883393981	0.4147315908928295	0.13923265004767943	0.020685067348111492	-0.15190340540204136	0.19474092076725283	0.5917388781866365	0.2246326351454807	0.3709071567230801	0.2675535374085224	-0.10908702733393003	0.3516945830048788	0.37949427866490065	0.4641959357462766	0.24067623852523207	0.44773024207561396	0.4005745639224233	0.48509222146584213	0.2504378550882252	0.3006574801960367	0.17223249332335636
-160	0.19449149023065876	0.3064594261061471	0.10661720457576906	-0.3676928570523929	0.423603325012734	0.6933342200894042	0.3357812455759552	-0.08217475542540603	0.08750159271321134	0.3723334064619871	0.4763996291053578	0.12149151383959139	-0.4726751732813261	0.29734402819901606	0.5030904399567779	0.2493365996741355	0.180261447570587	0.21239130145331886	0.19030253541106518	0.6496218426515495	0.38020539187759805	0.6051030739765646	0.4802643346581919	-0.14558780156571471	0.4373361457273448	0.6072826370165634	0.7778059224518172	0.3935475935536596	0.5249436484434741	0.6230424626832556	0.800945339564874	0.32159697928295533	0.37268221284233205	0.32568639434602537
-156	-0.11399353266784051	-0.04254952807412565	-0.12324704943772867	-0.4221958805392062	0.172001540226596	0.3665234139248523	0.11117816688362783	-0.10156825904236622	-0.06221453457264256	0.24005880891272385	0.25943109327619757	-0.10164881471957678	-0.26337087087893674	0.26208868556608816	0.43891736754227656	0.136438294900697	0.13810266519488051	0.3976120044683094	0.18727675033016544	0.532714902009669	0.33706954036487785	0.5849458560480255	0.4982552813824835	-0.2103828782491993	0.36890235450112147	0.6092970951909513	0.8200460055627921	0.34370708378798476	0.458108871018603	0.6485016329604691	0.8533189871224627	0.24143379865725345	0.2913382940089331	0.2596302323938894
-152	-0.46822523952524236	-0.47858732817934796	-0.4138882745783541	-0.45445087437332804	-0.17614211097591534	-0.12294492839528619	-0.24145673154427288	-0.21045784599097625	-0.15674902459146753	0.024962395366587217	-0.07322047632327663	-0.38921707770308184	-0.16681057172621316	0.26546698741646074	0.32999575054776126	-0.049806687855140475	0.016201039735302323	0.39072784682806694	0.2185413831915222	0.38387468360302945	0.237104072568217	0.43399512658218514	0.38322278760476686	-0.22892168106456065	0.2672964625762552	0.509045540001252	0.6959037167145391	0.17361994043861254	0.3431016496102073	0.5573350177044977	0.7293360810939367	0.08053173849515942	0.15420357844043872	0.083837739911602
-148	-0.8008891919896374	-0.9122895575378462	-0.7073841673157417	-0.47890806077207454	-0.4989866005697087	-0.5844371900107966	-0.5461639152088983	-0.3301053634892264	-0.17009322302312394	-0.16874502556635326	-0.32982301628763827	-0.5355558977910704	-0.16616472559938003	0.3255642644291889	0.2880378060221183	-0.13331915404515352	-0.03457333511325889	0.2774523191599586	0.29833060427684743	0.33750066075944973	0.23481516480765377	0.323606073039327	0.25662261182843904	-0.14955314956099797	0.247873961299685	0.4581575680132615	0.5629145488831903	0.014945253692087114	0.28064632344915097	0.4634164262038721	0.5731920585465731	-0.0613468511343864	0.06990279984706815	-0.0574436409811246
-144	-1.041199204677133	-1.236622807241597	-0.9323595738712991	-0.5088495003250808	-0.6921743733096481	-0.8472461679048544	-0.6540945751842022	-0.3766162385968649	-0.10765421363353371	-0.25538584525479463	-0.3749415566991613	-0.4152864803319651	-0.20138445445714456	0.4267994154644883	0.3695467999188059	-0.009289262792856795	0.07676818947483435	0.19246581148192027	0.41567787423089453	0.4511066663796809	0.4108978499528781	0.3759622564360405	0.23344662726590482	0.031217293735008565	0.36204442290451394	0.5538900480591121	0.5461736903706167	-0.01986311371079864	0.3252392999066939	0.45328488831517566	0.5075440990031508	-0.10588380667656253	0.09822781359191103	-0.06389573200306171
-140	-1.139696475966232	-1.371100422258519	-1.0346244547471384	-0.5435543046579308	-0.7101004105759432	-0.8368079641195628	-0.5156408535336422	-0.30438700241486155	0.001813848731185095	-0.2023979718343464	-0.19332271765537018	-0.04604516539273265	-0.20627753384485328	0.5310930000247807	0.5533829913472881	0.304194658226657	0.33753943358077826	0.24421684382291828	0.5399434552865541	0.6844403130416992	0.7324946504218995	0.604213295841604	0.3636655798313444	0.2680341892627776	0.577790139646872	0.7931941131592731	0.6813797933541443	0.10953929247618265	0.46199169638340304	0.5464167581113971	0.5777708873466582	-0.034940611482856966	0.2234263265452396	0.0751261709223852
-136	-1.0855419608365404	-1.298410531580532	-1.0014349196899426	-0.5627927765942216	-0.5750427827621764	-0.5987734779499122	-0.19740924189317588	-0.1268726435080694	0.1223065552007729	-0.034851800562365864	0.11523490370028222	0.4298066187974262	-0.14396819435964453	0.6010276064003368	0.7627828697973335	0.6848572475308504	0.6502580030236311	0.4549102473694521	0.6355722530530796	0.9323561168019109	1.0782859298184833	0.9174571014128915	0.610938309080698	0.48937544103091	0.8061805943162133	1.0848082276612079	0.9116592384209379	0.3588357260704215	0.6217450483837054	0.6957384330349943	0.7450126390720878	0.10309907022910646	0.3726184656749057	0.2893146269169507
-132	-0.9109086371311765	-1.0748703452628978	-0.8666313268715671	-0.5363036380578897	-0.35681602268730667	-0.26524877481248893	0.15918926854473336	0.09368230378817127	0.2236319327668732	0.18509417725561303	0.39977934855616015	0.8286666849195365	-0.019974902221792646	0.6188319309823078	0.9123756266446846	0.9784356330963989	0.8974928833236478	0.7500715236799819	0.6765905601585332	1.0863202782860526	1.3086782660821965	1.1809670895323827	0.8767040349760188	0.6291700585692742	0.9531858539357527	1.3062462773722112	1.1316654653587617	0.6287043674808198	0.7220937591441432	0.8222997167807043	0.9222353077492469	0.22122950796062185	0.4640515136923504	0.4774153220520885
-128	-0.6819004399249429	-0.8094034770557264	-0.6955885273537626	-0.44436955339772805	-0.13879804278139693	0.012907822583809216	0.4103431393276764	0.2790910594569534	0.2863233082218053	0.3880411376692771	0.5396841154777912	1.0213067505800177	0.12833091584230114	0.5904760345809686	0.950772998316692	1.0798768969928112	1.0091129515919441	1.0008021567826046	0.6540683491405673	1.0886237593822266	1.3391919102236018	1.292816158845328	1.0535882684809976	0.6523244364481319	0.9670554971121	1.3709063495356204	1.2496230570714455	0.8178411701534722	0.7115018945850086	0.8621430375266672	1.0277222368995744	0.24152600704248817	0.4557006347595007	0.565968094827324
-124	-0.4787421512437611	-0.6189654453862676	-0.5574084506266755	-0.2968977980270317	0.01101707291801777	0.13088458743428819	0.47442722200775284	0.37288761044770946	0.29937851353399786	0.5194259868859021	0.4976209687543853	0.9880118941157697	0.2566834979729234	0.5351465330917865	0.8756028391665737	0.9778823827849905	0.9925931667062845	1.0940864058528097	0.5746533856188418	0.950892803652388	1.1761659354078469	1.2327525584568129	1.0775644751999434	0.5635741934852541	0.8561993219693165	1.266956922193392	1.23092877554058	0.8691305496206893	0.5920325502707033	0.7972251156706107	1.0236339543247523	0.1362350132602038	0.36504554656370014	0.5418653474478394
-120	-0.3699131896693152	-0.5800612554210147	-0.4976733314346882	-0.1369392719387693	0.05411787689969858	0.0616439616613901	0.35660892634955743	0.3623235514552924	0.2570900612539099	0.5472146854889907	0.3187935940323123	0.806099591604168	0.33628153716061426	0.4688099610890127	0.717990694617454	0.7422299366331296	0.9101340151696313	0.9907667611856882	0.45354163532189745	0.7323527317630476	0.8986499882897512	1.0571302148831878	0.9521099304956286	0.3980340947592207	0.6717796904769234	1.0494486067025088	1.1007122965678924	0.7857683877179688	0.41000670091109115	0.6551071984917347	0.9208533144589739	-0.060289230045452405	0.25058302220020917	0.44429194815042644
-116	-0.38783055445981734	-0.6980937701719919	-0.5233136402269168	-0.02232971036756928	-0.018268795637855714	-0.15367686709704959	0.12711870638224215	0.27601304580620106	0.16012802679641444	0.4593606579626929	0.0848337782267676	0.5842309579403944	0.35991647748676026	0.3939566900320426	0.5127291666437157	0.46809577823711707	0.8215901234864449	0.7401089053541524	0.30693605464689017	0.4964929806571813	0.602349995045985	0.8486015775236246	0.7355611901785616	0.20132084140016862	0.4699675130899506	0.7955534438074606	0.9102833248044166	0.6144922360164579	0.2230722749561677	0.4815516459704783	0.754064140800181	-0.2741424732439377	0.16881518023307676	0.32600477255528926
-112	-0.515277801643232	-0.9089938975272461	-0.6052656158424566	0.00721664259250847	-0.19058889102500437	-0.4416274417217594	-0.12638746170082268	0.16269221860817779	0.021608287413996907	0.26071965628602106	-0.14277876877499343	0.3905245055829291	0.3318726114000325	0.30272510571343003	0.2776485972547084	0.2168420845755885	0.7353818398028852	0.4447178531385937	0.14924344382752697	0.27650082041548896	0.34398901375706054	0.6578950865347754	0.5025294410415684	0.011537392594593437	0.28010630536884934	0.5555042014401991	0.6954630595768272	0.4110092808360043	0.06531710161169005	0.30709972900103016	0.5502459989006794	-0.4352506984212087	0.1351631876393976	0.2143340105367395
-108	-0.6896091086142816	-1.1115841837474747	-0.6959598642897757	-0.04260644305916186	-0.4278992105647847	-0.7342351656495913	-0.3434055438908274	0.06384062750910599	-0.12842860785484134	-0.025274120207394883	-0.35311347157017464	0.21959473137249463	0.25452810461632	0.19052623164234245	0.015166455841515852	-0.00964025778124655	0.6009592398729521	0.19969834336883413	-0.004958286403267081	0.06919966620616991	0.1196811717707215	0.4752490210455187	0.3047651044780396	-0.14954732320698588	0.09723806356675335	0.33012306606868	0.4557255495009539	0.21116399711700864	-0.06931818259142594	0.1300251480634417	0.31436017076278966	-0.5173919783880773	0.11288302363267277	0.09929936354123581
-104	-0.8261763432624634	-1.2138916223395761	-0.7509017567749622	-0.11806433618062638	-0.6802918297758059	-0.989188072568153	-0.5085735308204674	-0.004108279933093777	-0.24728883740456348	-0.353879808486117	-0.5745097384252958	0.0159075464651693	0.12539389697840903	0.06771434826443962	-0.2689006619816898	-0.2490583502918653	0.3486467889089513	0.04421675566596085	-0.13930603826637383	-0.14417858385400928	-0.11364405573524354	0.24740777847291248	0.1529565151644353	-0.27576190163607406	-0.10044112776192872	0.08532842227134851	0.165217101156811	0.022596014606527628	-0.2165492618577075	-0.07474893312655419	0.038426820091742364	-0.5506456480428894	0.03734379997361758	-0.04752042505068248
-100	-0.8534315206915145	-1.1720054120037393	-0.7451130132936362	-0.14372703396749217	-0.891123173371163	-1.1883391111888801	-0.6390115006525813	-0.050222642592945656	-0.2939562194078258	-0.6628081781819168	-0.8343154766952832	-0.2680733793166185	-0.05338789136639681	-0.04011417542700933	-0.5467263446355789	-0.5310022817556616	-0.05009528236854339	-0.04902706655402732	-0.2378435426905947	-0.3678249409448817	-0.391369103397264	-0.07303529214300764	0.024789083686469444	-0.3694532504290671	-0.32309552945579234	-0.20865324086915152	-0.19372236679758018	-0.1628877516448698	-0.41110741988337923	-0.3276350489927473	-0.2755203240114093	-0.5982370957529327	-0.1394863572175253	-0.23887173771153544
-96	-0.7473958115781254	-1.0051206324949682	-0.6783078295748214	-0.06800729764219045	-1.0130448315792706	-1.3246788945131733	-0.7560554127678099	-0.0958045122588798	-0.2501476698758689	-0.8888327456921619	-1.1201360197396775	-0.618940590249459	-0.2597071521877778	-0.10635825219719618	-0.7681441883720542	-0.8362879135952105	-0.5414128885904919	-0.14081804418773491	-0.2918905012390605	-0.5748953208713743	-0.7015367132594602	-0.47888776539057976	-0.10748003396077858	-0.4340520192154796	-0.5506540522977815	-0.5409568534544666	-0.598059235493372	-0.34647729905389407	-0.6555314643521748	-0.6170474871315275	-0.5965952262120952	-0.7112619858903934	-0.4117204834556687	-0.447889535488374
-92	-0.5468482957384814	-0.7801132778498918	-0.5685775265643577	0.10041931246199601	-1.0262160275299033	-1.3907576764279443	-0.8614098407931363	-0.15640638729184125	-0.1346734460768371	-0.9918392275564241	-1.3701872791028655	-0.9526671743182268	-0.44269648082542934	-0.12274724214080712	-0.8817301966340138	-1.0922396155437517	-0.9982435678074361	-0.2733078592075775	-0.3067736617926096	-0.7164325696023145	-0.9789392327388348	-0.8940890408830535	-0.2498687946448301	-0.47025313854699313	-0.7363650780206177	-0.8517116286708629	-0.9774095987438258	-0.5078873621515456	-0.9073202587108234	-0.8918523169888595	-0.8671835639040167	-0.8880767799843842	-0.7121942025323268	-0.6137086137535742
-88	-0.33917701158720287	-0.5757960662609458	-0.4400074172831768	0.2892835728971011	-0.9490461325526193	-1.3777470553899314	-0.9326837039287693	-0.2301607573181843	0.00039770387129099076	-0.973475096152136	-1.5001547298703104	-1.1555734843642567	-0.5353946076227153	-0.10840101512720028	-0.86463659783455	-1.2081487148299668	-1.277352329843843	-0.43538227567421817	-0.30131435318212546	-0.7493488173639049	-1.137202617635126	-1.204255339443068	-0.37859553003092405	-0.474919794790933	-0.8294498899499078	-1.0582433912262026	-1.2401603429000851	-0.6105021818959776	-1.0928393574779673	-1.0806248160735645	-1.0279345486437284	-1.0636385652390703	-0.9413483119086024	-0.67506164141926
-84	-0.22099190894598583	-0.446557043855462	-0.31308290283312257	0.39755013484718876	-0.8327845313980926	-1.2844380107875624	-0.9394794082763884	-0.29901802464330646	0.09176542586761495	-0.8780649282220945	-1.450242634926441	-1.1508551806957494	-0.4856973874227188	-0.1007968631822113	-0.7409928422339398	-1.1288408012499875	-1.2929791179437324	-0.5676322565052513	-0.298357366762284	-0.6644689423951006	-1.1185334892642922	-1.3152003255063427	-0.4549804914431426	-0.44218876846251437	-0.8022492507706884	-1.0993807288069721	-1.3178220954048137	-0.6224942787666404	-1.1416805953765057	-1.1265376777816813	-1.0491651270126727	-1.137657877910771	-1.0164196465579325	-0.6089700445058944
-80	-0.251162260136674	-0.40241691368545673	-0.201608836141835	0.35261395484589564	-0.7374370675541966	-1.126024958628618	-0.866163847643774	-0.3404200366485329	0.09679760759471705	-0.7705340365982898	-1.2221552102703728	-0.9479080414681514	-0.28981929944298973	-0.13166955080167583	-0.5733547196217544	-0.871818778697917	-1.0641715499713063	-0.6050680860501697	-0.30966788452166105	-0.4950880991833723	-0.9293109155080246	-1.204144594013355	-0.45333045606599137	-0.36575773266000083	-0.6642535312094262	-0.9702257489504094	-1.2013555734820665	-0.5404816256228724	-1.0220749352399434	-1.0175074313223371	-0.9491765475150586	-1.0277579996863495	-0.91435950763638	-0.449622153100653
-76	-0.42012029780175547	-0.41309201613081	-0.11426465929507804	0.15651254316391822	-0.7003816944559188	-0.934278366591064	-0.7264089566010523	-0.3420002153821837	0.017709866121401692	-0.7020561081327217	-0.8832253195397848	-0.6432370527239745	-0.006671927852474917	-0.20229545184559158	-0.43054723630921293	-0.524689732657372	-0.7071552258757375	-0.5274490700756372	-0.32398205913762085	-0.3007290057695866	-0.6405699236909439	-0.9334488487518192	-0.3827292015426281	-0.2417547100639139	-0.4558983433657215	-0.7271563988446486	-0.9476578807746607	-0.3988393237057808	-0.7583578209803806	-0.7939574698429842	-0.7863043526824359	-0.7181978803621702	-0.6842287761579254	-0.27291512420414404
-72	-0.650678156163592	-0.4302832771404916	-0.056997559820751824	-0.1063770351108336	-0.7140626293273836	-0.7462584953540375	-0.5595123157680008	-0.30963349264171247	-0.09619293337615856	-0.6816021782832398	-0.5343301282743592	-0.37149161006594955	0.2619752579273669	-0.274587839148575	-0.3495229771849374	-0.20280975052173755	-0.3771994700445196	-0.38086444043321566	-0.30814140957281727	-0.13549196685914858	-0.35274231344809537	-0.6197577699272664	-0.28781691120913844	-0.07225605082150396	-0.22677564563716332	-0.4599184084247704	-0.6521521790251659	-0.25719255144034237	-0.4213311661573104	-0.5291445241919926	-0.6280662401554656	-0.2762715511499393	-0.42187124384225666	-0.15447455605606467
-68	-0.831251023101183	-0.41264286533123906	-0.03153946987772218	-0.3071414224499453	-0.7256051879682854	-0.5859984740721013	-0.4093657721674395	-0.2634475522542467	-0.17061370568114975	-0.6697850806491957	-0.2594266229278507	-0.2326421135750802	0.418803690806636	-0.2877383224852005	-0.31393870632064697	0.009171945019751257	-0.1902740741932568	-0.2544965737593134	-0.22330908420926243	-0.01965226973101862	-0.14471617304504245	-0.3748560538364469	-0.2261644894135019	0.1317214366448218	-0.012001298337676776	-0.24702005025962748	-0.4022541632033085	-0.17163637237130153	-0.09614050364063038	-0.29388865754314347	-0.5158376680701937	0.17467547909027495	-0.2214661085974604	-0.127123176730589
-64	-0.866401074129381	-0.34080001625801665	-0.030226284561733187	-0.33708733235129834	-0.6618725640752398	-0.4509066331923197	-0.2998313598215356	-0.22480153980718653	-0.14267227017620987	-0.6003864988427513	-0.08661890753096115	-0.24020530222805073	0.42098519099758513	-0.19223210167034602	-0.26441511445044275	0.09687361841777496	-0.17040905313383015	-0.22548416199975324	-0.04808998840826661	0.06718714518273235	-0.0378667301473633	-0.2538241439609775	-0.2360371196271089	0.3498651376474066	0.17852584972607677	-0.12103205143650032	-0.23936046599513733	-0.16611576038382067	0.15501013359034174	-0.1257184442683916	-0.4465234268358936	0.5125666843824682	-0.1293690052342496	-0.1641558106569423
-60	-0.7192564588507085	-0.21776594166611335	-0.03303439534310793	-0.16515958267474798	-0.46876826764009755	-0.3134098939135348	-0.22343462649200363	-0.20404992946128678	0.00620064184366767	-0.41963913930802094	0.0167192201639295	-0.3212452820773461	0.30252003593359805	0.017396960363572397	-0.13605698908787034	0.11420080781952362	-0.25053152378725324	-0.3088870338747525	0.2035231734144142	0.1673871125525087	0.005375258145321171	-0.23818476437991112	-0.31408893982742403	0.5560215697555433	0.35307210594680494	-0.061907701037984424	-0.1490776535085028	-0.2203817958036053	0.315678863920471	-0.01863827365401462	-0.3809219589152787	0.6733757240460445	-0.12515577642313253	-0.19740970382917172
-56	-0.4257566620090979	-0.059580121038930504	-0.012479982307336804	0.1432545628507117	-0.1442376669579937	-0.13766832614949884	-0.14892183206629214	-0.19556522320009292	0.23797939657685602	-0.12159936844404015	0.11475790263051028	-0.3643679907659266	0.15568159481320243	0.2905695729072057	0.09868572627424184	0.1439052965584041	-0.3207280031689689	-0.4451071012703166	0.4808196115275175	0.3134651772214244	0.05100930469270513	-0.25926580959665274	-0.4166308630914798	0.7252660971450143	0.5207646475995328	-0.018320526881454694	-0.08178581276748681	-0.2820541851551912	0.41334652796335836	0.06341852231703358	-0.2729700796864882	0.6776268465099818	-0.13822405005365912	-0.15999406535761998
-52	-0.07505916785124622	0.11463668168450437	0.05311451466382469	0.45744201425453956	0.2530949407386365	0.0971279886892923	-0.042650997531018975	-0.18269859208233238	0.47268429279195373	0.24050201414899347	0.2588305168769571	-0.28669661211109104	0.07954835871639603	0.5384515510315928	0.4062006165262456	0.24487183926270134	-0.293704717609831	-0.5368047939098959	0.7145217043002847	0.5018385040010765	0.15046410224596152	-0.24431364176578912	-0.48527312156227875	0.8419288375578667	0.6763377768606791	0.05749224111823563	0.011175193795659344	-0.2962606541783138	0.49521788829704305	0.15939119417956138	-0.10122401986791567	0.6127813442971446	-0.09036561823917968	-0.02699333795050415
-48	0.23224402905479163	0.28631940411758233	0.1634052391695032	0.6437090023001145	0.6241792424655418	0.37817689680940103	0.10705751898677437	-0.15132753512799788	0.6212645157387394	0.5724701270908762	0.4531888652326849	-0.08107763508353717	0.12360152570989354	0.6726474148933728	0.7003679257830105	0.41630598797595175	-0.1514275368205173	-0.5117902146769396	0.8447983243593988	0.6871077997025975	0.30996200364056264	-0.1585896011163234	-0.48109680292734563	0.9033961273272983	0.7971057871720717	0.18204085482889656	0.14716297350921703	-0.23568619728187978	0.5965762123304598	0.2872144274612699	0.11589673877303598	0.5825684651925166	0.06008296444743764	0.170170202421657
-44	0.426116167423153	0.4354117799733075	0.2879612438560976	0.6265890582477266	0.8691015221587569	0.6564348919507544	0.2777469449183395	-0.10155779842723454	0.6206006392069072	0.7774525861184808	0.65041947200592	0.18162505282799324	0.26143070989407385	0.64331483678521	0.8789892770509375	0.5984668120533171	0.051744229960930185	-0.3700508167937541	0.8439092018755292	0.799534914859115	0.487893103321411	-0.02017151186737818	-0.4063738872281702	0.9162030792946282	0.852833149664125	0.33380949412944105	0.30402260941994724	-0.11418565333862774	0.7184991222361045	0.43555500993434115	0.3284811071208755	0.6508542878884587	0.2955495707679387	0.3621161272919977
-40	0.48985987778009893	0.5395383821216833	0.37572044039279723	0.41862460865186046	0.9285088158053072	0.8647252299411072	0.4220715154481963	-0.04914758342016858	0.45570191625936013	0.7969419936086424	0.7797237018926234	0.3966771056173678	0.4101805974617843	0.457477061785579	0.8695057012539584	0.708930431006601	0.22885547520554356	-0.18464213563077778	0.7223268729092711	0.7768474201616041	0.6202556475238182	0.1188511845449003	-0.3006715468921682	0.8870277978436305	0.8219250419845922	0.46863514066632783	0.4373697925492356	0.024360414532907715	0.8262795189023091	0.573950527649425	0.48287376639522556	0.8098758438643787	0.5489450679270963	0.4831074464044775
-36	0.4588967252112549	0.5818804487796113	0.38174095653474716	0.1087050658700125	0.8099127987440461	0.9510112380812578	0.4961152958265156	-0.013015304659229072	0.16326805907989897	0.6372714026574018	0.792513547326946	0.4887920903739661	0.4864958810444363	0.1701182569738664	0.6629933102081218	0.6937094313273179	0.3160517207749221	-0.051999475675665464	0.5169975744545943	0.5955894574386945	0.6591408236074359	0.2102465028222975	-0.21261949783526532	0.815767345753038	0.7052102667169823	0.5467994795345336	0.5110797869176554	0.13588105107809878	0.8700457789389047	0.673035917967038	0.5513653145220905	0.9897872184559225	0.7391744237357232	0.5092620240705297
-32	0.39958339828695577	0.5656088576341697	0.2982697479346854	-0.18104994251316872	0.5860055670248117	0.9086779929107341	0.4894158529799657	0.0029728317092553146	-0.18293446256227427	0.3686168780556905	0.6964098197520492	0.45520612482537015	0.46416827919117065	-0.14520914815957386	0.31903815188920825	0.5612669572964687	0.3087727717710066	-0.02388974273133688	0.26991474560301565	0.28497517036967923	0.5991954192292119	0.23956140815332905	-0.16691005187809213	0.6951577049824138	0.5275265561136496	0.5526201711053785	0.5186341987867049	0.20419685491028716	0.8137502649742867	0.719180105300944	0.5435513840303441	1.1005144091477377	0.8107183555161517	0.4686578500359299
-28	0.3794147064643264	0.5238619433528213	0.16991235272900967	-0.34686067612812144	0.3661964526467624	0.7875173072005527	0.43884360679455325	0.02083630854591175	-0.4963980602606161	0.09854412053977424	0.5585109577383024	0.36664724257406056	0.39520978827831427	-0.42705431472722666	-0.05775891974886803	0.3817255189317893	0.26057645612730973	-0.06820242834753122	0.011989533870943937	-0.08126221576677935	0.47979506729106003	0.23179501236567107	-0.1484568860358956	0.5196744190446987	0.3286266020584049	0.498638956479934	0.4842200267010459	0.24946649309593433	0.6570239050489378	0.7166662794138887	0.4952952849280885	1.0813277932522707	0.7576081137602886	0.42048284305268646
-24	0.44326639063501033	0.5151213990557362	0.08072539398554573	-0.33790701542418	0.25465890700894933	0.6775716526090592	0.41668361320197284	0.08437673726236442	-0.7016194445061996	-0.06719676388225869	0.47559991358842546	0.3272054485166133	0.38153207205765916	-0.6429581625917746	-0.3566398313577955	0.2531839900777061	0.2508791976793503	-0.08566203691789467	-0.23993022679310677	-0.40981924430374583	0.36474567559659227	0.23339831770143635	-0.11382164032332287	0.2983305446722028	0.14889152310450038	0.4159318198193189	0.4459874618714264	0.312729834720687	0.43736013659680634	0.6787821633367463	0.44435247666704303	0.9299439764385856	0.6204961522648798	0.4170255650481859
-20	0.600336669359845	0.59868246165757	0.11494449497050853	-0.16434335667125455	0.31090834658327227	0.6696814877768377	0.4955487834816782	0.23725117683115124	-0.7527408580848636	-0.06207906811657131	0.5253228531925777	0.41670453443223615	0.510969577929744	-0.786434648435586	-0.4980355786623961	0.2527493530091013	0.340139239167705	0.025174548785903837	-0.47369056820483363	-0.6189128144850639	0.3111074260963194	0.28262096572092943	-0.023767284988955015	0.06245532988634659	0.017724551215721154	0.3381886175677104	0.4326116431757965	0.42541998517393415	0.21325714832346254	0.6165618880917684	0.40786960618038753	0.6992363912094514	0.4620998490110749	0.4720988261701256
-16	0.8231152871331069	0.799467382796755	0.3089071206399911	0.11717047512750901	0.5277690278079837	0.8102061728048899	0.7065215688987302	0.4925468551597896	-0.6437979920345395	0.11883112758198403	0.7241197806195883	0.646432398117671	0.795463142770854	-0.8611367323114649	-0.4557667065080674	0.39809739489181234	0.5360047803697405	0.2943109266479886	-0.6696792228003419	-0.6638410670686219	0.3432619861042483	0.385396270971014	0.12287225543232727	-0.1388535347055427	-0.05139654861825255	0.2888498298981657	0.44678243881911106	0.5815194234471183	0.03756652017883911	0.5335837589143662	0.3749431958268885	0.4665920424601977	0.3357471517192297	0.5546395764652703
-12	1.0570437881484818	1.0837681266125034	0.622488139488244	0.4289873529570569	0.8356147387388169	1.0740900012554686	1.0149092648631375	0.8137620666939224	-0.4100684513229225	0.4188766766939792	1.0156446669685195	0.9535643434291209	1.1516922683248616	-0.8677967168832732	-0.25896006757204926	0.6399021132525665	0.7918208221471154	0.6457329376129977	-0.7985151389942275	-0.549093364282923	0.44497984535404245	0.5128516541884199	0.2773321561963948	-0.25717896158136794	-0.06087287872561946	0.27628326346260806	0.46607443572627505	0.731848476469521	-0.06539306028068391	0.4298692036742824	0.3186062268319339	0.29519835039948644	0.2640377872476448	0.6099941119051949
-8	1.2388085095599923	1.3648096288555176	0.9506637430030945	0.6974087935959625	1.1321884365107007	1.3727943862587588	1.3292932476814547	1.1204529972397927	-0.1172116023323002	0.7430310230568883	1.2971688476237062	1.234788414698621	1.4394285642521447	-0.801802811982448	0.025066468801392586	0.8880813099373757	1.033128258957764	0.928390619795016	-0.8312712886803555	-0.3226279608210323	0.571862040506413	0.6195365770910635	0.361336885970494	-0.26717674664752605	-0.02488849119518777	0.2967705719130799	0.459378986390915	0.8068655708922425	-0.10565110269336632	0.31125017922019604	0.21880668346474763	0.21036860293681162	0.23793466329106502	0.5953444823492862
-4	1.3186460700121083	1.5404251774996554	1.1721210450143116	0.8704262949901901	1.3252170052448469	1.594615574625411	1.5412689408489655	1.3192170825076148	0.15942703147214213	0.9951241587309917	1.4699397049984757	1.398774977967151	1.536493893558775	-0.6632425768319432	0.3176800302591075	1.05636393757189	1.194952127300724	0.9972575877760509	-0.7570681552846316	-0.05667442069049849	0.6746281964435477	0.6689066273967139	0.3095794014267154	-0.1807931508029635	0.035036485553736126	0.3392215362567376	0.4063350846045194	0.7553977351190186	-0.11584071040708858	0.1943159992557219	0.07990033904406724	0.19953827509569397	0.23223864973561423	0.5068699108677984
0	1.2816438642568362	1.5470775326769515	1.2114647596290287	0.9290253496556267	1.3713687623686204	1.6600160556843506	1.5796281059437682	1.3496497835416195	0.36077564863670597	1.1163425417371702	1.4888365231117766	1.4116344416263953	1.4106208050399043	-0.46957200647054204	0.5565177784220456	1.1031323643489528	1.2528533903915369	0.7994615415415817	-0.5961303695886655	0.17867332651803994	0.7220766526111358	0.6529961807930545	0.11156383128609268	-0.044176068045423775	0.09478204673440363	0.3887749602515766	0.30934229415039755	0.5785125479397258	-0.12893284824720685	0.1017894965820527	-0.0686144007500174	0.23292316437564778	0.22646689357800634	0.38188382886791306
4	1.1586029500319621	1.3993507588342275	1.0802739831353023	0.8908435679832275	1.2944499221544965	1.562525864470834	1.4487549029966034	1.2185679643382676	0.4658479380767004	1.1094984980227602	1.3847368920650938	1.3111422028817008	1.1440718145095676	-0.2588133209369828	0.7154645305689614	1.048488495086891	1.2310966222198438	0.41330107942183186	-0.39657357234965435	0.34060370836094456	0.7140513640495496	0.5957220181683403	-0.1730802054803729	0.08376899340460775	0.13485839928910817	0.4300844062437006	0.19257679533021185	0.3380144527961164	-0.15818965395089027	0.05141271637810705	-0.1867682929091927	0.2878110401516429	0.2190614486170356	0.27795389224447714
8	1.0181103919073626	1.1894732683668028	0.8718937017362105	0.804411230440523	1.1734000414786727	1.3722852433843729	1.2291672198733357	1.001991031024293	0.49882197254125477	1.0370571587128592	1.2471343247397773	1.1850254505756033	0.8925664402361104	-0.07859785089914327	0.8098767975386927	0.9602494811609608	1.1875919073638623	0.014259276875615111	-0.21463708525349598	0.42748314034298057	0.6795021278391706	0.5400521741583499	-0.43664258608248946	0.16008396406287548	0.14853617511440786	0.45127248650102736	0.0903934908611224	0.13195466961923907	-0.1906510735705093	0.04540453839759448	-0.2446705990812865	0.3602712443315677	0.22632981779653022	0.24232926903577567
12	0.9387384033344116	1.042420861473365	0.7106313091456172	0.7327425461388946	1.1044974299201522	1.1997845142590433	1.0399295065373333	0.8125310519684843	0.5154355751375541	0.9918643807164558	1.1767407626006094	1.1282994718675041	0.8031378368127565	0.033788390372322674	0.8849708415576251	0.9179874635407639	1.1855702370274748	-0.2118419701472946	-0.0891712156667024	0.4758162784484139	0.6626596434075116	0.528243778802421	-0.5724109992834083	0.17785519316591852	0.1476604189720953	0.4498448956576163	0.03378717220239815	0.049202218527547886	-0.19579352389016746	0.06911677104665781	-0.2361103439330306	0.459567933114376	0.2693298750276338	0.28933936284447004
16	0.970919427804554	1.0483660671468313	0.6826512796332828	0.7267199140320604	1.1532907456844121	1.1368777723219203	0.9792860125612625	0.7451494913361466	0.571047662246903	1.0503861877624585	1.2315967051882468	1.1997835605847293	0.9365474558072895	0.06725353730626392	0.9901987885270574	0.972600159573687	1.265129205370614	-0.15919819434026597	-0.025388624455009612	0.5395153151242135	0.7029623967542433	0.5852773174767846	-0.5247808085543588	0.1662032003974854	0.16068698425254563	0.43714091071387595	0.04185154278440688	0.12711578575465554	-0.14415675365291541	0.10126174960796323	-0.1768704648320705	0.5913501962990375	0.35826975016738577	0.39782890577009944
20	1.1077730627701585	1.2107289998957789	0.7871209363137971	0.8001174310510342	1.3197333779393559	1.206674215131236	1.0738880607194794	0.8290832021761753	0.6878827792920105	1.230252620451955	1.3946961129261795	1.3945749962883018	1.2363681761997596	0.04048591096908341	1.1498749227102483	1.1203970880831344	1.423563476783045	0.1524823006117996	0.0023990985876845136	0.6594777090588558	0.815859196510405	0.7102268916318373	-0.31448191324943603	0.17011880831682918	0.21997697595847412	0.4359689939935834	0.11959046095218298	0.3335685423535449	-0.02559345954155338	0.12868143585617903	-0.090415820251115	0.7425000648825697	0.4814932930233905	0.5271466957134551
24	1.281266805274939	1.4395449125184525	0.9358546114181696	0.9189071036026816	1.5342659911519856	1.3508583273160342	1.2660603491289444	1.0137579415475628	0.839425263669687	1.4739067517261308	1.581465240300397	1.648064132344165	1.5620903929372043	-0.0093266553941332	1.3438168730186266	1.3044433560815971	1.6151405532112857	0.5966657385066864	0.030314303858037867	0.8374757149532955	0.9828942393282756	0.8779385663754897	-0.028053879667024766	0.2213255608454349	0.34199958953341514	0.4702513802099767	0.25938346916514227	0.5819889292328286	0.1422322537884277	0.15548026522482067	0.007291577272334126	0.878167984652651	0.6061440094902939	0.6385442598433666
28	1.3911080325290497	1.5971298177449786	1.0028114293529102	1.0132384274650121	1.6887229638378858	1.4620150290770164	1.445389386342503	1.1967549293820487	0.9619764065296781	1.6695123868752795	1.6832705693661782	1.8653695536247452	1.7657526686910119	-0.046631537260101004	1.509397622112294	1.4416576587518268	1.7692499116097335	1.0100326512585065	0.07917366156854215	1.0283681128287299	1.155822274150921	1.048318145012553	0.2233746195160275	0.3172368101216767	0.5110916482419358	0.5508638010422165	0.4428351510311492	0.7721558789785333	0.3194415859263519	0.20024159500110666	0.1135339808577825	0.955283520194037	0.6907938105308461	0.7094967943398268
32	1.3515733446329545	1.5695631464431177	0.8946809150041788	1.009822008444402	1.6870058732355315	1.4421724044628075	1.5065139494053412	1.2782632080230008	0.9885356401280888	1.7012789206467003	1.6230626065283815	1.9600530813321644	1.7687287285971334	-0.05477374778269957	1.5664129217654024	1.4611957036320025	1.817416424931118	1.270606991420932	0.1393099274694356	1.1561771602050177	1.2733565536774787	1.1776155203651244	0.3536135843408999	0.4202873696206391	0.6771621090958415	0.6653785092720766	0.641231118013768	0.835187731064724	0.45951604727122997	0.28188267279028306	0.23213797749084275	0.9437514519705892	0.7028013450044668	0.7349812369863613
36	1.1333298654552675	1.324139949316475	0.6019533261360062	0.8696240760781835	1.4913421831625184	1.255671378780113	1.4028488362179738	1.212829825200228	0.8872534014235357	1.5064018926734464	1.394668694789652	1.8878974866885951	1.5940263231086491	-0.04098736484431272	1.4552710019562871	1.3367373909579483	1.7222026543051157	1.3389463390877472	0.17533180073340093	1.1490244836407402	1.2862137523602275	1.2310168712053358	0.33251541768998977	0.4779070007655993	0.7730196098837928	0.7810356001208176	0.818430421670234	0.760187385547142	0.5274169431721843	0.40431284802400796	0.36070120243556947	0.8432604053187871	0.6336597188210004	0.7191960197410588
40	0.7775288800636007	0.9218849516481418	0.2021037931108002	0.6097820385796195	1.140606042843208	0.9468580460484392	1.1662393778920155	1.029084918284989	0.6813861114464745	1.1091387243878044	1.0644760104960502	1.6601734119461604	1.3392183746858153	-0.02951948709783565	1.1690119475413874	1.0964585514995915	1.493304248854281	1.249837514582806	0.14734420143119906	0.9759558414614244	1.1791553467543643	1.192019817203757	0.18741156113514582	0.45131459718245487	0.7453443389194254	0.8610655643657829	0.9381653046763432	0.591381429132821	0.5116133676963375	0.5499640689316035	0.48176205036600417	0.6858397704928473	0.5050991760852819	0.6662196500170232
44	0.37313440347877885	0.4795958685687236	-0.18476335657678367	0.2966298751494428	0.731914399206476	0.6141297205678492	0.8834865070925311	0.8075102547285056	0.4365606296961302	0.613723753333309	0.7356126885915175	1.3338216509521872	1.1111913891393967	-0.04986178117322533	0.7618866543607534	0.8067057112353586	1.1843373745580534	1.069888469855859	0.033839523706830264	0.6658794267055043	0.9791777109219789	1.0667716237791336	-0.02061343560378837	0.3358715764148842	0.5826230630469931	0.8857344366599147	0.9761194562109198	0.40123069185045424	0.42494344604015805	0.6869801861584556	0.5675135240531585	0.5225310908476365	0.36299788860225624	0.5788497910190136
48	0.01177310847498834	0.10657217326675494	-0.46075597289103953	0.014523596466171964	0.37684869671090204	0.35764393120114657	0.6471495612017978	0.6322478039991257	0.22526766302931442	0.1597201969167297	0.4962143885482045	0.9857525204566182	0.9646039580786777	-0.1237831187103239	0.3295775941633952	0.5400661216451922	0.87176507491311	0.8530119635979998	-0.15446633061510645	0.2993084482742413	0.746397314571369	0.8837582446673761	-0.22904175462115753	0.16399779874404166	0.32675436056609203	0.8672135450402632	0.9342025494831011	0.25723385745906746	0.2983584992505319	0.7882740477687105	0.5984968527942081	0.40334150093287824	0.26280903749870244	0.4672298717623288
52	-0.2534320050039903	-0.1454705294274152	-0.5975510462933	-0.1735116686016514	0.1539355065512382	0.22954505624037022	0.5075688945353147	0.544135867175536	0.08801750816534276	-0.13932944799055028	0.3780162026874923	0.6814022643051679	0.8793356396408528	-0.2583595507774534	-0.03145070738600483	0.3424014142451539	0.6215623005432854	0.6216655357877757	-0.37969440125922876	-0.02552681037299187	0.5482151494490197	0.6842835528263357	-0.3982654203850099	-0.011988865181337051	0.058418013007969054	0.8451428392053307	0.8449863174085458	0.19703136334741514	0.17032898919493775	0.8480519034908938	0.5807448014855731	0.3591779163352131	0.24959389802382007	0.3554917862976752
56	-0.42307653916353916	-0.29225659296634665	-0.6400963647893991	-0.2515213483182167	0.08090583214598647	0.21433910673385492	0.4533672917363696	0.5224825726669118	0.01400354128520682	-0.242667525394022	0.3473172179036259	0.45324683074958266	0.7871680239830507	-0.44583794362038487	-0.26426622204816974	0.21523185019988558	0.461023180512893	0.378462939498956	-0.5965702518659973	-0.2355356359495573	0.4283242810879272	0.5071512447904281	-0.5177093135160603	-0.14681124650128546	-0.1385457810241832	0.8628982879787094	0.7611774782990063	0.22267432454632952	0.0766247881504474	0.8845537878591846	0.5488539920301094	0.3942917575418015	0.3403590312947593	0.27824249793375094
60	-0.5338706360689458	-0.38558134339257427	-0.6682041866598094	-0.24891596969701757	0.11790158569847808	0.2474802726219375	0.42955052744179534	0.5062292205427253	-0.04569954041029457	-0.19177848052242819	0.33116760766340914	0.29691719933885713	0.6296673997240244	-0.6651709062948481	-0.37059560324562574	0.12178403108366868	0.36971008684275586	0.1343253698533888	-0.7725734691187754	-0.31245627920418095	0.38642588160226454	0.3741258969397918	-0.5947417601828391	-0.22263666931208773	-0.2150869364076413	0.9380236840407145	0.7334976773816474	0.31283605019740857	0.04342916969420969	0.9274257994124727	0.5513167367367211	0.4905022370352215	0.5164990412069516	0.26716849140424553
64	-0.6235613807193601	-0.4673519718768429	-0.7441674452113067	-0.21582622771608512	0.1948904092159721	0.2559179955220058	0.3768436899207535	0.4374667097013957	-0.14188533985554957	-0.08128139356118741	0.2604601376633242	0.18205900444318487	0.40554565088878486	-0.8853893257675365	-0.4002183665661449	0.011456629232449266	0.2929480068439955	-0.07481290381139787	-0.8986474848946769	-0.29454898759862047	0.37919172548878466	0.2819131605660087	-0.6384626610848751	-0.25354599888683543	-0.17737635925332434	1.0449739668212281	0.7858395556636509	0.44099074490787615	0.08393687733677437	0.9977232192598606	0.6227687581551381	0.6188926681151806	0.7301063519164243	0.3322054735379403
68	-0.7040734869346961	-0.5421814308782853	-0.8790760614135114	-0.19273912857984776	0.24634146628173412	0.19595543990729103	0.26800340346382884	0.3001146308951154	-0.29135394022814715	-0.008714048169904166	0.10627838942397938	0.0736077053476629	0.17793258979696397	-1.071446416057065	-0.4173690368128369	-0.14972874484406293	0.17420424476987048	-0.19597111592882738	-0.9846120451863652	-0.2498072826515772	0.34472218068826915	0.20830628223278996	-0.6496289356042599	-0.27205076745011597	-0.07813528905453171	1.1244236202461253	0.9035091973381518	0.5882059320857846	0.1985035533661668	1.0947738858239133	0.7609571795324727	0.7536779027030117	0.9230685210764584	0.45038291698232297
72	-0.7621285896132859	-0.5877014383736794	-1.0381356451527022	-0.19445612977523505	0.233799367552795	0.0662209762451044	0.11866024851642501	0.12912225690666365	-0.46527960779020194	-0.03132001675208415	-0.10993377836605199	-0.048610657330806877	0.03622752791437268	-1.193395015564543	-0.4643641996580527	-0.3587892046452918	-0.010215976249710775	-0.1900329585045879	-1.0450652811367933	-0.23629613161032642	0.23891888498543373	0.13046489623032306	-0.6226815565600519	-0.3062568001167448	0.01675958554685657	1.1175950737393179	1.0429339382542961	0.7451599817536007	0.37693908715447566	1.1998701065287247	0.9244831181073413	0.8817000366838335	1.0526916954165497	0.572856305583401
76	-0.785349963112702	-0.5930771216677548	-1.1791878908903295	-0.2162785673641435	0.1484586145705897	-0.10780438008508558	-0.031327713201821344	-0.014748885259047797	-0.6087895020373256	-0.150478168942093	-0.3353845170613318	-0.18144014431920563	0.03764049699339919	-1.2383452622619675	-0.5423895702973155	-0.5760899767635912	-0.23436851740315706	-0.06202537923292543	-1.0866200896485159	-0.2710222893071133	0.0647140143667947	0.04474439833192223	-0.5555459842960812	-0.36190465001286853	0.06744092685838403	1.0078777049367378	1.158510324414215	0.9057942605991367	0.6013861283377556	1.2945316997269218	1.0544396612248197	1.0041207049767409	1.1110552521310735	0.6474303586826257
80	-0.7928683737763981	-0.5941259845992193	-1.2958384719556784	-0.2538911991861806	-0.00030192095360859406	-0.3020648054602753	-0.1505248393788343	-0.08690242447370007	-0.6793879849447139	-0.3264612249238268	-0.5196862207643345	-0.30313712281939964	0.16634693699799838	-1.2213342158953093	-0.6180104597700874	-0.7446938138279893	-0.4326165009543334	0.1325318958989478	-1.1054856749280333	-0.3238407365252152	-0.12184632538788227	-0.02302953222540056	-0.4588823902942226	-0.41917335881259965	0.08240458348449908	0.8448150136598938	1.232598420845813	1.0600964996275908	0.8494010546219785	1.3805345262004596	1.1094670267703983	1.1309109897670997	1.127501008048109	0.6448308809212444
84	-0.8464890101041842	-0.6766639930807112	-1.435963150213653	-0.32027745166024923	-0.19974029013748892	-0.514365671766537	-0.2396620803981005	-0.08948410279808025	-0.6790295822165844	-0.5106111752016144	-0.642267821597729	-0.38729303977458995	0.3376694909153498	-1.185877200947293	-0.6491608603300205	-0.8173817971573482	-0.530831872076679	0.31111040632855064	-1.095389840221467	-0.3382290295167661	-0.2331900739742781	-0.024466017199376744	-0.3571592858357015	-0.444149403642806	0.11191351683494584	0.7336415629937719	1.2908008066012708	1.1923013895449652	1.0981736155440285	1.4873787127135407	1.0931838723238994	1.2718220917062553	1.1527721852761754	0.5738271460350514
88	-1.0311825249386286	-0.940199313174168	-1.6818480449175601	-0.44798746591949273	-0.44220802076272825	-0.7637780885486355	-0.3311311296208987	-0.07142449897376135	-0.6594910008946071	-0.6748068315634884	-0.7190218549694649	-0.4159230281342367	0.4443216014611273	-1.1902241676797873	-0.6141639336338639	-0.7776530365383543	-0.48129698512631836	0.4055949141275674	-1.0593652698473324	-0.26645210318049883	-0.1897548432327681	0.0893748474844828	-0.2792165570362111	-0.4090082933113017	0.21627047603363567	0.7917962650335298	1.3929064238666722	1.287361260978546	1.3289788927857031	1.6602526861235114	1.057964441489358	1.4279990160174518	1.2328109710085453	0.4769592273114187
92	-1.4137188160489282	-1.4417004548866676	-2.1043319649019163	-0.672765134066507	-0.7238137107694393	-1.0716834041240935	-0.46580478431399197	-0.09821074431180657	-0.6958742720200944	-0.8222427943450875	-0.7874037603525422	-0.3871224512816735	0.4167387773005732	-1.2825801340146041	-0.5259789811206086	-0.6451913102072913	-0.2852531962345321	0.3966445912837249	-1.0152697537538289	-0.0985398737088447	0.04185331602258447	0.34162238153990643	-0.2436149263191737	-0.3083442143761535	0.4280546892802887	1.093209979158245	1.6037957627812494	1.3420531715841757	1.5321876964032044	1.935492987514473	1.0834130021398283	1.5900633294968285	1.3867419923102755	0.41100478068533514
96	-2.0062119910132927	-2.1570913737195174	-2.72016834525931	-1.012176511116375	-1.040711519474812	-1.4418177568272894	-0.6658746583339343	-0.21291920488960048	-0.8457635619744546	-0.97891455641596	-0.8830320216772662	-0.31529223839311155	0.2607791119190344	-1.476683612909916	-0.42631408464563003	-0.46564626576161205	0.007960670607554838	0.3197969786199279	-0.9897118781851166	0.12970793214474796	0.43034416328497593	0.7123550754681695	-0.2473696016980302	-0.1626866008704219	0.7298626881291976	1.6284962851416769	1.959385747730944	1.3723753656070456	1.7118110613519206	2.318972104893449	1.2405618397862785	1.744428749448585	1.6015920598601774	0.4233292628567487
100	-2.7582828928925727	-2.987251274196197	-3.478534451285294	-1.4542007409574023	-1.388728853534202	-1.853912229625657	-0.9210076904885524	-0.4126844097685426	-1.1184334726706118	-1.1751837700737178	-1.0226923201489682	-0.22450166884007863	0.04981874289451586	-1.7416820482149802	-0.36477485207013616	-0.29113420770573745	0.3236984602384956	0.2405098372586005	-1.0037105058124323	0.35363650232675814	0.89109027160733	1.141989466644952	-0.26449721984841357	-0.00791819671032416	1.0610073778067486	2.3039123953825213	2.4481010375203107	1.4127634728048803	1.8874112319977452	2.783087246543937	1.5641033609954766	1.8852558088388194	1.8479374600484566	0.5395180569378661
104	-3.58191846896861	-3.806827058717543	-4.284053314836881	-1.962855453303849	-1.7674719050605727	-2.275716537452	-1.1972880333235738	-0.6554794891020619	-1.4726411067021656	-1.4303871357089932	-1.2030426233435298	-0.14277926051331158	-0.12324506758329488	-2.0146465250648737	-0.37712711000594495	-0.16279007453349073	0.5905805215229961	0.21305812841505997	-1.05959927768213	0.5104688989148948	1.3202729191825004	1.5527657231227954	-0.25816589528706707	0.12292370169121915	1.348030802184318	2.979261152374939	3.01526092721691	1.5030991993147806	2.0894694275554073	3.283277503307201	2.0438661523714723	2.024075264588798	2.1047940201070485	0.763268230418514
108	-4.393014419908461	-4.5270609741354555	-5.041484820035146	-2.4962165292658964	-2.183487409800945	-2.6837456158590816	-1.4622199498452368	-0.8919330216776815	-1.8428266001904496	-1.7471026138064583	-1.4118738138792088	-0.09878715847823227	-0.20450697787627053	-2.231251949398979	-0.47403648375991425	-0.10239315752165257	0.7613601665347816	0.24665501651478342	-1.1380137176391818	0.5667812809939415	1.6347846943588935	1.8772778463650655	-0.2013059104366901	0.215383737735551	1.5406773051464187	3.5250995070148963	3.58634399462272	1.6682754712900234	2.346943610941602	3.7829575443124757	2.6369895868481006	2.189445251659072	2.3764645993314244	1.0840420695591995
112	-5.1408991683864445	-5.131140219131298	-5.692409977846064	-3.0218281669616815	-2.6442825727458255	-3.0743412893876925	-1.7052571730475448	-1.0974316569277378	-2.1743452494083773	-2.1128134674134613	-1.6395126539798301	-0.11744698107392394	-0.21101926213869823	-2.3573744237509606	-0.6428994520168191	-0.11271809758099567	0.8208628276127318	0.29990908427812646	-1.2074637382539373	0.5288456068991987	1.7996689035754745	2.081125730982235	-0.09449221914991504	0.27794235874574225	1.6318128067778959	3.870270957712026	4.094578255805983	1.9004892062841845	2.6689312390654294	4.268446434688297	3.288728228848859	2.4124021469244066	2.6878883770790907	1.4820982180369313
116	-5.808865055677043	-5.659928307548434	-6.2226929507503925	-3.5191030413470523	-3.1429557720940964	-3.4552194984938165	-1.9394106815963787	-1.2833850351356189	-2.4460332331889836	-2.503207915661819	-1.880704875012419	-0.21551306491322586	-0.21674641912096554	-2.405341380722141	-0.8581749179154089	-0.18298372580105676	0.779025552690132	0.3070007256863082	-1.2420088021391926	0.4320456374704384	1.8313770247951628	2.1669764464026895	0.028304492983285606	0.3327257922831934	1.6497616726230822	4.016864289632562	4.495299804782051	2.152975792217457	3.0278060359804027	4.742613303608328	3.945564975313675	2.703563206522548	3.059979192637454	1.9244791220713942
120	-6.386885626880035	-6.157138332080453	-6.640058023854362	-3.9667458434090017	-3.641497602805614	-3.8223223589713897	-2.181298965668897	-1.4780913554066668	-2.6666755608942445	-2.8831329272911015	-2.126003021594639	-0.3934527029594167	-0.3022473446844391	-2.4237880645592345	-1.0920643778885544	-0.29473107978794955	0.6605085713876435	0.21720261816976338	-1.2370462386370125	0.3161130241519188	1.7774996712629771	2.1606709902571106	0.10890445085686337	0.39750331539883593	1.6273257691305332	4.017486562122446	4.761016833682713	2.3489470422567345	3.3520879660851315	5.199584470972653	4.553630340523452	3.032820217104828	3.4789132984065296	2.3569505155183883
124	-6.83915327252772	-6.6102208924294485	-6.9391779724399765	-4.327402580779681	-4.066105355487244	-4.1385865106997555	-2.4221045909764487	-1.6896291928547629	-2.8500375675724134	-3.2064485468971715	-2.350653165604478	-0.6247314794979915	-0.4974468039827913	-2.465576880905754	-1.3199695315413598	-0.42535459887878063	0.49796864264648233	0.027328595450067786	-1.2138693302024866	0.20041401633684536	1.6860243039478486	2.0891501850787964	0.08725200571442514	0.46902191520529884	1.5671098192703568	3.9312033554005934	4.864972579117271	2.405309909469779	3.536959877620938	5.598366246394049	5.048921572335706	3.3254218017542634	3.880746354795563	2.702852719158619
128	-7.096094113553812	-6.930130464223073	-7.0819768726836925	-4.545585144010562	-4.324279774238493	-4.33363341191019	-2.612449400981714	-1.8796317529905922	-2.988885156714655	-3.420340767807951	-2.5128776963686064	-0.8533623793037496	-0.7548244576470163	-2.5539379055392315	-1.5207452735652724	-0.550372539561218	0.32739365018201644	-0.21291454082615857	-1.210343119426477	0.0731584278882221	1.5811392028942988	1.962560052685088	-0.07271356117248357	0.5175897465989427	1.4265137874826885	3.78570746419689	4.769294249891063	2.2627329769226465	3.474766960907843	5.858613953103929	5.355134473631685	3.4831037433422387	4.16710757157135	2.8800790237191
132	-7.080797177557276	-6.9872655692118775	-7.008569222875132	-4.564687717357107	-4.3396725545035855	-4.330076683556133	-2.6744782857128016	-1.967390889922647	-3.0478424948989318	-3.478054991523931	-2.567094796375154	-1.0038174365448893	-0.9701160764042995	-2.666396134320243	-1.676754708825073	-0.6467912776829575	0.1867609019332592	-0.4269974816985768	-1.2628536192481246	-0.10115029637309524	1.4568130933220227	1.7719942286575534	-0.36652615573850506	0.49589958661761807	1.1328084440240889	3.5664019494612766	4.431138027447706	1.9093151044323724	3.095053664976268	5.886620029845965	5.39899300165816	3.423686257301458	4.247353543048436	2.832951538562817
136	-6.757882101163085	-6.686621172235336	-6.674226267176298	-4.35760258528107	-4.090183724567078	-4.085457791504059	-2.5384893353267706	-1.8677977276374744	-2.9827005787883745	-3.358943215472731	-2.487699979223312	-1.0052421067607138	-1.0380605433004748	-2.748631708834908	-1.7784817173878171	-0.6998840552779455	0.10802032026198102	-0.5526798949592927	-1.3913524115720117	-0.36171391515006884	1.2882611719030927	1.5007441005963613	-0.7510598282925074	0.3574535241638923	0.6212099178842629	3.235581151422618	3.8257851504055185	1.3867411578452506	2.397075885442716	5.620906338805402	5.140198694602812	3.120636216867855	4.08482026022515	2.5627591545251387
140	-6.1707563244471935	-6.03487585451438	-6.087637409099187	-3.9498124022896453	-3.6248581317935478	-3.6225492862793574	-2.183256382198379	-1.542122956197151	-2.7717790533657003	-3.0824651640314884	-2.286532873102792	-0.8223479965428505	-0.9112850404619828	-2.7485339572177234	-1.8290337277963793	-0.7083278876540878	0.10355970982392887	-0.5760134443998929	-1.592846151145076	-0.7269108873134386	1.0549930307455173	1.1413359613212846	-1.1646766633192398	0.07724264989662916	-0.12207449196750642	2.7694456507379246	2.9737138673089887	0.7741314749246258	1.45959591497027	5.072579371043066	4.5989112737892555	2.6213877134896646	3.7204883004668994	2.1359722560360215
144	-5.43884466705437	-5.156465994213841	-5.324028478531997	-3.416826239542288	-3.0461535376888405	-3.0263836307410736	-1.6546046692081449	-1.0300548050623255	-2.437745088144602	-2.7050065925967846	-2.009819264105992	-0.47626086949267105	-0.6288354380943499	-2.649219506250817	-1.8429475976190384	-0.6825305802279172	0.15657681187198502	-0.541364549223701	-1.8436765624228009	-1.1764082878928916	0.7626647333916868	0.7087020260083984	-1.5562434157180798	-0.3339635721357964	-1.0353010866729202	2.1899309103034756	1.9539333532592364	0.15692113300282193	0.42142510307723924	4.335293758890861	3.861572494294046	2.0332331606075464	3.258248082517733	1.6595885711731009
148	-4.710922706154159	-4.245019425164925	-4.503210533216668	-2.8561329769503345	-2.465600722763604	-2.407532924295709	-1.0502487394519535	-0.44209629185637883	-2.04515361269537	-2.2987406195777074	-1.7140644745466098	-0.041059002176571276	-0.29817336722432697	-2.4814739164643727	-1.8374432278972177	-0.6354396923234339	0.22561998608369224	-0.5313765393192613	-2.108428711336275	-1.6490222174018656	0.4516966927568228	0.24282434521403012	-1.9080079745757483	-0.8292750099225783	-1.990170831423971	1.5717731674565198	0.8920731521971947	-0.4046743799959803	-0.5621350393407858	3.5551760106926227	3.05702423277553	1.480195399361926	2.8178412843132468	1.2332144944526557
152	-4.097139825013382	-3.4739909084348266	-3.742310752956969	-2.345772260465434	-1.9547471950769448	-1.8501806212442704	-0.4773615288603145	0.08720243700183895	-1.6710584121475602	-1.920126433293016	-1.4336173498197953	0.3832707693436899	-0.03888443847614035	-2.305175060174255	-1.8172897054566455	-0.569669304839952	0.26226052575654174	-0.6236385091295047	-2.348261112006391	-2.0562329240382473	0.18833890509738122	-0.20179495164467626	-2.2385551872955793	-1.3372452225301525	-2.830076925761847	1.0203912232385792	-0.07551057617673236	-0.8929454661712801	-1.3674758638188786	2.8735191749502618	2.30970310581712	1.052508470738973	2.480080121454464	0.9012910700930806
156	-3.620541563429812	-2.9178547785523143	-3.110307447210095	-1.9132411431645255	-1.518601532916693	-1.3747029269796482	-0.004484831809850318	0.4614396977695318	-1.3661683763343868	-1.5852823217421759	-1.1594929665855012	0.7139250618075894	0.07865890095640032	-2.1709752028012854	-1.7623398259490792	-0.46810832501481064	0.2386068397696612	-0.8481873252434816	-2.525248044314059	-2.306462043660996	0.04291268427266404	-0.5711756930235572	-2.5834612781148385	-1.7795360043419424	-3.420163622804126	0.6327844842193283	-0.843214509742426	-1.3261063065426506	-1.9335308026134213	2.3732721745653147	1.6955984788046576	0.7760598639921753	2.2560994568130517	0.6362396462589447
160	-3.217273704035368	-2.5289375718163405	-2.6098554068476383	-1.534368391931451	-1.1078227730437757	-0.9384680366663931	0.36368814018933493	0.6644490940484404	-1.1306320400302552	-1.2681276766231144	-0.8457829930886023	0.9218126512142117	0.06732787174869174	-2.0857133812697244	-1.6288610655667815	-0.2968190006868376	0.16901817875150804	-1.1653513878963937	-2.6044626170205554	-2.332322830033692	0.0641894115377092	-0.8240054228959351	-2.963252775340161	-2.0886502213196825	-3.687002411116629	0.4612780797756314	-1.362736340896885	-1.7325116352208603	-2.2632040920337615	2.0568747468515682	1.224484082945157	0.6164013727837935	2.0965001530167826	0.3639598181595352
164	-2.785635464310941	-2.1814804022071352	-2.1944677774337444	-1.159814950875765	-0.6608829481605325	-0.4734575736489949	0.6778339130454087	0.7618296723204919	-0.9175744629581579	-0.9220311618414067	-0.4409039903476246	1.0447146866171098	0.014077149296028286	-2.001413340283831	-1.366752025014554	-0.02037075715584322	0.1132563796760226	-1.4746662341079413	-2.5561294491127997	-2.1101098007332757	0.26208567553153456	-0.9350828504795663	-3.356333962549631	-2.2194302026026542	-3.630732288730621	0.4983032333190842	-1.6417837101493282	-2.1197650379067747	-2.3979489742771816	1.8649862957598071	0.8570907094296819	0.5133566843423267	1.9326919268449703	0.017257815183340703
168	-2.2556297722134073	-1.7552516416102857	-1.8092988683796523	-0.7534509878209247	-0.15090022943068193	0.06169938653031068	1.007523295719798	0.8603821375105137	-0.6633590443075402	-0.5131505714812138	0.07380763422689597	1.1701688736935567	0.03269952527373436	-1.838495607502715	-0.9458532309493525	0.37747251892154626	0.15624251922260624	-1.6533988672473832	-2.361881726977496	-1.6649414258882849	0.6059523805578249	-0.891606388225137	-3.6943335439869136	-2.153567070292136	-3.307858935587668	0.6878388506689219	-1.7190151171198649	-2.457155221457412	-2.3819477497997585	1.7228841738117566	0.5449851737567961	0.4244993914377025	1.7243667797421565	-0.4134748865655581
172	-1.636016603154001	-1.207935568620788	-1.4281964266004494	-0.3175701788990638	0.39217513700652656	0.647718725953321	1.398779269501564	1.0498971912579558	-0.32515251554412006	-0.0452388188590858	0.6620309932206527	1.3952672446309753	0.20646402187672344	-1.5295410117632802	-0.37654134536089373	0.879382012054371	0.37366548086238677	-1.6062501628376136	-2.0227041193438464	-1.0597434017128329	1.0386692259313843	-0.687167463951867	-3.88571738215728	-1.8989119481781203	-2.7971260477017297	0.9553181504925641	-1.6316733319094736	-2.683555834670596	-2.237030500486074	1.5857917030351403	0.2681657665157871	0.3509548297604391	1.4837772808760148	-0.8650249816989259
176	-1.0090023253715203	-0.5946169480569946	-1.0648751231964586	0.11186157883773581	0.8992693401520485	1.211071249765215	1.8511731577865642	1.3602135147084913	0.09795702224079951	0.44094318040146546	1.2430386511890217	1.784239168430715	0.5499541745605958	-1.0564682456999837	0.2893814437235752	1.436522003361656	0.8006526211551211	-1.305630561393236	-1.5620921810765431	-0.3714973917164782	1.5002927742272616	-0.3185580960813993	-3.8580324552404837	-1.4848984442414093	-2.1655280535383046	1.240627047267498	-1.3947843278002243	-2.737459414246416	-1.9602199743371143	1.4583712779418068	0.0482374242220366	0.3315690747472802	1.2646493879813836	-1.2318592040431748
180	-0.4787110376192669	-0.026720756597408746	-0.7544902544046045	0.493171362823847	1.3081612553947202	1.6672853189335146	2.324388736578382	1.753487582547967	0.5700994715602099	0.8932903386450799	1.731349940697121	2.3424541891084547	1.0084689830114166	-0.4624051440008437	0.9803016757056707	1.98813223336851	1.417654749152089	-0.8014695028097054	-1.0211628649678932	0.3362524500940373	1.9509750555372132	0.21156750565995808	-3.594576349719733	-0.9550433134761986	-1.44903349510558	1.5195211133739661	-1.0013719771852188	-2.590595715657861	-1.5402849873754976	1.382286068287407	-0.06719286722861634	0.4127641607830507	1.1269961567081361	-1.4224791490880286
184	-0.10649718317323624	0.4000161876115772	-0.5211086856083078	0.8104127625031599	1.6084783036629817	1.9755670974444235	2.7689721514410244	2.1539170687653733	1.0433297130946055	1.2832407918956266	2.0841867871115913	3.02087973785641	1.489243265206697	0.1685245926893692	1.6383972126603197	2.490397685439035	2.1645832007117107	-0.20010940680048978	-0.44539198166930133	1.0338654492024848	2.384533876120744	0.8918393827809759	-3.1461901585300223	-0.35767963438327693	-0.6533581597998616	1.8067278816384018	-0.4382706869504187	-2.265356534960456	-0.9793500875542341	1.4045994246306073	-0.035474423229537026	0.6148782356950487	1.1023949356856535	-1.4077445233088848
188	0.1245079484418656	0.6604055745617317	-0.3565869918403355	1.0853888961091438	1.8543802452952518	2.1689615194872776	3.1594090381963547	2.493234389686023	1.4827744923348456	1.6260006386712322	2.327281707609896	3.744164695823382	1.9063878011255542	0.7504807691699765	2.244299644525949	2.9368846342324177	2.9696998521213693	0.377420126438921	0.13021075692680364	1.72854542295823	2.8253338265611756	1.6993597702990675	-2.6114756995071216	0.26250466638092534	0.22918622137856715	2.1413488333997663	0.2936075024344478	-1.8264210178038913	-0.3046841911729613	1.548717494869161	0.15591980477544587	0.9168411470153378	1.1813542813038662	-1.23183929609187
192	0.29079052732483024	0.8029303530448172	-0.22724161984767968	1.3586358989745593	2.1328020041977123	2.3385128915872775	3.506604662624946	2.7433383395550597	1.8741788816817273	1.970519418509719	2.5414600308148754	4.442975986707369	2.2151226941449016	1.228858110186311	2.816686861556152	3.3575463210213012	3.7756266498607696	0.8402744510416579	0.687077043705971	2.4476842818450937	3.309866896855792	2.5991818839253673	-2.093839878517884	0.8697286226248555	1.1971757381731005	2.5634710724005383	1.1685280770363224	-1.3504536117790311	0.43595939764579883	1.80549823781979	0.4868883776292913	1.2672977415513573	1.3284373249846413	-0.9792233680797616
196	0.46736425043363566	0.9013178325785172	-0.10435824069854928	1.6509990650454953	2.5045142110534186	2.579522126360868	3.8439140222774717	2.92028354861149	2.210850948473924	2.3636662900375653	2.8165182996211526	5.074956881107864	2.4195880828803853	1.5889060457167914	3.3870143804866966	3.7969272040825035	4.550098407701559	1.1559591264149798	1.215412017614668	3.2113685526830893	3.8631875417448023	3.547723045928725	-1.6581906038380683	1.4375253879492715	2.2239491883395357	3.0940146368111665	2.1403648799262984	-0.8914287067795102	1.1910606592624533	2.1464686339544667	0.9227715111322925	1.6135179955753065	1.5113284549702732	-0.7217255812542951
200	0.6646620614436852	0.9899587010185084	0.002658186473691671	1.9313267420644815	2.953906767062976	2.9310803339388447	4.19653033150683	3.0609917563403424	2.4721357760002785	2.8102734017945123	3.198440305263948	5.627402291395202	2.55558919261392	1.8391686631498194	3.964568604950143	4.283725250872866	5.280174718877093	1.350145336557031	1.6985012249978906	4.00770853938102	4.481965530523724	4.499441612327746	-1.3103452887830658	1.9449412773618342	3.254797450431108	3.725480547082103	3.158000461234579	-0.4613805103574193	1.9224817704300137	2.5464544231972854	1.4386161529459074	1.9287705372750978	1.72164260906422	-0.4794168162162704
204	0.8056917170209997	1.0273923847962203	0.03555865576826288	2.113867992786165	3.379832259227974	3.344251147409849	4.552473533580572	3.188455812033541	2.612442248424359	3.2542793668600285	3.6587502864015815	6.101911052556802	2.6603233747072794	1.9848831841900068	4.514107215928414	4.807907092353389	5.95567129538818	1.4801461659254658	2.1001617855453794	4.784435736974416	5.1310033668672395	5.411502347634878	-1.0090494130407741	2.3709647595625953	4.2177367103900565	4.424162853515121	4.17853592771315	-0.03836942454425887	2.610405915345394	2.9963228626895284	2.029296393039361	2.217706913117259	1.9716949413110112	-0.22085788790254673
208	0.7625741939365016	0.9154998636973436	-0.08821234084746042	2.093805069405423	3.6387257484119777	3.7005283739120687	4.8567318793700105	3.2904691613090633	2.575064652617239	3.5964901356493497	4.10460232652042	6.495151503376709	2.7482941081277525	2.0128650614463246	4.963119017468109	5.319304929654763	6.554745180747002	1.600050445331599	2.3674139916730006	5.463423715149053	5.755176529659029	6.244985087840106	-0.7017208320067065	2.6924569538803	5.0431618563163125	5.140756117239344	5.169267641367799	0.4042363156603096	3.24556635990876	3.4966323287420424	2.6955289772642677	2.49961804712535	2.2706417980086355	0.09685769652707953
212	0.43479004392522513	0.5651992545163074	-0.42655146014284867	1.8047788097591675	3.6202227977903583	3.873147716280202	5.034592615767879	3.3250253116582185	2.3257708490779443	3.742964019862058	4.425347317013107	6.790753347417985	2.8045852113486682	1.8998086404518573	5.237493978628406	5.750299916054398	7.044788819646479	1.7347193912577668	2.4526958403651555	5.973190292536332	6.301994784656619	6.9667224708140365	-0.36122873334282213	2.890525572154639	5.68559835905833	5.825341209962837	6.101971610875741	0.8686918594362499	3.818022718326728	4.040012826256247	3.4197740468468574	2.7845671106606837	2.600992673029072	0.48165595409857187
216	-0.17822673871818787	-0.03311732403023262	-0.9674377416980795	1.266272541663809	3.313297263363244	3.797049751231852	5.031245218925745	3.2474610723520962	1.8864608955438458	3.6576697734038213	4.5491499785962874	6.966784936481604	2.7976386476455035	1.6386390883082076	5.305513368562874	6.04929636381635	7.397180538574891	1.8737698746103113	2.3454012811572884	6.283053859106296	6.742595178746847	7.5521988678038685	-0.0018645691405472062	2.9631020947985496	6.1388010823708905	6.44056604666638	6.94579265748187	1.3224881854046295	4.312686909277528	4.596896636800934	4.150318612110564	3.060492984674121	2.91564034679521	0.8856365658334406
220	-0.9540420150511448	-0.7795180658686676	-1.6164263446051341	0.5933605417529463	2.8242485451918458	3.507260790552977	4.844744670080207	3.0418167037459325	1.346587296900792	3.3885512266437052	4.4777393228012405	7.010722619476141	2.701166384552891	1.2651684252267772	5.203101621842679	6.205137713978309	7.6029200361938765	1.9843639085260345	2.0933039135534166	6.420104964259544	7.079654198891949	7.988368014194102	0.3313762239195963	2.9355125353131526	6.437181456525999	6.96780727534621	7.665596465784168	1.7121869282409252	4.715431678310744	5.116545187429866	4.8075499413227964	3.300875893841993	3.159610978732344	1.2257165877867107
224	-1.6909471707567088	-1.4966640434624974	-2.22898268136882	-0.04019913439734155	2.3334028661942954	3.1229977528878936	4.531975734712646	2.7360484530988556	0.8392944910793799	3.050045482564268	4.280331123989345	6.929691297201477	2.5096504624900358	0.8628944136768087	5.022785174086264	6.248275264223401	7.676480750729834	2.0324008413500043	1.7969105198315232	6.458211405661136	7.338088493893761	8.27424428758122	0.5902212843298418	2.860123627117261	6.641581518570974	7.404299240491732	8.22833535977965	1.9923856208089432	5.023510920239217	5.544221864053943	5.312817083296632	3.48539971425319	3.302413932091894	1.433586713032458
228	-2.198144907169944	-2.009659285239819	-2.672556393551516	-0.47043862820106586	2.011527294802363	2.786303751586475	4.184064854548557	2.3923761784233317	0.49103382105830873	2.7703185011538114	4.052930821676513	6.750523073319116	2.2426912727953905	0.5374758229990831	4.870405184846963	6.229719623095932	7.645767192610356	2.000946039869972	1.5732502897596143	6.483718378863339	7.545047740960351	8.41882703562927	0.7496317010072947	2.8005962301117915	6.814136011085755	7.754012088272122	8.613373734662014	2.150510544115771	5.250178323841742	5.843728527573885	5.622366891017291	3.6167123226405296	3.357761851416265	1.499546643285847
232	-2.382051461881406	-2.228245967961256	-2.8855833934409207	-0.6083313211340939	1.9399354408876563	2.589090579171793	3.8838903805902376	2.079119677062739	0.3703818311876785	2.630840533290017	3.867010345232465	6.506468279623772	1.9359272669552101	0.37190416361372086	4.8121867058374574	6.190016730892706	7.532610874231497	1.895280714018282	1.5032975635720922	6.5535993410587325	7.709872703160175	8.435382821720284	0.8156431296736397	2.8043126989134435	6.990901452533997	8.016162852075588	8.818247772841046	2.2103209439739193	5.415664182341167	6.009297832575784	5.744668946067394	3.717854967267371	3.3729867850020936	1.4792712889516615
236	-2.2824253978324007	-2.1853117887636238	-2.9012041018670582	-0.4705225515406977	2.076614136221287	2.529366248420483	3.669372549329475	1.8407373381870575	0.46216499688764995	2.6311116152137712	3.737114896875727	6.221418365029733	1.625699873634455	0.3874340643637725	4.842329013042849	6.137243732216131	7.338184814999476	1.7358854965252084	1.5911459882617953	6.668085558268462	7.815830687816973	8.334734895643829	0.8124729970446196	2.8766066955418315	7.164463978798675	8.177766779279882	8.855244614178302	2.2129466477789355	5.527852998128473	6.05894516368823	5.7297596786795	3.8090038203392447	3.393182984368217	1.4570069276263429
240	-2.0399784990304575	-2.0101854750425674	-2.820873968631762	-0.16178818006199072	2.286589616724475	2.5214650567290056	3.523784151717314	1.6839338498515641	0.6812553984608121	2.6983585289539014	3.6249890235931437	5.904626831405727	1.3399177755858438	0.5329717384233577	4.8910279150500235	6.0482210960273175	7.046302300782795	1.5493298729880374	1.759495611516868	6.773764593188416	7.830134372015479	8.12347886895552	0.7614602427331069	2.9733652993472224	7.286975842197858	8.216060617684175	8.742468811850728	2.1892204229395467	5.56791828657102	6.01545284659833	5.636913762165866	3.881376256679959	3.4244401368466737	1.4877355061162654
244	-1.8142086221666949	-1.8526307297662217	-2.752716057503185	0.18149800552797526	2.418927424999363	2.4533772406625074	3.397396555906041	1.5868234594335973	0.9191406942049666	2.7352342536532794	3.4750101478579123	5.558643803867385	1.096797105881061	0.7125440221916304	4.868445384131697	5.891538605120412	6.64412306061778	1.3618876899667154	1.888136978150698	6.795344335565573	7.726220111413579	7.808257083252355	0.6664413792950279	3.0202736778298642	7.2936186606320135	8.109879473237902	8.495742776401874	2.1408193057369185	5.494237885908656	5.888735279474414	5.500789628445825	3.8903779885297904	3.4220073136716636	1.5564404686732098
248	-1.6998511509893552	-1.8020607187549826	-2.7498667170715363	0.45470532660123175	2.387811893156535	2.258343929311047	3.247468940165187	1.523259993521997	1.0957130166046232	2.6778182915790025	3.25908278596106	5.197709070434175	0.9112316943050435	0.8342418053545269	4.719798076157386	5.658926949518735	6.150923236576125	1.1988301246893094	1.877526278523862	6.680115682902396	7.506988506437301	7.4067301563181145	0.5177083002371017	2.9516348764284537	7.137135964493892	7.856430987549673	8.129795053937132	2.044299835765763	5.26776789288913	5.673997387865696	5.318833814543647	3.7777774238574144	3.316807976931651	1.5851637084993722
252	-1.6873346524552826	-1.8473374796956625	-2.783594601278984	0.6247936471423353	2.2150471154555174	1.960041398821818	3.0723981779729206	1.485484357898072	1.189231035091047	2.5323908265073287	3.003758422897196	4.860857474452368	0.8013562539849182	0.854503092992581	4.461358059109688	5.385539518110583	5.63315342434577	1.0862195464366364	1.7039704279793824	6.43211553857004	7.216054898163049	6.957957250194077	0.31145006339594566	2.74942278167837	6.817938310575667	7.485428791220738	7.668964366624055	1.8754675340985179	4.886991011678868	5.3684286935688235	5.068282591421346	3.5129723460195135	3.0664749068086765	1.4858173094429468
256	-1.6833586650309338	-1.8958141755876747	-2.7655484606537697	0.7311970573084154	2.0146059939065286	1.667022104822851	2.9206726477316014	1.4912559948463908	1.23421334908728	2.372668260305975	2.7852973867666284	4.609464156910806	0.785664735240966	0.7959787229468593	4.178300370157593	5.146643148779657	5.1937417852879415	1.0462412807752428	1.4359098636613583	6.118372901727886	6.930119020131305	6.5239481761250495	0.06791385246057975	2.4612207350579878	6.394699080534624	7.0619392216722705	7.158971768424357	1.636124010723615	4.41078471023835	4.994284617212421	4.739952075435115	3.1293892781403114	2.6982963017049126	1.2253844707068609
260	-1.5755572279251766	-1.8360419227020863	-2.6053421431566406	0.8495033957967995	1.928919906514528	1.5188456735410767	2.8674733566366686	1.5702669580868487	1.289910909257021	2.2991127909787457	2.695001833787205	4.5058536415779145	0.8727452136893219	0.7277283650144691	3.984281529857648	5.0294980875825	4.9360489720652625	1.0875894995886952	1.1996096342317137	5.84252165272952	6.733524782346408	6.176800712249316	-0.16669210749502117	2.183163398952764	5.966802105144013	6.672506315551002	6.667108995770928	1.3633011545093505	3.9487593074284124	4.608268249321052	4.36268280835174	2.7266247203650797	2.3114705027395375	0.8587108828798761
264	-1.3012654748487757	-1.6055114228721326	-2.2689981403284594	1.0415688726830965	2.053651566088832	1.6142806966079268	2.9720783158604815	1.7391540960271488	1.4007905686297866	2.384990447698571	2.7945692468659	4.581526744719378	1.0488544676048877	0.7203475218705674	3.9660696883203768	5.094751345169216	4.917335974675985	1.1960768669447959	1.1111948462087848	5.6993217324367675	6.686624986932592	5.974176868614163	-0.3385121515787344	2.0141196200063893	5.635588631706565	6.398197634755528	6.265410407460168	1.114422318505934	3.6182896999558833	4.286459911968256	4.000732411774122	2.4301402507461995	2.031877989407355	0.505413769399612
268	-0.881763992467516	-1.2249754636354446	-1.804676051351834	1.319459554201949	2.391520255726518	1.960760111626705	3.241206160945159	1.9824225852506014	1.5720837076550156	2.6397337846866313	3.0861041467951282	4.815263736011573	1.2725765672979172	0.8022249320756815	4.143902291325983	5.348186479417049	5.119117723891876	1.3329514231406636	1.2117099731370156	5.73357342226118	6.803410036076214	5.936579689296245	-0.41518154635510296	2.0049681612892605	5.463003621613736	6.286254866941232	6.004457935432242	0.9373610592064194	3.4894628436679804	4.090753068132535	3.72448944105128	2.3284504354817015	1.9433432768394405	0.28284239697571095
272	-0.40678632156665223	-0.7836812714817831	-1.3218252625471114	1.6393867689703823	2.8542678284107317	2.4688236651077617	3.6171831993330663	2.2515673580543525	1.7699507430212331	3.0053958816943314	3.509266129216737	5.133420931253225	1.483909007140636	0.9413952803685667	4.465093124560464	5.735056385819447	5.450006948062565	1.448088999906854	1.4410943948601216	5.9219240992758735	7.046442014069796	6.035730346699722	-0.40593027966054934	2.129714483606142	5.446216569501578	6.331109507788678	5.889139160546392	0.8437976219807913	3.546550264941085	4.03389929706636	3.5697240739340903	2.421112054434155	2.034521813024337	0.2338287824449174
276	0.015343571043018752	-0.3896521916088436	-0.9360740161150338	1.927359456918248	3.3082089340609055	2.9937391205543284	4.00045775357169	2.4857599672500603	1.9433460186530933	3.385934105907515	3.966100444317003	5.4371332984978995	1.6266596276222052	1.0645444366280796	4.832294928748114	6.160962089242429	5.78275583714555	1.503437276859093	1.6679748254625355	6.186001762030773	7.3419227414731925	6.203364833428585	-0.3576001217873473	2.296661132736034	5.522094235783394	6.475367052895654	5.8734440655237625	0.8045681694698203	3.6913037206913404	4.066922177537184	3.514184704491184	2.611069911086515	2.1966009084555806	0.2974743239521661
280	0.31003528755112897	-0.11644454271004175	-0.7116380315933318	2.118956322088504	3.63569664037214	3.400104752539218	4.293940056450103	2.641642802244678	2.0513789601985737	3.6906213667196743	4.358663547955393	5.644147858674701	1.673097844668046	1.099489447678768	5.147891985293838	6.527889235227648	6.007860645384588	1.4923695288172731	1.7583233073663855	6.427702887519168	7.606548290121483	6.357336981935107	-0.3288784316819451	2.394503110562127	5.598539338282039	6.630731089063457	5.8788294643749115	0.769158838237504	3.789055814713339	4.098883141659371	3.4861276061733495	2.749377482148455	2.2768125476573626	0.3411983839003672
284	0.46291062118958515	0.024131415350903983	-0.6340310557570136	2.1907160226824747	3.7801558875965267	3.6152596382417315	4.444892395241348	2.7145116260658284	2.0805225319786307	3.8677623174290527	4.6214508893634525	5.722997650956093	1.6357994038289878	1.01653289538272	5.350277410350491	6.768117410738074	6.076596721566027	1.4435118400368183	1.6455823141512733	6.568101866351707	7.774468402307389	6.432902796716245	-0.35646113663321	2.3485636651825073	5.596323476013464	6.710459215388042	5.828519806451395	0.6978766304516234	3.7337484265473124	4.040515889456882	3.4026400957029828	2.708719961956916	2.1593139117082907	0.23900620578980922
288	0.510956226489348	0.07327378522731302	-0.6261733754561125	2.16855906892677	3.7571701908619577	3.64893340143186	4.464682567768287	2.7395028998827367	2.04522513826892	3.915660609849625	4.737563598115706	5.702891812231221	1.5610538681671773	0.8467200377067503	5.427385316497364	6.863257867651187	6.014977439952802	1.404437538415806	1.365626927742614	6.573846800419234	7.815632323559662	6.406601412810482	-0.43377494702494074	2.1586706583834987	5.482331262098386	6.661425573696654	5.6823506211820085	0.5866539463490413	3.498610726106432	3.8498580358580456	3.2172219672038334	2.4473307070931787	1.8292825175830436	-0.050169769547873076
292	0.5110216127845015	0.09217787510725813	-0.5966904744342058	2.1102743095524406	3.632406225570267	3.5735845475571564	4.415792454061156	2.77009152666708	1.9756262252518915	3.870054950479905	4.7342786669411385	5.6530570841160745	1.5034860334583962	0.6663065535888864	5.404970155421145	6.840655309572267	5.900884613397597	1.4106887543347766	1.036637184386832	6.460258467576134	7.738669375908516	6.299138053249037	-0.5166541920969102	1.8977075767288296	5.278129087473566	6.4814033344661075	5.452190862241621	0.4682877647974539	3.1452717701656416	3.55383204516562	2.946748487662104	2.028961414936569	1.3831462825186336	-0.4533488739011805
296	0.5075671063959759	0.12751889196625377	-0.4920304405187594	2.0720233864922766	3.482836476115741	3.480115643297903	4.373849857731504	2.8450908589057033	1.9002723645870392	3.7790286445573806	4.663853633549609	5.642791733800196	1.4945299587663474	0.5549716339404756	5.321692930137015	6.751861078381657	5.81845234355567	1.4600375853869405	0.7952429632136095	6.274120791807073	7.580186824733938	6.158239825913121	-0.5510762916003042	1.6724387365077837	5.042453753138169	6.21536777834457	5.192011343245191	0.39156100055063386	2.7885339189697604	3.2343048967719095	2.6637337140541377	1.589903589049234	0.979775664716856	-0.8193459490116726
300	0.5195981847042235	0.19543714771995518	-0.32356437959041184	2.079580540174979	3.3634350214916635	3.434158316524896	4.386612404238589	2.9644930287855162	1.8345769597464954	3.680823078399076	4.579362857700915	5.7020978783648175	1.525214549028537	0.5521605000860312	5.207587228978571	6.644971830757239	5.812377915012656	1.5116498432140906	0.7253710609241988	6.068295940336984	7.38637683910876	6.030130371127924	-0.5059317933660471	1.568899389120575	4.8390025970356225	5.933410152713671	4.968121516082188	0.39120510121757857	2.5373938019585647	2.9860808773943424	2.4573519167846745	1.271649715074	0.7597156743895805	-1.0008922790052774
304	0.5457353578140453	0.2858004562791556	-0.15679027100554796	2.1176385826051365	3.2919268524980096	3.452261916027529	4.451260555473073	3.087921373200452	1.777791137975193	3.592897406089939	4.514486301468229	5.805560097341881	1.5527182778256738	0.6344345792011241	5.075449453891045	6.543806536365439	5.8678393215803935	1.5111882648461155	0.8179050067278656	5.880778297835567	7.19558141799013	5.93686817577623	-0.3903593113103512	1.611209984526141	4.70721529725849	5.701821312813758	4.82804964753935	0.46969330192235376	2.445092671896803	2.8707537578582447	2.3873753487393023	1.1564184398064594	0.7785289267911173	-0.934127090003006
308	0.5752259478351086	0.3752800216736638	-0.07450253497625542	2.1398520415639455	3.2517959989463763	3.503551235890101	4.519007671390895	3.1550574223015797	1.7161089138572438	3.5125400931366935	4.472591865691434	5.886542782226531	1.5259157380679043	0.7263436299105434	4.925489890060671	6.441836340852626	5.924213394466627	1.4266807996969275	0.9819776987078784	5.726571545447802	7.028319341080883	5.871203407723023	-0.24571074483347455	1.7555165246509987	4.650661456764068	5.560850606229978	4.7854084847746945	0.6012150034030375	2.4941253599138764	2.8925268577025647	2.458964580049646	1.2394982545075917	0.9894383524709329	-0.6679193956677916
312	0.5930519089030785	0.43668109068291716	-0.13610406185596285	2.0928308910936733	3.205643645776157	3.5295424372252366	4.521559227017998	3.116521112202952	1.627803440752557	3.4230818662049614	4.426124561579016	5.870179161509789	1.4171965086442129	0.7379029374565848	4.754532802021838	6.310109122557275	5.908594593389117	1.2773354021247696	1.0982003184248206	5.600862012073782	6.885325414439955	5.806779846789485	-0.1174709942951272	1.9181989382951359	4.64460371752155	5.516159043690225	4.823874938229822	0.7531934957561451	2.6191327505742152	3.0060388966005447	2.628504031220721	1.4471961223303729	1.2801518407925856	-0.3299145094171375
316	0.5742402658269466	0.43858903535736027	-0.35514560252169375	1.940482134688156	3.1101512830411777	3.470035544217518	4.405202854478518	2.958521120231258	1.488184805927448	3.3005857384319586	4.327235687774731	5.710112080462503	1.2406412331729189	0.6090051516415785	4.561601627277009	6.1153783643819315	5.77375076743562	1.131435987476956	1.0831227275205049	5.488599763364298	6.753947717780685	5.719013199672208	-0.026846351034213994	2.0208969065188196	4.655355441737568	5.546684251132687	4.916277396187446	0.9107002592935679	2.7503976752458548	3.149856321011611	2.836032383434189	1.6846895175361187	1.5397342404591634	-0.05018534126128133
320	0.47664341210187366	0.34115016374286566	-0.7042146903378125	1.6767401652917846	2.928148023841878	3.2840161240633927	4.154489506722836	2.707981341200724	1.2756127086858207	3.1201734464069872	4.127530087540414	5.409987912824247	1.0448415253008716	0.33823588405089794	4.347479809275134	5.839762672939122	5.521499143011459	1.0727419826126319	0.930009064710516	5.374409185191907	6.619214518047611	5.603888497509256	0.04070153449630429	2.0283122011473145	4.659080970445204	5.6224903918409534	5.045085417407647	1.0864218446004934	2.8510429787179463	3.284469596199699	3.042998067802398	1.884697790155841	1.7155519680578688	0.11105091841793424
324	0.24630935427944245	0.10003555540815914	-1.1376681299096465	1.3233461346593605	2.6380455427322755	2.9605529233572314	3.7958919906146584	2.4170820652017757	0.9794808005398966	2.8630924152567383	3.800416221560267	5.019594179831626	0.8859071709200377	-0.020356329106553703	4.11077593719209	5.492745862444406	5.199757562860643	1.1537480325179745	0.7037175876016408	5.2479662762704224	6.473780138837161	5.482804761395286	0.12292221157510352	1.9581329773102178	4.6491660954397185	5.721309647420316	5.209911333281785	1.3092275824870596	2.9272591993812314	3.411704293220381	3.2506122507041257	2.0304481931920924	1.8295566989483183	0.18873047781024452
328	-0.15788114031031178	-0.3150472931060255	-1.6141267974155054	0.917384085723226	2.2414176407490456	2.5204601224206296	3.3830630693852224	2.1379809325598806	0.6081534012698886	2.5251662667416332	3.357197753059535	4.609913814349856	0.7957572320874332	-0.38778006932582004	3.846961488547854	5.11072538992869	4.878201472363901	1.3630779947198748	0.49721643203131605	5.105155931934939	6.322760566006779	5.391585813261334	0.25386434729377705	1.8619584990221512	4.631051528682475	5.835460171271518	5.418681607870658	1.599707480206427	3.0101742668446207	3.565645208893119	3.488433113827441	2.1459071582021005	1.9492840717692046	0.27864795852881186
332	-0.7314510326991621	-0.8952275492000338	-2.1046686119347577	0.4979147004430968	1.7675219729620575	2.0112626501802287	2.974415533185513	1.9027780246377808	0.19349046002650583	2.124565357566286	2.849268190819595	4.242266167420411	0.7645512799987096	-0.6994243246539537	3.554137459364678	4.744396674575505	4.616653430726883	1.6279985863590591	0.37718459868568566	4.947989928150837	6.181546672472929	5.359823213396458	0.4399383951047012	1.791730876213619	4.610836494248649	5.966713890269968	5.669452176085179	1.9478776405746354	3.124284974793213	3.7818641567114764	3.7818341159705855	2.2648165168801544	2.135244125697284	0.4671532201893412
336	-1.4046515190900093	-1.5770755966423513	-2.5850963527261888	0.09928676460947822	1.2709692684509621	1.4970314464919654	2.61500047977166	1.718793268632571	-0.21342584436891215	1.7033959584144875	2.3534665048307732	3.9482524295305224	0.7480625491328996	-0.932939109830987	3.2423813261185837	4.4399185068566895	4.443254459607056	1.8505842638976702	0.34895273954981093	4.7848653672528725	6.068212016997353	5.392893777582983	0.653713403481826	1.7708600714796308	4.586461532457163	6.113931163610438	5.936375126155893	2.3081223906416675	3.2633104241950153	4.064202775230818	4.120048989384253	2.4000575481854325	2.3968956409973705	0.7686980943345535
340	-2.0534591622959826	-2.250274414103149	-3.0212602539076956	-0.2483718835997203	0.8196479061413423	1.0441013548239195	2.3294904173211166	1.5793837269008062	-0.5567779526958333	1.3188769784053853	1.945596451615551	3.728883018615871	0.6977859121825043	-1.1096085281967378	2.9395387098482755	4.222359646627164	4.351809013823529	1.9594141195417856	0.3595366766912104	4.630382526151204	5.994158252841059	5.466752992179221	0.8497875311377264	1.7847619011640754	4.5471253280276684	6.261783584044032	6.169487460772419	2.615596526217909	3.3874852571792333	4.369065750535332	4.444762695534645	2.5314633782369653	2.6823708943354525	1.1083276243837485
344	-2.5414094860762337	-2.790441029179179	-3.3630905066457313	-0.5125968443326484	0.47656038283191116	0.7056062203712256	2.1274387782743633	1.481546398236994	-0.7923205474876506	1.0271043751533928	1.6741332965544697	3.568855753471195	0.5945274814854126	-1.2679868904525105	2.688883059388591	4.089481343434818	4.313306797581627	1.9450185249812681	0.3353254488585085	4.504477012705658	5.958457931733683	5.537284360256762	0.9897701119229152	1.7948398544772541	4.481691825995607	6.379210456000975	6.309471114441211	2.8130493093039832	3.4436960133391947	4.617869365477231	4.667409885066509	2.6182219916043468	2.9052290843092887	1.3580595220610365
348	-2.7757785250200313	-3.1040630262206115	-3.555546036326454	-0.6578953249533539	0.2810944013651187	0.5084051476994021	2.0118322321642643	1.4359854423507425	-0.9008210874702133	0.8645305611717623	1.5466548165372718	3.4576108368361678	0.462971268915491	-1.428795095651062	2.5359845097410534	4.019033898696909	4.298252571698004	1.8583522988130554	0.22889891209031396	4.428044784810252	5.949561104058392	5.561785207057696	1.0605150434421469	1.7635902121840203	4.387836922057763	6.4303407506716885	6.3123493035208575	2.8746666835685803	3.3930623445674963	4.731059539294237	4.709312427074972	2.623121731811092	2.9895377083640082	1.4066233599434905
352	-2.748029463505618	-3.163725368141512	-3.5635359197291328	-0.6534932835292262	0.2388920777965137	0.4474748957780409	1.9840887734864459	1.4623278342520079	-0.8895916320275261	0.837089357646837	1.5351518353804008	3.4006633672686424	0.36063542871022586	-1.572440858685608	2.511448376990501	3.985501994560988	4.291707028043876	1.7749277308474125	0.04823645937185173	4.416908729845692	5.953910335767382	5.5194482663992055	1.0756984921953163	1.67637538486668	4.277137268711765	6.393449767183286	6.170325740494423	2.8140592504025075	3.23129200119541	4.666691291470911	4.542820919011437	2.533951991359344	2.9078469203012145	1.222055074467403
356	-2.535467141425709	-3.0149707718068757	-3.395265332232833	-0.48782363410810065	0.3244429818545052	0.4911260592458657	2.0429212995448784	1.573606606325182	-0.7822536806383721	0.9221059060657663	1.5962021310560366	3.4146962079619727	0.34683626802614753	-1.6448289114432144	2.6174745493607503	3.9770724672995557	4.29512118208799	1.7486696199136469	-0.14805912934115245	4.475971687460244	5.966465458111172	5.421558843275991	1.0619794103512914	1.5491642912852694	4.172409523920025	6.277103408224103	5.918568119364913	2.6743373803329082	2.9926707669040713	4.4437351114613115	4.210609902241546	2.3723876416390812	2.6928324631414373	0.8705736972763474
360	-2.2631769123158127	-2.7527420451282416	-3.1088013570497126	-0.18437594128788296	0.4922498154133014	0.5933509454051616	2.1760771219625985	1.7589961245949115	-0.6062675699186013	1.0791358920508345	1.6919079976280622	3.508963099203464	0.44756317025673037	-1.591449852740093	2.823309175992557	4.0016531843242875	4.318277348106187	1.782159085542595	-0.28614911364788903	4.595151412806317	5.995428547027305	5.306832300139134	1.039705512282833	1.418287988896584	4.097301949646762	6.122513755599267	5.624663815602556	2.507616752015434	2.735314123877077	4.13711594490757	3.8128635787065748	2.1844139043969943	2.4186484752625184	0.48388618108650183
364	-2.047425026492736	-2.4822163519178204	-2.7979247499397033	0.19382455896078957	0.6908289772711749	0.7083905917402332	2.355037921681664	1.979413623580647	-0.3846778859916723	1.2646145788689227	1.8008775665591783	3.667932977952494	0.6386529787151625	-1.3972289526948702	3.074269286976986	4.079475869369503	4.367220390737744	1.8324865056502107	-0.3188090614375924	4.7516140817838455	6.059276565512344	5.224721418541024	1.0131335232904723	1.321381803991102	4.066633214220043	5.99101017393055	5.366597638885946	2.35660385490525	2.518862241107525	3.848775377093079	3.469534865202669	2.020623201990702	2.1666536276474013	0.19622527013350796
368	-1.9528843115138381	-2.2849006595143835	-2.560501569005326	0.5550981149963696	0.8709721543256649	0.7995409349282221	2.5361275608881533	2.17940115378404	-0.1380464580149992	1.4406411611423937	1.9131579350806291	3.845818271463948	0.8569194652856745	-1.1093767853384362	3.308525553933153	4.224593628707706	4.436180103545816	1.848989839653954	-0.25055569347064865	4.915978419290008	6.175120338108051	5.214382635302967	0.976143894115216	1.2798765865437076	4.081099499889086	5.939614757800545	5.207528101171103	2.245803350500546	2.3853499829149483	3.667198887149294	3.273617974599289	1.9174234818685658	1.9940639683922914	0.08334487655577925
372	-1.9836964557155248	-2.20482277313514	-2.4654195246439445	0.8063960651065322	0.9881063674775002	0.840012250209953	2.671139710358071	2.3116550387192962	0.1074382585554771	1.5758110245019894	2.0159454294805395	3.9805989164941433	1.0330243084575381	-0.8257409313334785	3.4747362049112165	4.426769722252436	4.51056431585191	1.8146192981681604	-0.13262796368492197	5.0598358980222615	6.344506724551729	5.2901081905317	0.9265100932571003	1.291703340130181	4.128128518172448	5.9964713898896616	5.17860315922753	2.183981413095596	2.3498003423491847	3.634633770349189	3.258916846630424	1.8866879892398667	1.9192851733387801	0.1367817070607034
376	-2.1077485031318157	-2.254391664535259	-2.5329370434706715	0.8861381389179592	1.004896757449757	0.8105291703741123	2.7250208785875127	2.3609518945213472	0.31483364025736754	1.643781657837155	2.0849857277681436	4.0258407491130725	1.1277284593719976	-0.6514982564689861	3.5460390955087817	4.647432792374026	4.581165778991529	1.765872474026708	-0.031767330983542605	5.163225160914305	6.546744806926869	5.441178784937882	0.878890690968728	1.3370828594781943	4.188874234114051	6.149515613288663	5.27666805842452	2.1731047575444435	2.40270208705815	3.7369666005199003	3.396718016631631	1.917493219302777	1.9275376748056765	0.2836413376322631
380	-2.2955057563046246	-2.4293963847812807	-2.7352423598849485	0.7870187143482654	0.8973280168766155	0.6976232511073229	2.689430945281983	2.351163381362467	0.4409297395541026	1.623919006062352	2.0887198395446047	3.979359139885945	1.14871144004717	-0.6484034641107719	3.5244705588048144	4.831794726570422	4.657439696950812	1.7730537608204056	0.006887923443063414	5.217338072002049	6.742599947118418	5.6421503878240316	0.8632877447266885	1.3912337983292082	4.245434273491514	6.35210846250861	5.4727387290110325	2.2139387074840724	2.518960469561867	3.9173085590642143	3.617954721853091	1.9857727239063887	1.9880551049583655	0.43440353760715494
384	-2.544793360960879	-2.7188155582449034	-3.014670125979388	0.5578895197134431	0.6653348190675665	0.49682053798171744	2.585156672626549	2.330697053746903	0.45166203265597343	1.5075346193398982	2.0051152655521944	3.8911692997918306	1.1408897609516226	-0.8036113361096567	3.43591999140143	4.9321637029100325	4.768445956588761	1.8944839191289362	-0.01855398523593443	5.222621904538757	6.887920839085502	5.865887627096796	0.9096655226628796	1.4364224636051324	4.285249222426636	6.543305857350591	5.726057991829714	2.305946821112858	2.668219082771451	4.106022824411121	3.8494775198067606	2.066597218064204	2.072002882494526	0.5318366275711209
388	-2.8749763893020512	-3.1012303750894574	-3.3075485145984613	0.2825458042640574	0.3432802251255035	0.2215390646824813	2.4530432162340294	2.3449013173981745	0.3410318485232852	1.3077666726473032	1.8418850852239548	3.8455541036789707	1.156568047464468	-1.0378740999720881	3.319469920360599	4.9317173833310815	4.951948153391087	2.1339368766313704	-0.07210324686442744	5.185534940978828	6.952418309778374	6.094659313073158	1.0291031573062444	1.4676114283701378	4.302665699586032	6.674091799098024	5.999268516652619	2.4443118510522166	2.8240933346972423	4.2530650985149725	4.047125329290047	2.1445980017875588	2.163757318755788	0.5759241566422447
392	-3.2961475765931887	-3.5344834238460625	-3.563492527547846	0.04573528457061807	-0.00014104443799484273	-0.089859455597025	2.3366928041590116	2.4102055965606897	0.14185130560346876	1.064847705059931	1.6439901548840528	3.9196288486701727	1.2241055934517888	-1.24764394445132	3.214722148408265	4.853776919508086	5.230973230506441	2.4284093318662925	-0.10608231249490518	5.11592005391704	6.932976228376044	6.320549472109773	1.2029753893043929	1.4904098473112957	4.298798550242768	6.726289255326102	6.267144187363017	2.616852992126602	2.9704284592972643	4.347306717387143	4.209449757438567	2.2183721009512727	2.262281650553547	0.6138982757327707
396	-3.7758040332831735	-3.950588216344083	-3.753689279615863	-0.09841289346405192	-0.2796217494103712	-0.3782401969419927	2.263989681249918	2.503891700144956	-0.08154803493891691	0.8379415252510392	1.4781476221911927	4.136779774711885	1.3327205147473868	-1.3580969537778609	3.1493666092513726	4.7488016962318635	5.5869536258784285	2.6776440075981194	-0.09175149328193388	5.024991022774543	6.852845651490952	6.534169657422485	1.388228770565799	1.5132658443391611	4.280190457028031	6.714106542801929	6.515007479431314	2.8036637235427673	3.1028211038452067	4.413355816188891	4.365831840936563	2.297169917982552	2.373989099230863	0.7032047492392881
400	-4.229119290164785	-4.266483772950088	-3.8691799542968113	-0.14138604664868792	-0.42371356380296776	-0.5805097207671724	2.2368774357586774	2.575738423520079	-0.2568680041503598	0.6847875697012838	1.4014733994386095	4.442254532088829	1.4404211007944387	-1.3566621507724501	3.1319594304165372	4.667316901820894	5.948750480891493	2.7982387472075874	-0.034174110654141866	4.9251918668375465	6.748535616048744	6.712290270070919	1.536494847233089	1.5405379494872855	4.2579169165874395	6.670643312778606	6.731511575869558	2.9806945248688788	3.2266430773332457	4.490610588180121	4.548582065542301	2.3927898346570284	2.503757232066682	0.8710315205517113
404	-4.543984878511671	-4.4106330760224255	-3.9147808452949615	-0.1122226563242929	-0.4039610018067872	-0.6530919058523221	2.2339756432397584	2.574798339065055	-0.3323893538666081	0.6388751252256795	1.4320294820869877	4.717390525351696	1.4985701999976018	-1.2880768743419126	3.1520590702583684	4.633948791248402	6.207606299940093	2.7680036951751585	0.03622825807126934	4.830938327036452	6.6516551803497395	6.813883764229702	1.6152967173802029	1.5698881109656126	4.245731819877482	6.627675039724249	6.901060086946615	3.1246287743834094	3.350713006142924	4.605917918974202	4.765289771446583	2.5091464456150874	2.646968596451202	1.0932680340821097
408	-4.627583968876777	-4.3516278157038695	-3.902898301761119	-0.050809878727661066	-0.24436683891111685	-0.5880057200844896	2.2268171254203075	2.4785995420819815	-0.2941099099839911	0.6988008600711771	1.5412709674068827	4.831222045144866	1.4778501950145144	-1.2151253192740223	3.1897292056613074	4.639221179693342	6.257267936167249	2.634340279603813	0.08924483485339472	4.759713160895477	6.577242834651383	6.791635496158433	1.6193530518655062	1.595804806494967	4.2575311553274275	6.601328833125727	7.00230072160922	3.2172119536235364	3.479675522601993	4.7551026224244515	4.986734377668495	2.635247462295004	2.7863526273950674	1.302360292961246
412	-4.450945366112297	-4.113234986410734	-3.8492159746261465	0.0187652036073885	-0.005737670217124312	-0.4126546670508748	2.1995966378944285	2.3073389471927177	-0.1657761182175868	0.8352042415512851	1.6740666585617792	4.706998813189212	1.3825603688619708	-1.1723549336398198	3.2289149679677687	4.65334986465523	6.044789299008394	2.482037061146789	0.11926266520906832	4.73047255275397	6.523738844613127	6.616488916858204	1.5673316677576505	1.615817423555646	4.302759636505961	6.59006689315172	7.015255433490575	3.248120299721648	3.6086540131058213	4.903180109996149	5.157479273172465	2.7469458510663376	2.8949508593901703	1.418991442912447
416	-4.067781438094097	-3.767151346232265	-3.770313730257484	0.09889014785356352	0.2463079386691326	-0.17341892377461507	2.1611154024874337	2.11505269470273	0.006507197844199271	1.0110588048203688	1.7848627522227807	4.3689565548263785	1.2450624672926156	-1.1438084811896148	3.267820350025914	4.6528711201496025	5.606460080296953	2.379459375095958	0.15120640358895893	4.759104716683146	6.483571513018983	6.302187903705204	1.486907359183847	1.6345053869941812	4.38170050468434	6.584162695473755	6.933902246134937	3.2161335863929827	3.723648538724912	5.0033259265462835	5.224231706780786	2.8178086209679925	2.9454708024999245	1.3915895188483296
420	-3.596551886061181	-3.406053057654205	-3.6820132639429457	0.2070675785081952	0.4719023096567973	0.08807840176040768	2.1421678012169125	1.96315085392261	0.1754583413939396	1.2027603357465861	1.8682048273602625	3.9425470729470264	1.107594368045573	-1.079509374754054	3.3213922893590415	4.643815028863873	5.069101320819914	2.337572568713675	0.22360011878780467	4.853054034378076	6.457784636405622	5.916168197953736	1.399348136229864	1.6623579221716631	4.484122264984832	6.5807943177967125	6.778716547063853	3.1310930173022697	3.8084983729528252	5.025778280920749	5.168522344891409	2.8344764637909003	2.9239096567718903	1.2248045175146605
424	-3.1769783416645696	-3.1116473596212626	-3.597600689388001	0.34927803189785134	0.6674450619058666	0.35152539522111104	2.179728979329477	1.89131319045347	0.3073094181408206	1.4074838125932956	1.9633605430624004	3.6064097790264045	1.0041773293891345	-0.9382827854308989	3.4131534013405016	4.6657352329711275	4.612353790082221	2.3089852274772573	0.360062866493959	5.007250296348387	6.464391692053003	5.567857728252081	1.3152617182903064	1.7101467804647041	4.592893588867925	6.594430906812576	6.601988298913858	3.0174665374866096	3.856760015287031	4.9819168918713315	5.027451979341816	2.8105535436242493	2.8433043884970055	0.9847096775942609
428	-2.92174863077637	-2.9326779768333706	-3.5281953722567136	0.4969786691039073	0.850163398026731	0.6165994390178821	2.2950341643563528	1.9002654504482626	0.38452738426399447	1.6314905840690537	2.1272642558749015	3.5124194533359727	0.9531794166341332	-0.7293071728412935	3.559586992813444	4.770732390756573	4.398404110294023	2.229358905885692	0.5468024597667649	5.203386293625408	6.532592756944289	5.371297822742488	1.2420482604139342	1.7821706488436524	4.691300380306484	6.654354078658355	6.476896746495308	2.913892500196229	3.8816084763754177	4.928393828346796	4.887718665180449	2.7900934148917265	2.7497563292696907	0.7770204524449502
432	-2.882825367324837	-2.8788318561349686	-3.4836697490475967	0.5846355542681083	1.0285248730440935	0.8860769249479294	2.47718238205138	1.9549078891988536	0.39889469642063735	1.8671430302209147	2.3912086426444192	3.7143943216004494	0.9599472856127125	-0.5242526517983376	3.7543160820587387	4.988511549752631	4.504038322521219	2.07158112002916	0.7298933845211795	5.412091718360928	6.6843943427121495	5.399009214121498	1.1940532892597804	1.8709939671008404	4.768643367171759	6.7887553997301575	6.472570879807011	2.8654093670025973	3.9139037033446615	4.94538496676215	4.853421198988965	2.8327288556104984	2.7122952869600963	0.7072894555354328
436	-3.0431792659220576	-2.929067365880573	-3.4727191837371096	0.5348752723540986	1.1812970608450262	1.1473826140999026	2.6837527684164364	2.005709404649816	0.344937442862332	2.077793831347703	2.729903214238028	4.143495072393905	1.0233298514278761	-0.4264866102894968	3.963449468142666	5.299811349839477	4.88780258852008	1.8767478418650607	0.838487861423671	5.599763379264056	6.915434819881514	5.650155053178578	1.1954345672943179	1.958784456075968	4.822745311004891	7.005239945844964	6.62575529333017	2.9092273638707273	3.9895963568095616	5.098736273290259	5.001281248817071	2.9875473900706933	2.7979524064948094	0.8390216210162871
440	-3.3300838386382448	-3.04502057260381	-3.5004544169739695	0.3025920681466272	1.262230989130373	1.367077943211363	2.8594205307292655	2.016364092504385	0.22171172443679849	2.204627746737927	3.063538066758718	4.640874850953816	1.1401046485726234	-0.5130761252800773	4.135903348017321	5.634287343105115	5.404417501156183	1.7419769719965843	0.821991024326192	5.73730276566607	7.1852340516832465	6.04481218719193	1.2704970804562437	2.0250270315541683	4.857079016820307	7.276947956786164	6.918595296558105	3.0570466441219093	4.129864682261083	5.401988492678429	5.3409418924907595	3.264621726376763	3.0387339515259324	1.164570328633229
444	-3.6392688659337997	-3.179560653288299	-3.560517540525328	-0.08788663126690764	1.2296837537236551	1.5059157571918858	2.9638082906280654	1.9834037969104166	0.040308806943451375	2.1948177759069822	3.295232526088907	5.0340766779640065	1.301587697557618	-0.7860909680546788	4.222974766559694	5.896518215550955	5.866703972309578	1.766463752101387	0.6774779541077088	5.805815682058033	7.423608761164417	6.451192839547264	1.4243187868397318	2.053739542544298	4.8722300406468	7.541553478273861	7.2746996695909125	3.281712285339351	4.3216972241961855	5.796364292769152	5.79874323334542	3.617112865852409	3.4047562990057454	1.6002011258732105
448	-3.8596367738552075	-3.278770676917823	-3.6252226738000735	-0.5347080217212811	1.0848503085403132	1.5480281075494295	2.994494430611015	1.937811250562514	-0.1679747249415433	2.0379273839996253	3.364803305713673	5.2164869176768045	1.487211819708591	-1.1617854804270642	4.199607838518103	6.008548721402138	6.124043926036078	1.9884724566800291	0.4530042696482816	5.799063667914924	7.5531749534642465	6.734508974238454	1.6267985064441812	2.0384318777117305	4.85878180230795	7.716977576799463	7.579267959532401	3.518262615857841	4.512990463306722	6.16290377014573	6.236676677216551	3.9487986464938647	3.8013942145692723	2.010661120106674
452	-3.895733585058627	-3.2839214718877283	-3.641389360770975	-0.8903768040111699	0.8911221004875597	1.524406190838134	2.990801326830056	1.9275435160608496	-0.3528242996367769	1.7862921908101752	3.2863905346866704	5.189640032063434	1.661682124710906	-1.5066382846940287	4.075344552241262	5.945981487520799	6.121139510912796	2.350637906815454	0.22468885722652315	5.721457943776143	7.517513733003745	6.805267793639883	1.8128833724981048	1.9822349498293221	4.796350467016356	7.72747228578786	7.716236571857487	3.681512346509518	4.6266064527049275	6.363423808244202	6.499802096168923	4.145934571289113	4.096505154757416	2.2547955456072373
456	-3.6864502336888236	-3.1397981564404476	-3.5393943697259975	-1.0209166977855924	0.7580481748515542	1.513123150819929	3.016057483687677	1.9920974919568264	-0.45768427733261746	1.5438221654061177	3.147304526965929	5.048291193614153	1.7829770996854273	-1.69954371023238	3.8897540471098573	5.748559937268508	5.909580692629792	2.7181043556252393	0.06070762484839691	5.584115014282813	7.3023986632038405	6.645686609655581	1.903905744514084	1.8936929654947638	4.661146152172167	7.530313472809075	7.6082167433338235	3.6949524786166985	4.589971053932677	6.294113620125737	6.473132593977956	4.122572411619093	4.169989575348254	2.2355561199966325
460	-3.2207372107252317	-2.8114173341341533	-3.2561900533481243	-0.8657254554825577	0.7939591387730338	1.6106432635650474	3.126577369425487	2.142038816765944	-0.4409061659171534	1.4247791731148145	3.066974393730633	4.921371924372826	1.8206727458762657	-1.686851020368796	3.6955141927876434	5.5002121786487	5.611375794548458	2.9428684637156013	-0.008496748262053213	5.4017109734530555	6.941394311545709	6.306690676978748	1.8431565715030933	1.7823581650556424	4.439852226491866	7.133073788753415	7.244609337635634	3.521378508260253	4.3676056751606	5.929013237288982	6.125780566961869	3.8590266607128267	3.965587367536072	1.936078901171136
464	-2.545156710874512	-2.3019218386706277	-2.7651140620037435	-0.4665008175515993	1.0513919565358592	1.8860185098714397	3.3429346000193743	2.353955501335276	-0.2941896013938546	1.5020730457529181	3.137084714598543	4.90115545942753	1.7745434000988711	-1.500792618777086	3.5379259497010187	5.289177404401237	5.3548507555232705	2.9390747472945153	0.00177189975063921	5.1910705435344315	6.503273947509034	5.880274280960619	1.6280734497927078	1.6566708046094225	4.142239560159526	6.5940899682453225	6.68665550451064	3.182098857475006	3.981048573933194	5.33300303066388	5.524011597991688	3.4147703561398863	3.5185437113618923	1.4267042839269097
468	-1.7573229030110011	-1.6613960224167064	-2.0986132568780245	0.05080593364524496	1.4960070810694417	2.341983312415918	3.639301052441897	2.5829331809634617	-0.0472228972911664	1.7724910929751465	3.375998250067122	5.000213133585392	1.6814879136547365	-1.2333130805348655	3.4410159500982807	5.169910894692591	5.216104017439734	2.727334492473273	0.04636473196959878	4.971463667715595	6.067839130340579	5.462179170169284	1.3201049532939475	1.5251284799216986	3.804965009619461	6.005762561893792	6.046726211540125	2.753975861271977	3.505816450804426	4.638137328835483	4.806766497873847	2.9082486556059863	2.9441020414407584	0.8383886196903706
472	-0.9821381544112087	-0.9778308843720347	-1.3500406708010697	0.5322785960110147	2.0175311514461405	2.9054708407478875	3.9570989508857504	2.7855360437637064	0.24369428990349173	2.157375568665089	3.722033729692734	5.159146772710491	1.6039224822557219	-0.9846747492725106	3.405112019524867	5.14577816617686	5.195769296879502	2.4235334335173966	0.07884932289481573	4.7643141626233625	5.700975403697241	5.122466074408325	1.0240013573542204	1.3984571660020109	3.482604494838861	5.466414914634909	5.4502663474759725	2.3439176023432853	3.0448489112272905	3.9932191271098634	4.133706082397868	2.4702165064433568	2.3902683197708168	0.31216949145656825
476	-0.3367106906019136	-0.35205334336087607	-0.6482070072020882	0.8616670348346928	2.4772486624162027	3.4540345581586736	4.233112801354654	2.9389574453538936	0.5165992366145661	2.5377018387619863	4.066881169541682	5.2916364536198826	1.6026755530901688	-0.8186181763008026	3.4136447820307896	5.178285585680968	5.234693514005349	2.1798016969959195	0.07453200202244185	4.5899996641620975	5.438113675692691	4.892200457619085	0.844483671440424	1.2886937824137803	3.2280893244304245	5.050484167699192	4.994816767479632	2.05066441971881	2.6892745426944873	3.5091833979699976	3.6282720474190837	2.190585846138614	1.9761369178470376	-0.052934698626862224
480	0.10257140521140334	0.1328100409730899	-0.11296752066700916	1.0031545136873712	2.7671384741537834	3.8663186929362374	4.427571762350508	3.0474512500116138	0.7244204264470763	2.805281155179309	4.30975006922757	5.339089856972975	1.706423159105697	-0.7459574918986819	3.443263760456375	5.215261923020473	5.257467256623632	2.1064541286691414	0.03606085097625972	4.461735237300875	5.281102167147456	4.767289626483038	0.8384835698892581	1.2044593065369744	3.07074879824686	4.7878565667387285	4.721481311321593	1.9277292441335008	2.484832995816854	3.2243504442823934	3.3384084617251375	2.085588926771748	1.7458724931506895	-0.23310954809938983
484	0.3171307138542444	0.4341641057496967	0.18777121556081247	1.0012353633397384	2.850102655844344	4.070660104010901	4.536410797109896	3.1325528542584227	0.8461036064720396	2.9045565054993414	4.401907909723653	5.301151262250645	1.8935290527220452	-0.7394951563284499	3.4718408496939173	5.220369802646249	5.215026842302073	2.2182192746424545	-0.01746723982752059	4.3800811656991705	5.207045065131063	4.720479953291894	0.9866925453069976	1.144970533341222	3.0036413593751528	4.660032260573416	4.607833373833868	1.9631248662975536	2.4186358390778575	3.1031696718069735	3.22965048928244	2.0993912166996687	1.6607985454589864	-0.2791579358682225
488	0.33993628535275716	0.5550335631662409	0.2596442096830539	0.9413143372611661	2.7624411513201843	4.067238320572275	4.5806980017405134	3.2122020640335243	0.8855649210506015	2.8456110882439893	4.358894337139381	5.2236294614514955	2.097513431975406	-0.7659554462167831	3.481990805417803	5.187906728997742	5.101423727507106	2.4331116614900403	-0.06896656734220306	4.331642139942561	5.1828713286198305	4.71186493637639	1.2001569240786596	1.097487566084396	2.986737958996687	4.613756644998113	4.582637775295186	2.0853016323846556	2.430813783230461	3.065589420208129	3.211515418527445	2.137646192875667	1.6316442448428967	-0.2831994884016587
492	0.23183046222806172	0.5327836261649215	0.1721094842380117	0.8972083903548532	2.5831739837277463	3.916463365203433	4.583947646965463	3.2839212334691497	0.8627231695328014	2.6872210434778703	4.239616860176123	5.158426748603421	2.2341589871266248	-0.8097961524545152	3.462898007232975	5.138862596888901	4.945164667995616	2.6186604433702074	-0.11515094310774747	4.294727314596309	5.18029068592615	4.698784339485587	1.3586550916701285	1.0421444151315946	2.96575569357725	4.587374675612817	4.557408798155514	2.193390602296083	2.445489400411426	3.0309674663313073	3.1836886325564415	2.1174242443030655	1.5731540878631898	-0.3303206852679339
496	0.05432697744362332	0.4196288873091455	0.022195253465166365	0.8954920150082345	2.3918297230414107	3.7034995462373312	4.552924621531093	3.321827164846225	0.8029859641782523	2.5048282083213023	4.109287728425095	5.124273764070509	2.238529438089101	-0.8745775200697361	3.4140381726853137	5.104754435048745	4.784148204168745	2.6602547101566714	-0.16388185280908507	4.25143669962382	5.186296926755713	4.644920337393797	1.3642981017953466	0.9636350249756553	2.899230711292817	4.539056289656928	4.461851108730026	2.1997089330449016	2.406712525967092	2.95510911195435	3.080279819340961	2.00903939693572	1.4513703548027441	-0.45871895435866117
500	-0.1468324508536108	0.26631554893966314	-0.10841597589300113	0.914424178675798	2.2390277329181654	3.5004553706482837	4.474851596978453	3.2902846253293045	0.729984996859968	2.361543172596026	4.009569634804788	5.095542418012678	2.092722410640456	-0.9670771335980989	3.3495597754787214	5.110229479285411	4.64436529894305	2.5136079724745506	-0.22304876092386317	4.199236859209957	5.2056622373757655	4.530381668096798	1.1842383116386868	0.8624694325606331	2.7793421675128647	4.463427055533908	4.269574631401757	2.065555090457582	2.3005220831962565	2.842174999690653	2.892724506704141	1.8465205384364336	1.2970250812208708	-0.6474900229318953
504	-0.34226056846990527	0.11469490797172233	-0.1816478814068846	0.9137807465370721	2.1424579566269464	3.3462672149096417	4.334353912854416	3.1682100216030893	0.6627212746100538	2.294455522466334	3.9515991111169213	5.026878344241946	1.8334274245702595	-1.0793415280747902	3.2990622437153463	5.164515959098302	4.5353784446649925	2.2183694783469092	-0.28946441338889306	4.155229557990499	5.256346212467527	4.3621878513827745	0.8641423561213204	0.7591736297513617	2.6366655759999196	4.390510071159901	4.006922711746285	1.8172128154650793	2.1557359641007467	2.7314953735052483	2.666709177913813	1.7056823925822988	1.1823832958886704	-0.8333637693345574
508	-0.5071877228329384	-0.001831054799292353	-0.2049719537089894	0.8740640260562925	2.1029052681281746	3.249738208195346	4.137332428976848	2.9689292832756586	0.6149812921256052	2.316426986567966	3.929471721264951	4.893117892309151	1.5362820586517782	-1.1843130558630464	3.29984187246704	5.263033376757284	4.4572029001235975	1.871609444661237	-0.3478330066958875	4.148861874595932	5.358441339315474	4.175733078904309	0.5063549863428839	0.6862500292618006	2.525444262804164	4.366415012779573	3.7394621277810556	1.5333268603712755	2.0248014875789075	2.668696873602764	2.474731200645825	1.6624702173221364	1.1746144265082605	-0.9479607319739999
512	-0.6121632441323844	-0.05723777026388047	-0.20948219246427235	0.817613659224939	2.1229507869526865	3.207576028354896	3.924063195811687	2.742238514652441	0.5938023909835507	2.4241681037733627	3.940096368378629	4.71711825133505	1.2820543018397232	-1.2504897086042916	3.3807423029421075	5.394354806632029	4.411156166383654	1.5755237301148974	-0.3816244294545055	4.205456246248699	5.520992265113569	4.023741711947962	0.22198729161006056	0.6704579574823663	2.4955682691509558	4.425046909604197	3.5423238188000226	1.3078291383148701	1.9541013191477894	2.677630179320566	2.379705899906127	1.7503724054012912	1.2924325433525221	-0.9534087157020052
516	-0.6268404110341098	-0.036209579465760006	-0.22006109301320104	0.7962005714341532	2.2120666448056934	3.221113196823526	3.7596962357011607	2.554731362568478	0.5971806630316009	2.602813237294495	3.992971648625381	4.564897525706187	1.1229933471937061	-1.2642502752809752	3.544105997674307	5.545699582403484	4.402056682916637	1.3915232384835068	-0.3878565420848738	4.3288841138264775	5.731998429131611	3.952702750716796	0.08203153291495296	0.7159770113034463	2.5658438140937667	4.565598953164133	3.4665529640413744	1.2065126865443023	1.960578317460599	2.7485129763828153	2.407218688609247	1.9417633961290128	1.492723461197056	-0.8579339959418351
520	-0.5362426029017938	0.05783716202080908	-0.2376338535508043	0.8548694827430903	2.3746402203687453	3.2982287323649118	3.7035741712524013	2.4570081171944778	0.6144914611560778	2.824544184229185	4.102294911517701	4.5065703278248845	1.0632978650903944	-1.2419341771241221	3.7568929100551625	5.70298574915115	4.427284706381995	1.3200814690639653	-0.3831296255452181	4.49392699060705	5.956066116554175	3.97598647067449	0.08964896924511273	0.7992125133363389	2.7124614647093104	4.747629153662802	3.515279999440811	1.2374824254263774	2.026009554516165	2.8459725308089947	2.5369367535435807	2.162367100024557	1.6929104285413639	-0.706109402781149
524	-0.35876291899701224	0.19657032142124153	-0.24332749782163124	0.9959596966393436	2.5925230914464517	3.4404928597370525	3.774204483040019	2.4553196368215437	0.6311606152811674	3.0475099009819244	4.268648613642864	4.569794166471412	1.059644219584177	-1.2221688001293474	3.9595947165654843	5.848036751287372	4.465107906512331	1.3102955785094486	-0.39502721925182815	4.654251086881958	6.142932399499132	4.0605344669820225	0.184907704124904	0.8796228148186557	2.8787054942883636	4.907042014130686	3.641340008125226	1.349058267048362	2.1095092243340354	2.9294433519788665	2.715096466838888	2.3284585417133705	1.8145619585000312	-0.551895974673186
