time	FP1	FPZ	FP2	F7	F3	FZ	F4	F8	FT7	FC3	FCZ	FC4	FT8	T7	C3	CZ	C4	T8	TP7	CP3	CPZ	CP4	TP8	P7	P3	PZ	P4	P8	PO3	POZ	PO4	O1	OZ	O2
-200	0.7311047893185361	0.8587585069909314	0.7075218540448253	0.1975026423713031	1.440200802027905	2.133116478302753	1.861785168715582	0.9162348485702133	0.310795485188675	1.364985939394318	2.337422841846377	2.1044170803344406	0.13858075404941686	0.7190659624064873	1.3798875773877008	2.372246736259188	2.1201891845579257	0.8800992943477871	1.0569899055497407	1.6515208441045417	2.386579507524271	2.1324691718621267	0.3228526107266236	1.1850724190355677	1.910462613050691	2.129940027581403	2.1077425426673533	0.8133106211155334	1.4510319196305639	1.6547542768661534	1.20031261141042	1.1061481209483943	0.8279603698807314	1.3968944514292352
-196	0.4040430476001134	0.5662156925210958	0.3416282227950797	0.11615373164891683	1.2081886499418655	1.7621272757863469	1.5546776017037838	0.7317993622423501	0.3072639994016164	1.2164099185749784	2.0144169279737785	1.8316461993702888	-0.01997040020847832	0.7170622330681319	1.3177942004311292	2.0988619274553995	1.8872523260151752	0.7249895315939549	1.098085519879273	1.4910416565443196	2.1909010354993903	1.9297982405577205	0.31578400651358934	1.2339221207936426	1.8703322363362147	2.0547671266176315	2.0382833429373255	0.8405904748674592	1.479790326197055	1.6677325921867798	1.2378871409633805	1.205328461464895	0.8876575209140926	1.3639759982957935
-192	0.21873573903648283	0.3565285196839585	0.10405047956660916	0.11674998671142206	1.063493368324764	1.4296002351906552	1.2266824214482126	0.5288383947371991	0.3877620985254656	1.1308685512601269	1.6871089892707327	1.477004405107287	-0.1569122966142563	0.731686232626852	1.2706214157449311	1.7512261823308983	1.5722196062447604	0.5487931356879474	1.0967236729588832	1.3049465384915206	1.875541563067142	1.6427612263211766	0.31165680210582714	1.2521048752643371	1.7440205768421937	1.8572019291717947	1.8711204481567343	0.8616406895817685	1.4404070340983073	1.645117397923199	1.2524687020151277	1.262176748903764	0.9511565542048532	1.3704531158178925
-188	0.2277529084892721	0.2736999087575978	0.038798615238461065	0.22165124062366537	1.0596250268886078	1.2159670560654152	0.9591735577208367	0.35712468533949676	0.547336517382604	1.1626150578709535	1.4523605071592531	1.1382985086311994	-0.2351515138172721	0.7917343358077646	1.29421102673884	1.431292291842267	1.2526075808371036	0.40538990395238	1.0667557689436635	1.1724331349335677	1.53905784695196	1.3389861549903566	0.3226006022891495	1.2420678107373713	1.5848379095118525	1.5939569433023058	1.650403853064271	0.8675442316086421	1.333929892986826	1.5974255759916074	1.257370230361212	1.244456168847491	0.985829768076052	1.4255150520573536
-184	0.41104930535486994	0.3212218276496862	0.1214165162954921	0.4149375547423309	1.1798590391888057	1.1322951288245793	0.7876714448115527	0.24638695952674405	0.7369348984232317	1.2955146995260758	1.3375725712384323	0.8811929203673649	-0.24205549000185234	0.8942816830944812	1.3871395552899235	1.1952761381489048	0.9830492710089449	0.32961234367121156	1.026235458644051	1.1228617401383743	1.2499994007976072	1.0630266639573511	0.34338271531193604	1.1991281479124338	1.4351537191396466	1.311261173752372	1.4095673525508037	0.8416764118878802	1.1634619206617842	1.5109484157561448	1.2341736523939597	1.1318557233844044	0.9444591379162206	1.4721629582429847
-180	0.6891749483828338	0.4635842132784912	0.2726585262090338	0.6364676936292796	1.3422788347687256	1.1227738828921972	0.6911863667203457	0.19269284557329652	0.8792060591434383	1.4446223937754696	1.2954940763190357	0.7178409677501563	-0.1988199944244804	0.9946939920107338	1.486501213135373	1.038678166628078	0.7813642005266347	0.3200773290659211	0.9826946829780714	1.1226441831854934	1.0265529129813231	0.829252956204067	0.3524929872196294	1.11051392274859	1.306272384206557	1.0342261765117546	1.1634916037748073	0.7695229034068729	0.9382833814773451	1.3598320449828918	1.146666643108668	0.9304142570846762	0.7948989252048346	1.4236628973302794
-176	0.9615070795579016	0.6427035911545816	0.3976997723075196	0.7985655049189355	1.4376256429615306	1.1007926436288469	0.6129161700032861	0.1646339442149621	0.902131137954424	1.4954647980126443	1.2390929429241424	0.6166182740855836	-0.15093344411889917	1.0231205199159534	1.4982855282148733	0.9142726040645168	0.6359878166354045	0.34346628102370014	0.9271146035628861	1.0966650219885723	0.8448761084206343	0.6323232038745762	0.3253183952701112	0.9641087030864894	1.177705046541351	0.770562587223065	0.9143134928507295	0.6504647119311903	0.6791581494350403	1.1302221984938143	0.9688671802854739	0.6763642413228925	0.5473492131719091	1.2225871055253248
-172	1.1477900714505584	0.799736080534724	0.4300408352484798	0.8206089714312743	1.3802715505083745	0.9961037014607574	0.49781623357017646	0.1245989051295632	0.773662982417874	1.36141025676327	1.0944782467865737	0.5325489626790332	-0.1431668099126627	0.9198595262191429	1.3467496599527502	0.769291518176439	0.5254678116883055	0.3585474184043709	0.8402198531871815	0.9720737313523599	0.6670616848316393	0.46473750354733845	0.25226125057426796	0.7611774782990063	1.0152651045915482	0.5218252526459883	0.6641328914087054	0.5040895330099806	0.4191529740241379	0.8398331978574998	0.7091135364748887	0.42510527265031467	0.26064836913104966	0.8845845438558111
-168	1.2140789001329877	0.8930132962568633	0.35850495009507566	0.6672286970458783	1.148528096160304	0.7890636901007012	0.3259048453685756	0.05265569301066334	0.5206026421754423	1.0310828659728157	0.843214807765649	0.4396010328161242	-0.19347806226042386	0.6709364039647704	1.018421647361594	0.5801652655258851	0.43718206772098944	0.3435193589597386	0.708208201527681	0.721527455415562	0.4713643479367352	0.32869791901569856	0.150085001804986	0.5252896534055216	0.7977093438035434	0.29364091083776006	0.424477784754026	0.36550190952527073	0.19700263390870595	0.5386304245701121	0.4134813536694999	0.22950637282600866	0.020272275381761722	0.497550933296951
-164	1.1732743948878035	0.9058939195649496	0.22432070913899743	0.3704271009152711	0.7943605760545824	0.5154754506448082	0.12255992709449277	-0.04187872622764613	0.22096681539059876	0.5798698649071241	0.531353233903213	0.34481766732895824	-0.2810095243511728	0.3240834764404501	0.5768768176772846	0.3657087674444415	0.372694133771257	0.307738392768186	0.539038656781148	0.3825154890893255	0.26741892031863707	0.23377650917158135	0.056450199193290466	0.3009529702217647	0.5363701568412912	0.09864915882476447	0.21493744795892203	0.26944085887592534	0.045733768377470424	0.28897079752443194	0.14460709654537887	0.12008973180730291	-0.1010385898184876	0.17554774836087694
-160	1.0656831237589937	0.8447689988742434	0.09277760959089333	0.021841125507643513	0.4180756498748651	0.24286079345421824	-0.058039173337313746	-0.1267181631703628	-0.028546908798265377	0.13787119055747968	0.24254989562785476	0.2784831814887463	-0.3555171480739631	-0.02681816921317728	0.13846281135886532	0.1738287653110559	0.34035298142332987	0.28206235099150484	0.3665140857979685	0.04221970577309375	0.0900039968602404	0.18561203730927536	0.010909550795727306	0.1389346566268772	0.275528400440756	-0.048361211893051655	0.05367886634029443	0.23270316363233726	-0.01891759778253322	0.13567326928693638	-0.05058377223356678	0.09639056747657358	-0.07980046401141763	-0.004492527328264936
-156	0.9332700944225891	0.730252264086466	0.016180243302263666	-0.2638965838445284	0.12135072766898737	0.033780984495228025	-0.1654398735160966	-0.16703830617216378	-0.15611925681752195	-0.1701118643757304	0.05209414647778126	0.2685281627551065	-0.36516427901579296	-0.28366196083930334	-0.17991915299766736	0.051502693314458635	0.34154143843250584	0.2931524805773813	0.23625098109202305	-0.20472118206789128	-0.023293755889732468	0.17483952597344385	0.03272012612903284	0.07369649391641227	0.07200286519229852	-0.1389095034668455	-0.05290710167640089	0.2449814671053277	-0.0054725361849780165	0.08244251439022225	-0.16396310884086998	0.13051927056738213	0.04312431056340475	-0.04337593529597907
-152	0.8012509921825106	0.5866487011403144	0.007971540073295732	-0.39869803089569744	-0.037077315058080214	-0.08281645902943775	-0.18104976369923484	-0.14704610370226875	-0.14673621915486387	-0.2814275615262496	-0.010889999540967766	0.31787279167982446	-0.28478398847204484	-0.3888745000081002	-0.31366306464157906	0.01803900296902041	0.3631409099470337	0.3405574849590379	0.18153479649487	-0.30145132465547353	-0.05420418442511544	0.1780124004161167	0.10929156812254097	0.10584794703224006	-0.033120460724656006	-0.1747405524610442	-0.11156864436114615	0.274708210728395	0.056956130867447226	0.09131237841440164	-0.22348758521875284	0.18211577786719008	0.18125301553740575	-0.010994719313638287
-148	0.6748853904851041	0.43470653781810564	0.04157897446982749	-0.3593136063087017	-0.06197343005984454	-0.1183042150729193	-0.12541712788865156	-0.07845228890638868	-0.04644951957657771	-0.2204517269529115	0.026902994073059096	0.40014433759752077	-0.12825019625231784	-0.35132446796408046	-0.277209132209889	0.056464839584126465	0.38342040680402073	0.3940038075036186	0.20260959812508714	-0.2534690492906247	-0.012774573606782526	0.1721765841666982	0.20406791516280234	0.19978925535304828	-0.03480772292766575	-0.1651357110145757	-0.1330315467336772	0.28909096048799576	0.13172385063292913	0.10521801534552178	-0.2674384110374294	0.21637552921978706	0.24625079271609848	0.003908656062003111
-144	0.5487655983421307	0.28924220727373146	0.07205633055852706	-0.1945184017277069	-0.009822288503285861	-0.10909744324557823	-0.04231817264601409	0.008208766558902847	0.06291487052053372	-0.0793922914050263	0.10409491482917703	0.4753324079433489	0.06186492352959519	-0.23767979383064894	-0.15103454849734416	0.12648139862075153	0.3862849166177267	0.41389152303148613	0.26358407669276	-0.1200939190335878	0.07096280139649686	0.15261742434116424	0.2789645187964147	0.2997086338582529	0.03601167714444417	-0.11984387009880576	-0.11958728700485671	0.27586105396240757	0.19125850450388168	0.08076161125773594	-0.313748329085715	0.21653798167871224	0.1936120982050241	-0.04804820555238455
-140	0.4182735372950198	0.15900880058197034	0.06471016241663582	0.0008984083519917644	0.04549573350387058	-0.09273850149343882	0.027458939631991582	0.08192635306893176	0.10454595062563425	0.032327104278247094	0.16079209704334166	0.5133179413233205	0.24092793403832188	-0.13494017686153353	-0.03712406372591758	0.18859817040033838	0.37332031036536395	0.38141950868628505	0.31010728996183584	0.0203797667704073	0.16573579567549807	0.14093734288395166	0.3170402340037038	0.3564843228399691	0.1320474442485977	-0.04288693506618608	-0.0589876732231007	0.25284728344022	0.22946324886562253	0.012935657021526473	-0.34448715957451315	0.1875898982318635	0.0463572702131498	-0.1467316444983889
-136	0.284995465751174	0.04666749376197098	0.01282607481370616	0.13202741708800375	0.048922512556774655	-0.0911470872842762	0.06566295756212606	0.12746222285037662	0.04269095499465939	0.04111083586565321	0.1670917715383923	0.5093041645542795	0.3866281499637992	-0.10484115007871966	-0.008516032227234514	0.22262161913931994	0.3632531156905401	0.31586280385378346	0.298966377218739	0.10973137589406697	0.25359827216017145	0.17373356179242877	0.3296036413930963	0.35091757685754854	0.214783787185079	0.06598875654964578	0.06729825569089375	0.2576318674735502	0.2616800063202175	-0.06366731210369793	-0.31721702137966123	0.14966143629912027	-0.11743279516850322	-0.21944738869098188
-132	0.1530512567470666	-0.0522722675076622	-0.06467840804221191	0.1455202397010324	-0.016418117988381078	-0.10962292524317195	0.07752432654596529	0.14872446618677793	-0.10382591161740426	-0.06276672317631854	0.12855322626559085	0.4799924480717354	0.5058101998910123	-0.153134181708901	-0.07918076942241367	0.22986867965836114	0.37622770572087744	0.2663024359178457	0.22310139182506694	0.13216209378253374	0.3311751774532765	0.27543970872955414	0.3437744370364109	0.30102235002810807	0.27021974256956127	0.20281016775424993	0.26410117678720335	0.3217612496835416	0.3123683325510369	-0.09760527288112622	-0.1978393490087892	0.12560220031021188	-0.20683601446382746	-0.19448775003920854
-128	0.020590530656446105	-0.15088024697357144	-0.14239557051469992	0.04653156536990389	-0.13394491340674805	-0.1482691761088106	0.07573769967507556	0.15766860504874053	-0.2762559645353699	-0.23390617907596284	0.06895399076218721	0.4434120643864736	0.6188074930780116	-0.23097383917667377	-0.20827411062585366	0.22014208082408512	0.4121839691722719	0.2781923406252991	0.11605059326197402	0.10946303578396566	0.39827763933715804	0.43187987695373653	0.3776975562573276	0.24943536457027896	0.30662262362313014	0.35014375955870575	0.5041435348180108	0.4445824313860059	0.3977345218153359	-0.05330728726041249	0.007102178391764348	0.1297585662903568	-0.1671112175537012	-0.05564416930931819
-124	-0.12592583862936396	-0.27010255983822873	-0.21052525884404702	-0.11503786564631344	-0.2753567688665586	-0.21421118026532873	0.06067385509192661	0.1574955131607498	-0.4083664406956584	-0.40811476008372977	0.005191062098301347	0.3974470188119877	0.7334436755736172	-0.2671533220221885	-0.33248585378625584	0.19490350733662842	0.43905153759732723	0.35596415310632756	0.03244946516308145	0.0757411567444638	0.44382905848026943	0.5835273251105975	0.4209834028582464	0.237976341838819	0.33770799551577746	0.4750427591727942	0.7264070492524243	0.5840157851732986	0.5122898208081855	0.06591317786026141	0.24322168467626087	0.1621868159252421	-0.009273793524931488	0.14025270903462886
-120	-0.3068523101211922	-0.432104258638427	-0.2834540002342071	-0.27797752548607096	-0.42228996647074657	-0.3227517894702405	0.012908075903548871	0.13362832333682287	-0.4578177321319326	-0.5411345945047381	-0.06666019542076473	0.3133521966175379	0.8276895859802005	-0.21044464356219184	-0.40404903786689816	0.14063115382451352	0.40130609172590476	0.44821816569651346	0.01642783913339037	0.05150107281318289	0.4423659432686619	0.6468244178653689	0.43561342248607354	0.2843202941391854	0.3657489409749186	0.5392074571347258	0.8561426379522782	0.6727482063474335	0.6283988340724725	0.2178458863957165	0.4306850124452634	0.21020694023942774	0.19671250830099424	0.2926237575772361
-116	-0.5365543947978267	-0.6495868547251546	-0.38947173854724176	-0.4026492227878823	-0.5746425375735201	-0.48603314038589085	-0.0956342739432505	0.05986974000716291	-0.4215193976250358	-0.6277878268604227	-0.16598965185695555	0.15082257947989686	0.854897973763221	-0.060348678227885165	-0.4131276299059734	0.03753986572682091	0.24737383362779858	0.4678932118523593	0.07555599491593654	0.032786283559276194	0.36564415600966804	0.5554109797760057	0.3778555979725505	0.3730169823288678	0.3765108277828458	0.5170957433042915	0.8391129353318524	0.6524661762930499	0.7089450341445341	0.3435889473823382	0.505757807408387	0.254979073357552	0.3601750126328208	0.317180751953407
-112	-0.8093905428478427	-0.9150738096975648	-0.5483887181741675	-0.4851573991447395	-0.7412048559548705	-0.6964995247422097	-0.2783807211046361	-0.08295925685679786	-0.3292809120447748	-0.6924375278156671	-0.3073779932844615	-0.11312466831256272	0.770785389384673	0.1306935098447819	-0.3832010319094788	-0.12158905684052004	-0.03779985746138445	0.34072694096370654	0.17632199779339328	0.0013752668129948318	0.2039051795818152	0.29971116705564943	0.2294853174852949	0.46567693235127156	0.35041367919188965	0.41259708896416714	0.672557769507857	0.5078335391574493	0.72697740609684	0.3995121409343067	0.4579619753719249	0.281376569752773	0.41853320492932816	0.19991144487452933
-108	-1.091788289174652	-1.1943086355573533	-0.7504760007984065	-0.5465611801653233	-0.9205771065357821	-0.9178619361591839	-0.5147322403309802	-0.2874707870378016	-0.22244195583925933	-0.7603635172720086	-0.4806768584036409	-0.4600306737729214	0.5659713134781338	0.2849572591739694	-0.3463138929206549	-0.31659826556381016	-0.415040670777532	0.05417558537156635	0.26338753037710944	-0.05373043925905613	-0.018299836619189276	-0.06017699449962371	0.016884928526567308	0.5223167525455653	0.28066953945823236	0.26171368294443054	0.41146343842572375	0.27858281065223683	0.6797814948085275	0.37819814586520983	0.3359827390771096	0.2842645041918165	0.3676714887872949	0.007782576586028487
-104	-1.329267975312134	-1.4309056961172297	-0.9516914462857171	-0.6072472914623008	-1.0884690257247802	-1.0937421294254561	-0.749653754725806	-0.5130884634415146	-0.13112360205923404	-0.831939099118733	-0.6480510814517495	-0.8280016758994564	0.28149229217031224	0.3405976584895151	-0.3178873352131129	-0.5020725714405185	-0.8015061596661498	-0.3254897586234078	0.2909572713181684	-0.12175170301454025	-0.24551412401201814	-0.41900280012200547	-0.19721698711193825	0.5209692703445301	0.1830811048892127	0.1163498905343774	0.14299778604166763	0.040243450450620166	0.5883210286545553	0.30629303974067673	0.21770480220188934	0.26806247166665215	0.2574467652496676	-0.150458901740718
-100	-1.4671946726949205	-1.5640070398897628	-1.0904577942973348	-0.6652733070743136	-1.2021977871106164	-1.1719349593137927	-0.9151477194568997	-0.6984227878103214	-0.06308913214967521	-0.8772125221993138	-0.7613168339581393	-1.1348322601276828	-0.004549357562947064	0.28424748706577607	-0.28817927764613555	-0.6268928631213797	-1.1050887079948313	-0.6804155690180472	0.24730966922785988	-0.17369168952957978	-0.414817958022891	-0.6761896593187862	-0.34639179619117966	0.46436023594918513	0.08874693490510117	0.017536671787928025	-0.05792578295149545	-0.13630078698554737	0.4830892371855446	0.22335037532682633	0.1620795871695619	0.24146571694445007	0.15780095716213013	-0.18974344384448358
-96	-1.4758139811448385	-1.553424592864479	-1.1168948383742645	-0.6937601548798937	-1.2213482825914408	-1.1315761776011137	-0.9634260510916004	-0.7881031016479263	-0.008096700513782307	-0.8545345046402983	-0.7893041352371181	-1.3149303164661919	-0.2126537854070858	0.1569887842744712	-0.23497363865655022	-0.660416959048855	-1.2648689714921817	-0.8987879134374132	0.15782345791547603	-0.18268790794978337	-0.487228004894364	-0.7835483531242696	-0.39894050259003155	0.37093794252202883	0.022489014956200204	-0.026722220636492343	-0.16709029632343786	-0.22369615677145654	0.384228794796746	0.1558337654709298	0.1722814287365934	0.2097882474132601	0.11554315657054048	-0.10113517914510226
-92	-1.3663567270114014	-1.4002528155259808	-1.0173315976206936	-0.658438442475176	-1.131531474117645	-0.9951360796599167	-0.8902619458609777	-0.7578976135192317	0.04840878757533319	-0.7394216041969827	-0.7362706046588872	-1.3477258648224169	-0.29885291977769546	0.032236851670414124	-0.14661700986561407	-0.6083223208327556	-1.2747838464976666	-0.9301851964353827	0.06659364683504103	-0.14621294997970186	-0.4675812709447149	-0.7630951981351679	-0.37631243372321177	0.25885546142073257	-0.018068337767401584	-0.04432162631288808	-0.2196349049029718	-0.2507503920423159	0.28988301680809375	0.10388310227392186	0.19470979224159748	0.17116269426046743	0.12928651240608874	0.04221298534941229
-88	-1.186674591883085	-1.1499876946978784	-0.8188759067841607	-0.5428516851070924	-0.9546652412153428	-0.8154912570391355	-0.733287988241857	-0.6232904180048953	0.11278004915850268	-0.543282388269152	-0.637601731597913	-1.2599613634723457	-0.2713655524555081	-0.021337760558495917	-0.03714692210713123	-0.5067512380203503	-1.176028129469474	-0.8081337193112821	0.008726193547569061	-0.0930951533351325	-0.39949789542424136	-0.6840701085939339	-0.33934569273149134	0.1343348767942065	-0.06652083976163171	-0.07961622605488206	-0.2828797392855684	-0.2805818908283115	0.18011715962711128	0.04803637403042651	0.15493054648860635	0.11793857038046783	0.15665927489782358	0.12966316905663466
-84	-0.997622248991866	-0.8739854075300323	-0.5715040550107958	-0.3643757691720501	-0.7386600356526103	-0.6447017772609869	-0.5461220727483715	-0.42641043555366615	0.17886117055557532	-0.31016760986219627	-0.5351972566443622	-1.1017760010558684	-0.1758105601401893	0.026780512116290355	0.05763541147462465	-0.3982666124779024	-1.0242719624408174	-0.624325393054162	-0.010623058277369991	-0.06892865878822162	-0.3374375096384697	-0.6140143259758554	-0.3480495801721321	-0.008490472079238724	-0.1690755184196372	-0.1625929172702327	-0.40868684546283957	-0.3662205627255132	0.033988982353227205	-0.030276682151408687	0.009194483026000047	0.04325748969123852	0.14756087921557173	0.08107431957517991
-80	-0.8425334074682971	-0.6373003705146895	-0.31985220232317285	-0.17053307549813343	-0.5325489030743886	-0.5033556806253587	-0.36514630821543853	-0.21065233594638733	0.23173423052931483	-0.09419565624058383	-0.4490350473510977	-0.9127803421816877	-0.06008266269892422	0.1534918244778116	0.10057526056407648	-0.3056401304634555	-0.8529372193736401	-0.4713449764272321	-0.01901838551130364	-0.1082015630851242	-0.31308519761194065	-0.5743912443917815	-0.4194174696346609	-0.1780034448182618	-0.3536114683760157	-0.2858903698855723	-0.594328938414167	-0.510844050548164	-0.15160807928908612	-0.13004915383406437	-0.22067046109752372	-0.05227868618283025	0.08077304789892334	-0.10328409049660274
-76	-0.7260040026454707	-0.46833202124608786	-0.08231707641560915	-0.016370709944162544	-0.3614904573373701	-0.36953839566391383	-0.19013330292381392	0.0007977650946353643	0.25526788766308195	0.06822133047045789	-0.36369925645555745	-0.69993579210948	0.05723999798747333	0.2935772232749783	0.0770651472649362	-0.2202755952280449	-0.6556491239206643	-0.3898603608301961	-0.059731289593570124	-0.21052572078004286	-0.3167509726633391	-0.5284886942871848	-0.5106406795007037	-0.3728420426968937	-0.6051534399012726	-0.40469810264454104	-0.777123151247639	-0.6586860997735925	-0.3541583409904492	-0.2273845219831679	-0.4520188260586981	-0.1581706549704161	-0.01987321669806256	-0.3408858767485988
-72	-0.6148956402512792	-0.347466408329122	0.14899636767439559	0.06406650676049265	-0.21776267831182014	-0.19643521259303803	0.008568244033280784	0.21032369083708674	0.23907461702067745	0.17352601841984486	-0.24084113477458688	-0.4416055966195043	0.19458255122648446	0.3702602973172883	0.0058388882169231205	-0.1131366562967129	-0.39916273850751555	-0.3498863569008931	-0.16671179192890856	-0.33693820153044685	-0.3059421173954476	-0.40977936879649174	-0.5394928441731899	-0.5766891226513607	-0.8647326805216854	-0.46115827443993535	-0.8672038294831893	-0.7232807260372035	-0.534461735329691	-0.29034176395544936	-0.58380818219607	-0.2577899687934178	-0.10007979695563197	-0.5135816918757857
-68	-0.46304917218601577	-0.22348955217202546	0.38773265383102096	0.07381305079897627	-0.07440432142307472	0.04954822348959545	0.25887644225564055	0.43113979588375145	0.18037989690061787	0.2438222312731791	-0.051968861240070004	-0.11568776488898108	0.3852805485534747	0.3266072861054801	-0.07211256754073066	0.03752483045521428	-0.05885640144389493	-0.27715724636674305	-0.3471075287638355	-0.4309650946703558	-0.23698253869782682	-0.17380729273782977	-0.43238735089807295	-0.7647321204905017	-1.0557997200058706	-0.4201669384361745	-0.8007945994186176	-0.6381371005159339	-0.658581135994408	-0.3025702230443722	-0.5531184063297981	-0.33816206369852997	-0.11188710452679643	-0.5353087769344554
-64	-0.24583721098820743	-0.04920659201834724	0.6270388945007107	0.04769501823065969	0.08752780385568514	0.35327699691270303	0.5519142136944412	0.662753341908862	0.08275756964054834	0.303560941645005	0.18937434208264387	0.2665168934292061	0.639793036752903	0.14716099165478325	-0.12003984271975186	0.2199744725633999	0.34541115077548845	-0.1090720963704515	-0.578633128135802	-0.4521261144190229	-0.10017379348020544	0.15843401809269123	-0.17332224504103347	-0.916629133294407	-1.12397157862129	-0.2953562431030978	-0.5834851846268476	-0.4013868858216938	-0.719311831565565	-0.2797355644792825	-0.37348893190500776	-0.39963602918815955	-0.04958658652899215	-0.40201514857836257
-60	0.0155245931427123	0.18270680262212946	0.8268624523267407	0.0296702719475755	0.25630634958405935	0.6420332773211299	0.8285163024011478	0.8755840637035168	-0.044185414798759017	0.35707300811260695	0.4187605966485722	0.6453140361705739	0.9197201109553652	-0.1364085223807069	-0.12932962146531368	0.38377198480034075	0.7390862088616783	0.15693514009430878	-0.8196597674656227	-0.40032046932238735	0.0653460545678166	0.4960483002059572	0.17751087203508162	-1.0253434155325947	-1.065699932268778	-0.14706285260740834	-0.2950954429805416	-0.0852006373638533	-0.740907309568903	-0.2648383372296019	-0.13056579199251186	-0.45613145713084946	0.04121714074934172	-0.19351498733776898
-56	0.2559878521655062	0.4255774308427108	0.925791261242924	0.047058191031616355	0.38746073744224213	0.8125317076195752	0.9989873145630656	1.016667005833126	-0.1836662436854954	0.3822247674351675	0.5445638881285874	0.9288580990228091	1.1431370944725598	-0.45785203460491425	-0.12543800441543143	0.46073555830025553	1.0178332303098567	0.45219495778356467	-1.0253559325079658	-0.31620117942131903	0.18740789544950137	0.7174706440931018	0.5070490824295409	-1.0962656708695855	-0.9292962527654468	-0.0524015909600468	-0.052468661086410975	0.19580331395304712	-0.7640524487278438	-0.30456891579025674	0.06153336524328859	-0.5266486393029693	0.08684910066850252	-0.02854831323270435
-52	0.39677506585080885	0.597833274285599	0.8741180874689674	0.09661237126038401	0.4254450191246766	0.7821775059025415	0.9873294805394592	1.0343188021295018	-0.3116536132573397	0.34383654507611006	0.4936256098205334	1.033681747687751	1.2213940589585128	-0.7388628106536242	-0.15240776500369616	0.40077882903955286	1.0952284308438227	0.6698688847795383	-1.1604173154143442	-0.25744953686564265	0.19855813631948205	0.732061086236898	0.7023426276594336	-1.1373655767335304	-0.7877273539682108	-0.0646843014514492	0.04892578708693874	0.3395852139959165	-0.8197401741312217	-0.42091891063276227	0.11820973426060825	-0.622056244233292	0.02813649170447488	-0.0005708474185806404
-48	0.3870587935212141	0.6258357151443125	0.6690309626854014	0.14920805356978092	0.3363493076415528	0.536579607562503	0.7752798180079692	0.9080260969124716	-0.40266051786803875	0.2176489973533593	0.2533350580495079	0.9270557141739967	1.1055771084528878	-0.914868948533989	-0.2456081652400751	0.20115043172118605	0.946925280087576	0.7227657419076443	-1.205921766097491	-0.26599144868451524	0.07320371996755645	0.5290808068268886	0.7052916866615399	-1.1484980554194129	-0.6998211723778662	-0.18594305170319975	-0.018259791611227063	0.3053770057597589	-0.9077110267609844	-0.595642922804923	0.023854885190102176	-0.7339510303086644	-0.1427739706011011	-0.13101747598947938
-44	0.23417369962220055	0.48772099491005655	0.36901837494188383	0.16954815344919036	0.13216796484002927	0.1459791060576772	0.41988250507202446	0.6652169806851431	-0.4401690054747549	0.009459302736778205	-0.11451835901434336	0.6465352757342935	0.8151681998652685	-0.9558269357390822	-0.4090694774790092	-0.08853100962936689	0.6256893261371137	0.59177011102042	-1.1604800195004896	-0.34544324787661895	-0.1578948493785755	0.18499243212723832	0.5384585247750139	-1.1185235948932846	-0.6822959763466737	-0.3684366634126671	-0.20424324222496648	0.12892097202176536	-0.9936686133092516	-0.7776777724658737	-0.16784797566474846	-0.8336848595551517	-0.3740077903364676	-0.36447581556805303
-40	0.004568832914916965	0.23314027429369397	0.07528371344870939	0.13787330652236388	-0.12938615647074042	-0.2618631713931498	0.03100400410215378	0.3724041869774792	-0.4269988526054032	-0.24386212168159432	-0.4990850674426291	0.28292688655946674	0.4318371702258628	-0.8741755463463857	-0.6123123153485912	-0.39055761596301825	0.2362494313712628	0.3360051504234886	-1.0392692062841786	-0.4630695569744775	-0.4255137134776068	-0.17662286713829864	0.28819319533065546	-1.0342876885050076	-0.7093967181415016	-0.5447102175311415	-0.41540872945809076	-0.10333047036070149	-1.029330131792976	-0.9101744867233316	-0.3695618202892514	-0.8846997000292264	-0.5803681001315437	-0.6041593536382185
-36	-0.20602177031476782	-0.03436229741838384	-0.11257878662534612	0.061603605591688745	-0.3699409356313881	-0.5595678672967912	-0.2801999740678774	0.10428396586076606	-0.3880386938788475	-0.4906794416436913	-0.7926823476805237	-0.06393915398667097	0.058511268199775	-0.7187082749340933	-0.8070427158960678	-0.6389313324055608	-0.11688482731872475	0.058220874371162475	-0.8729114510431808	-0.5733470306225978	-0.6613049490444768	-0.45025643592642894	0.05587791637379533	-0.8959597326546062	-0.7380236964665948	-0.6680778844178492	-0.5700129852208592	-0.30462890786507174	-0.9838315223650022	-0.9620475148707156	-0.5105157481655699	-0.862383959500241	-0.6901050788622054	-0.7657837252356188
-32	-0.3172992757892436	-0.2046979958611322	-0.14317369424911688	-0.029057390914510216	-0.52670097218095	-0.6783620101967854	-0.453940390394438	-0.0920003277720817	-0.36019340066568756	-0.6875030977057499	-0.9411916709025281	-0.3319902113638774	-0.2322842025852688	-0.5556250200548538	-0.9518447494316924	-0.8108745792897136	-0.3788265576334902	-0.15255521199333702	-0.7032297831900306	-0.6465974433786373	-0.8338382223057716	-0.601118145855522	-0.09446989721050301	-0.7274705749264664	-0.7399383764658806	-0.7383838277294185	-0.6430010183312599	-0.43253114710323054	-0.8671400525134406	-0.9450575685482546	-0.5717543349135757	-0.7703322152715898	-0.6840077025310116	-0.818373380025328
-28	-0.2995792023724499	-0.21287114864487167	-0.036870047356977693	-0.0967554149569032	-0.5784954414067185	-0.634836314505896	-0.5056470619786739	-0.21620018725646176	-0.37180983926360195	-0.8138058761077217	-0.9642833446952404	-0.5198621140706225	-0.42915928255447744	-0.4422155905525956	-1.0286978457227949	-0.9309253073076901	-0.5628279433345502	-0.2666384869042409	-0.5728769287904412	-0.6838160735985426	-0.9588261222473181	-0.6749366504794815	-0.16288366872671298	-0.5724968895763128	-0.7198141199058191	-0.7966943959148706	-0.673372147767367	-0.5028819429098801	-0.7301292997046048	-0.9055147744204906	-0.5863561615444953	-0.643253503605891	-0.6042866095544926	-0.7891192416294917
-24	-0.18060128345191592	-0.06755328161350198	0.12692752448460778	-0.11340916873193796	-0.5472850785742926	-0.5127252923418151	-0.5081864582582734	-0.3074195973264097	-0.42218118799430615	-0.8705900885536193	-0.9352656579246309	-0.6740409714847031	-0.5766400680288345	-0.4028954495748278	-1.0417237255498322	-1.0456116173094252	-0.7292165737814638	-0.32325827993794065	-0.5094614016068	-0.7083848100897047	-1.0781590911347214	-0.7615876774633149	-0.20323750325388817	-0.47569051264825535	-0.7077552062285317	-0.8929323531494626	-0.7331022005645612	-0.569499908439928	-0.6396723373475375	-0.8965528584732686	-0.6103106125681531	-0.5333977328184918	-0.5290738926881121	-0.7371284347043288
-20	-0.022203240487546103	0.157825365264104	0.2518077784379617	-0.06943082046860585	-0.47627842306051305	-0.4118183840844651	-0.5449262843679068	-0.415871738337537	-0.47495654105434426	-0.8666002132470728	-0.9329689717579441	-0.8504326918111463	-0.7397390585342549	-0.4197347451579993	-1.001492855404518	-1.1850365370395035	-0.9390323734417017	-0.39992296594738386	-0.5115529881913325	-0.7413631658909943	-1.2219266860628808	-0.9352609491577055	-0.2849289171654503	-0.46008777502247206	-0.7324325423822003	-1.0470117304116642	-0.8778912998923022	-0.6848993880146002	-0.6424819810858662	-0.9475144719996932	-0.6846721751092901	-0.4875212299435962	-0.5284539447793685	-0.7159583550496788
-16	0.11730552435106789	0.36531087663924794	0.2719713442611533	0.027439808403712133	-0.3995923091813272	-0.39314088126106156	-0.6603342278021157	-0.5703152999783967	-0.47277489185178356	-0.8040642718041614	-0.9935597752281665	-1.073933241040105	-0.9595722531887326	-0.4427199054507669	-0.9081394649465482	-1.3353898491522684	-1.210982915681881	-0.5603972063221021	-0.5456628189615367	-0.7777880410584297	-1.378383036948079	-1.2065944641167277	-0.4495479155157727	-0.5140019046203913	-0.7941609600997337	-1.2280844418990797	-1.1096035214065894	-0.8671442248385643	-0.7378921490159076	-1.0474199030180555	-0.8113480785866138	-0.5249224291899875	-0.6269702895547475	-0.7467411737662101
-12	0.2110751265918729	0.4802080082690214	0.17990390910980456	0.15921160538530657	-0.3231157056279979	-0.4511466610962242	-0.8365720489361375	-0.7606217245925236	-0.3681868007423995	-0.6755337698093338	-1.089831349482327	-1.319778319841403	-1.228303190944853	-0.415719984912322	-0.7466595750077186	-1.439662452877653	-1.5061997137188787	-0.8116173723710292	-0.5584564194884706	-0.7808713297202313	-1.491813536692212	-1.513502474778322	-0.6857858878941064	-0.5953043684234536	-0.8564991929364244	-1.3654766048288702	-1.3715187276544967	-1.0901590558184748	-0.8746734239429376	-1.150386449770419	-0.953778860545126	-0.6261741503164927	-0.7911416272216146	-0.8131839612457055
-8	0.2668315165458586	0.4807077634118789	0.02037036972565316	0.30483660024926723	-0.22796001972818247	-0.5270605073973275	-1.0084888909627214	-0.9452152824379322	-0.15436121782431042	-0.4743041086142801	-1.149663922268276	-1.5274940690575718	-1.4959465227505029	-0.30790272277341685	-0.49888440840649934	-1.4275399410445508	-1.7497695640255548	-1.0949735613834066	-0.5015535341951248	-0.6996895653225345	-1.4914208612934232	-1.7552154019863537	-0.9353597736584937	-0.6515775902509818	-0.8629556872514832	-1.3861972058584038	-1.5783346851554079	-1.3006792035642452	-0.9742916797834972	-1.1999310224755313	-1.060374376480832	-0.7393957357812154	-0.948700723637018	-0.8785151221029465
-4	0.30637562197580454	0.3960163583293784	-0.1426936086389856	0.4432407904401439	-0.09355572587472971	-0.5531952963213642	-1.1065520020203727	-1.0777875157801298	0.12173647402783858	-0.21141701883344136	-1.102636692124252	-1.638245578444394	-1.7027584271355796	-0.1329637315492552	-0.1651937510372792	-1.2580401865667958	-1.8755340528819193	-1.3156187501116094	-0.35720726757462457	-0.500647126364314	-1.3350934948591935	-1.8487122012192911	-1.1229770155210788	-0.6449837072300627	-0.7691395859372901	-1.2576911417678724	-1.6619818168640799	-1.4476883374856855	-0.9681638454789001	-1.158098933157014	-1.0938612195054167	-0.8007689694214289	-1.026723263055661	-0.909571228115083
0	0.3365118197051226	0.27663814951670473	-0.2659642689665663	0.5523238764169481	0.07516282032824893	-0.5011022078260251	-1.1016601296267177	-1.1366047830495383	0.37369084263867464	0.07348114978596307	-0.9278309321819882	-1.6327751833700095	-1.8162099077146205	0.05388884977801768	0.21883311812463876	-0.9505149698101109	-1.866625900324149	-1.3927763665321007	-0.1504970636144391	-0.19401866148601057	-1.0416088077949952	-1.7742677882221256	-1.1917924850891577	-0.5676964507075124	-0.5708951339613078	-1.0103280518772675	-1.6057702262390938	-1.5049986801296868	-0.8289602377943142	-1.0229825947682913	-1.0473415825150185	-0.7593261580369568	-0.98566245783859	-0.891248223915586
4	0.33165016686629234	0.1565375324111772	-0.35033666999103424	0.607988236799633	0.23478461742728352	-0.4054693867459873	-1.025877115520566	-1.1389093370293155	0.5119445311018734	0.31691864052866897	-0.675654826842567	-1.546898837952366	-1.8505759192474227	0.18063928141286428	0.5836061224507916	-0.5857431277745282	-1.7671368077484915	-1.30389785437399	0.0605786478480092	0.1607808466666687	-0.6912547928523751	-1.584946509174359	-1.126989004150781	-0.43965202458960084	-0.31091907541930475	-0.7260887008454827	-1.4489951097144418	-1.4758279286316807	-0.5805158600455688	-0.8273888805480678	-0.9415843463013169	-0.595791040346816	-0.8329221585225315	-0.826900360880722
8	0.24070286690021825	0.030691053640841015	-0.43560385594061124	0.5867373332468716	0.31460261265480144	-0.35021585137637956	-0.9582585072165551	-1.1325511903778878	0.4826613056394601	0.4518681455170863	-0.4509763408242085	-1.4561525546502894	-1.8576605273075386	0.1931076491964024	0.8466711618981579	-0.2754126482208944	-1.658798809631821	-1.0979279251988847	0.21201099401828968	0.47545811413886285	-0.393107919892584	-1.376663681369229	-0.9570589041388343	-0.29354870245252535	-0.06030345320377602	-0.4998371588485061	-1.2616094318962243	-1.380589124054936	-0.2841251485326835	-0.6217291339435905	-0.8077318647972209	-0.3292376688750994	-0.6124147161280569	-0.7286318522176934
12	0.016290930989977255	-0.1390118297405053	-0.5721613154270746	0.47441273807910894	0.24855551060864844	-0.42440363657611263	-0.9832848285645026	-1.169617769149355	0.2906748943142579	0.43464043626721666	-0.36542057898768004	-1.4372856580685902	-1.896953339555746	0.07984690348016102	0.9447951292979712	-0.1150313761906299	-1.6165115792469478	-0.8731244184384256	0.26316460900621225	0.668766139249333	-0.23592872858085853	-1.2376384703860055	-0.7370902281271242	-0.15812924464356293	0.1141712290146285	-0.39478850265010546	-1.1066448660566983	-1.2416909901740527	-0.011216333107643967	-0.45254954581443824	-0.6696917993803577	-0.011714503139483476	-0.3808826496521485	-0.6092794522161423
16	-0.3529407075077293	-0.3961632539760565	-0.7886376361009224	0.2753367119036423	0.009551045460726798	-0.6744436604637889	-1.1469960183748653	-1.2786633936070124	-0.006078676770926534	0.2632295184642088	-0.4844716775106523	-1.5288615188145562	-2.0040094801851134	-0.12619589237299825	0.859719929908731	-0.14461488985266358	-1.6689567523780862	-0.731770453989707	0.21166320091690335	0.6989600044723256	-0.24924381014361568	-1.2061887949054106	-0.5246986137494211	-0.0508061571626623	0.17810888543460326	-0.4161727715952151	-1.0120879386144623	-1.0763128968721096	0.182655825749814	-0.3472831240469004	-0.5363365994263674	0.2865990691101624	-0.18510428024287695	-0.48069378612271435
20	-0.8271099308112233	-0.7578649501739773	-1.0741785737573812	0.016378477174415228	-0.37274596000975835	-1.0788047286452984	-1.4341406785996018	-1.4501659833534533	-0.32621171988142694	-0.022201586458657763	-0.796561656371291	-1.7123315291087853	-2.1741988604011784	-0.3685069968933245	0.6240316613654505	-0.3360825172522117	-1.786198611518114	-0.7345749121239533	0.08708766080803312	0.5764653668154389	-0.3951081027545842	-1.2588700024292638	-0.3605822017625758	0.01760215494062906	0.13788557017799544	-0.5165773021053441	-0.9664444899000502	-0.9000083185361081	0.2710321240734764	-0.31126230876537725	-0.4062755097622168	0.49660521620300996	-0.0511021091243861	-0.35779386668470053
24	-1.3271770443786923	-1.1977374523440456	-1.3845038379046104	-0.25814956361443986	-0.8214642980816417	-1.5587609966977465	-1.7779716208391172	-1.6425148207202973	-0.602099536329271	-0.3576276889354863	-1.2206040589986542	-1.9242619227463809	-2.3697769582045103	-0.5997092112658786	0.3034889094319758	-0.6131826027647594	-1.9013172340073137	-0.87674116866962	-0.07234299164626996	0.35077249915253156	-0.5948869570971453	-1.333777662724454	-0.2606009536362506	0.03225960574349968	0.026045581260129864	-0.6290925725312618	-0.9383633113057871	-0.7352340202842155	0.2534111135760493	-0.335939942942269	-0.2802720360832289	0.5675210938430258	0.012568445844508455	-0.2629257731952003
28	-1.767959351844315	-1.6533703762272525	-1.6657239156629207	-0.5017110096662238	-1.2450152604140727	-2.016771549855041	-2.0951662010700773	-1.8044694616535641	-0.8065079430244931	-0.682699380581495	-1.6458464819362508	-2.0911881870878113	-2.542518132466257	-0.8069270232808509	-0.0347720979766315	-0.891353902950506	-1.952042455513156	-1.0957832308759914	-0.24496626792094833	0.08052451888257922	-0.7744007687090411	-1.372479912153718	-0.21877412442762126	-0.030761582699238576	-0.12474434046244798	-0.7071942073133222	-0.9050140358009967	-0.6136530622247839	0.14324369990422883	-0.4100250293393133	-0.17040468709361137	0.47999426601339645	0.00601483693690426	-0.22255924287871998
32	-2.0940062946856766	-2.0529980607651646	-1.8810775232506136	-0.6840185505763334	-1.5755881031310923	-2.3797645508764376	-2.3247880876973688	-1.900056595773497	-0.9563364958459805	-0.9636055802812106	-1.9818749377757878	-2.167202467215107	-2.6580929689054154	-1.015763637839191	-0.35138791710828365	-1.1154826851338113	-1.9165940236339656	-1.304624554201257	-0.4365529406969736	-0.19573415766412106	-0.9009751654765686	-1.3539432253032406	-0.21675588135829973	-0.19687646577719617	-0.3019128136164818	-0.7473913412297785	-0.8695185758571974	-0.5658721313494779	-0.0424003786268227	-0.5251085744951511	-0.09766245608706324	0.25234293873972635	-0.0664410887471236	-0.25421550805758464
36	-2.300509447011596	-2.3466956556199627	-2.0255520292640243	-0.8052468279535194	-1.7956621601544993	-2.6258599691851603	-2.452187055118637	-1.923484082134026	-1.0953724356652366	-1.2024006813209196	-2.194880718411706	-2.155850643437005	-2.7096483639015934	-1.2710391250944626	-0.6482967717968933	-1.2785937753820906	-1.825348134200643	-1.431488391123083	-0.6715419275495147	-0.47385594129134545	-0.9939607952772028	-1.3034058776372561	-0.233823879962897	-0.4761452364820987	-0.5166327344248453	-0.78395032684762	-0.8585352279921664	-0.6040959939009822	-0.28643137144251024	-0.6738191826020538	-0.0802269724966117	-0.06323117746839693	-0.19331492434808548	-0.3527465453778637
40	-2.4310271678582183	-2.526692622481188	-2.122532123928841	-0.9000826455279554	-1.9401677797924042	-2.782207005152116	-2.5072634156820977	-1.8982857417816912	-1.2689505783468058	-1.429472204414001	-2.3125643671776936	-2.104505056789907	-2.7151696613424874	-1.6063526828263683	-0.9598602032269156	-1.4133032524666034	-1.741462464704182	-1.446923729104437	-0.9704931353861966	-0.7762564401101482	-1.1032330961983687	-1.2718718019798725	-0.2531718605325249	-0.8474016764226807	-0.7890753726110477	-0.8590394236810485	-0.9010408497949453	-0.7092721444342356	-0.5676117525075004	-0.8417509176936614	-0.11842904209992501	-0.3931458284465654	-0.3484703293585393	-0.48446270701163624
44	-2.5539302761447193	-2.6271591120194047	-2.207894796519107	-1.0270866129692946	-2.07357382250826	-2.898461572958577	-2.540933841012127	-1.8632389259979834	-1.503083225270021	-1.6830848412935269	-2.3973743855029976	-2.0754744954160587	-2.7051842144377667	-2.0201816507833206	-1.3258275952243845	-1.5622274836198418	-1.7215771631644219	-1.3682154382493845	-1.328350898249935	-1.1264739008119327	-1.2685861555495692	-1.298651930391263	-0.26474088363564013	-1.2552711931961014	-1.1237024040461638	-0.9861586069004477	-1.0011333201881407	-0.8336866476944905	-0.8537743070027523	-0.9994921062983939	-0.18601638031724954	-0.6612782461636849	-0.4877611982428561	-0.5959187134956024
48	-2.7314691474616133	-2.705608122670339	-2.3122632445130487	-1.2463746039393884	-2.254791015654246	-3.013490430852972	-2.5946960383708975	-1.853705520718098	-1.7960355236484296	-1.9864411303912124	-2.5052125390698436	-2.1106445736048505	-2.7092442444110367	-2.4710662302571293	-1.7608334973701187	-1.745617504480984	-1.7804790690291976	-1.2426989047146597	-1.7073310570526237	-1.521656032535141	-1.4852272234611603	-1.3807350362249777	-0.2657716267551386	-1.6252686936352385	-1.4907150230917752	-1.129990574844802	-1.1230018110532427	-0.9216936803435404	-1.1003034087057655	-1.102249619562058	-0.23470303356995317	-0.8097022155345863	-0.556580005671034	-0.6354680641342754
52	-2.9958031101883993	-2.816358082336401	-2.450707667839047	-1.5934556682410104	-2.5070767339351323	-3.1341044823672983	-2.680042021660668	-1.8881853771221335	-2.122345442181876	-2.331784957720597	-2.6524066858081996	-2.2087647859120523	-2.746927492835793	-2.8930501864823714	-2.23479532631264	-1.944064612248691	-1.8805935335362596	-1.1210886211700726	-2.0481996484542813	-1.9182535361496122	-1.6957880215745649	-1.467608686556485	-0.258731126132045	-1.8903809738115365	-1.825069899719534	-1.215484377653243	-1.1981385916023712	-0.9368532276342152	-1.2568384377218687	-1.0997345419774656	-0.2104770684888678	-0.8137968758063834	-0.5077569471891062	-0.575100658872107
56	-3.340139619023623	-2.988347045982981	-2.6221167975027164	-2.0590412564743943	-2.807115070885128	-3.2365248121563193	-2.777164213798271	-1.9643814514155358	-2.443010324032187	-2.678508990200916	-2.8086943555491093	-2.32790874847135	-2.82385372402585	-3.22183393618633	-2.6750476292782586	-2.1061661190263137	-1.9528286407757585	-1.034550306569225	-2.294407361913477	-2.2406206074411212	-1.815342064088882	-1.4856343231839484	-0.24779093202972252	-2.016405100499887	-2.045909876426371	-1.1633795470429125	-1.1535055608236404	-0.8793573357314963	-1.2801589933499404	-0.9545584892968196	-0.07659182678196984	-0.6851150972234977	-0.3222555510014159	-0.4231847215935333
60	-3.725244989526545	-3.2163019099094035	-2.814353935765533	-2.5843908721524085	-3.097180597115063	-3.2865772164336353	-2.851028673603236	-2.0643103070592357	-2.716392033394455	-2.966758243699841	-2.9177966044191606	-2.410175555819799	-2.9318303987868046	-3.417888871146661	-2.990426294406076	-2.176254028547845	-1.9361244391196293	-0.9857456063178417	-2.415023082357853	-2.410171264285386	-1.776631112381503	-1.3788528407570124	-0.23493298828891604	-2.0128545710288708	-2.088376039954408	-0.9338585710789709	-0.9472696757242187	-0.7834268192538795	-1.1486309737769265	-0.6619454605556161	0.16702690678387927	-0.462943224930195	-0.022206773925385274	-0.22006143573990763
64	-4.09422587314696	-3.466119519065662	-3.009783975631617	-3.075944892746681	-3.3124613678270247	-3.264145366056921	-2.8735592292714496	-2.163879150649401	-2.9071643279109702	-3.1406359593252953	-2.932179920422885	-2.4143409668047657	-3.0511877459738597	-3.476938477320817	-3.10712217500134	-2.1263134425838452	-1.8134502126684877	-0.9560161804857663	-2.4152002273616784	-2.3810505806888647	-1.5699145754278263	-1.1439362735476906	-0.2172670507906029	-1.9248387764970607	-1.9327969502287994	-0.5538548813187835	-0.5937128052026794	-0.6949075442889231	-0.8715150930335531	-0.2603023641690021	0.4777041065552961	-0.19829241881374424	0.3323684624386671	-0.01907609584581656
68	-4.388917435055523	-3.6905231382653327	-3.188444367941773	-3.436148634818211	-3.4103562745775444	-3.177713862979241	-2.8395955490898657	-2.2421386185304284	-2.9940633698210877	-3.171944848635286	-2.8422567772630782	-2.3391561449120695	-3.1548201958159727	-3.4254727277101553	-3.001451246313055	-1.9748204896658519	-1.6250309903124744	-0.9217920280071715	-2.3307373464866696	-2.165415758387831	-1.255311128308	-0.8403366782906463	-0.18773323250102525	-1.8113897993130939	-1.617743845669923	-0.11258874805157905	-0.16519007045047363	-0.643949328227242	-0.48930486913167415	0.17362357632193468	0.7791379074452499	0.06263913198391835	0.6625177247486598	0.134270161051305
72	-4.564942348398945	-3.8482196233865964	-3.330220929320882	-3.5993199257575617	-3.386718979867936	-3.0601425093637267	-2.768083088561799	-2.286959165521149	-2.976189128990972	-3.0727498453762077	-2.682057135486147	-2.222959512820184	-3.2150034823308946	-3.3059420502165313	-2.712406390017677	-1.7793130829710453	-1.4485627376223327	-0.8697304107641943	-2.211076492449185	-1.8333909465277491	-0.9369799471086877	-0.5660870656979954	-0.13827404344933825	-1.7216213898107335	-1.2285075156666272	0.2766100757290864	0.23463590383894437	-0.6274892671954966	-0.06442037953563069	0.5483846650583329	0.9883332227549426	0.2888047389845069	0.8985982514582167	0.21917281989551726
76	-4.603784549533788	-3.9202120205131825	-3.420543900436833	-3.5576894193471653	-3.272051802957125	-2.9491400644230334	-2.689266674881397	-2.2969534339132744	-2.875998251329501	-2.8895270751478828	-2.5082583364101763	-2.119986528766201	-3.2143545069602184	-3.1619973102845464	-2.32674240478533	-1.6053602654933636	-1.356755134018065	-0.803641317245903	-2.100537533225095	-1.4848638735475268	-0.7099565845684633	-0.4102092672958489	-0.06492901577053731	-1.67949151568767	-0.86401527901898	0.5315856324126055	0.5157020078990274	-0.6127203687456934	0.3361455789662249	0.7932097295761649	1.0503737899963765	0.46697816134807785	1.0058206294414431	0.24345539448783513
80	-4.520581234008993	-3.918338765741911	-3.4595305832302468	-3.3660166178596573	-3.1126232068630615	-2.8658742832306716	-2.6274344854775715	-2.281217330895143	-2.736093991047349	-2.681688540363787	-2.366601461157474	-2.0685241170156377	-3.1571504990022277	-3.028264753325436	-1.943546290259033	-1.489727135711762	-1.3769997323556242	-0.7415078263634989	-2.0256223627446817	-1.2065265148218554	-0.6088020190126968	-0.4070958782885117	0.027651430969162564	-1.6819835858794372	-0.5968462213706106	0.6445953233656868	0.6421855671881466	-0.5601514563723136	0.6590186936905994	0.8886280633425199	0.9647840237100895	0.596507368965918	0.994666633478851	0.23349492192921215
84	-4.36463259548671	-3.8829526803209986	-3.470320931255982	-3.121756068931068	-2.9473662301989965	-2.804821960997119	-2.590048068183047	-2.2580132427426682	-2.607268326852339	-2.4940924581500434	-2.2657599391952776	-2.0693495221344036	-3.0745551508526066	-2.9251770899351945	-1.6334699351077575	-1.4180328810175895	-1.474673267456007	-0.7054476720165233	-1.9914896437909417	-1.0340256664872365	-0.5857744202129563	-0.5156309591626345	0.12599827317374437	-1.7069576935586932	-0.4432613242402172	0.6910335404115275	0.6513819082026783	-0.4500957120021979	0.8791213013387816	0.8790233113030184	0.7936976531970643	0.6825396997385449	0.9133525467700868	0.22005757633916817
88	-4.210531700947799	-3.8719420335287293	-3.500782242519407	-2.9294538423963203	-2.7947425771724688	-2.7425241401094835	-2.570402377314679	-2.2528233471258887	-2.531795018479658	-2.3392701089925922	-2.1759040300746078	-2.088162178489494	-3.0194194240631003	-2.8600056099209037	-1.4134126865941348	-1.331990953897178	-1.5710045059594373	-0.7115161400950739	-1.9866225669294506	-0.9393395757800984	-0.533084987248145	-0.636221168819111	0.21215197390398874	-1.7248879627547566	-0.35815074949439213	0.7963648418347394	0.6398541315136435	-0.2962609223992146	1.006190416656696	0.8581548907548149	0.6443123205130078	0.7320042830105704	0.8264860489959344	0.22674398066970636
92	-4.141349782024566	-3.9449741740761524	-3.613925686295026	-2.8666975425822305	-2.658306115114594	-2.6615919999634756	-2.5626294548184347	-2.295537227556987	-2.5314464505178917	-2.20165895859845	-2.054825062332207	-2.0819244332202085	-3.04946994011577	-2.831525318626232	-1.2511452404858763	-1.1656680077686412	-1.5867743452064265	-0.7642891983762939	-1.9913010546953485	-0.8521618225517148	-0.3409280768369933	-0.6585452539983438	0.27078646353065483	-1.7087649063837203	-0.25909566813857093	1.0746897431896845	0.7215766292473775	-0.13785979116919517	1.0811004611376713	0.9322198605842984	0.6304623468693867	0.7559417467105102	0.7914468626067387	0.2663649611900572
96	-4.226796616373042	-4.147405613918456	-3.86774205184988	-2.966851226945456	-2.546371215113389	-2.575640910321473	-2.579538815661363	-2.4163021980315036	-2.60688995656826	-2.0630407281287253	-1.8866981220294528	-2.034099573721814	-3.2053534903661225	-2.8376927304148603	-1.0981285544326922	-0.8923281408669	-1.4887211285197828	-0.8575207569406506	-1.9873225638759255	-0.70547520936234	0.03752145534221239	-0.5168309794728677	0.29543101712977976	-1.6402883488249786	-0.06985368561989723	1.5677434166427195	0.9768498515261533	-0.015694795136761284	1.1620775431857262	1.1758015126106103	0.8288851359420868	0.7741436938767738	0.8417302348819765	0.3449190548294652
100	-4.504779804300353	-4.4998741036291445	-4.293182839044788	-3.2247199930790678	-2.492561334038919	-2.53956674888301	-2.6605658464016133	-2.639389031422121	-2.749829285354712	-1.9352970074429463	-1.7091799931288882	-1.976129526871104	-3.493744126082098	-2.884627811778294	-0.9331790185256023	-0.5548201189338391	-1.3126257624864146	-0.9781405901055057	-1.9673315236966007	-0.4818709778540562	0.549318371816382	-0.22437311652278388	0.29123198912524456	-1.514359112730871	0.23730651974368547	2.2152509633401345	1.415912505389703	0.05288941399810845	1.304209467456089	1.60079073501784	1.2495200602455336	0.8158536532784549	0.9827236508353591	0.4683609891033756
104	-4.973984228927493	-4.99644898106804	-4.880650984839406	-3.6177782921050015	-2.561253779620492	-2.6356868677351786	-2.860793583322845	-2.97469090664368	-2.9602832719449483	-1.8787200403464095	-1.609302159060987	-1.9785439918155696	-3.881730785106188	-2.9922304077895827	-0.7914329151198964	-0.25895357066578517	-1.1474568814871051	-1.1101690502747903	-1.9412035893066957	-0.2344204777521088	1.055951592640375	0.1325192597142873	0.27311870386786036	-1.3422175611940512	0.6217883809603476	2.8739237712779757	1.9757078836150275	0.08534408339172371	1.5399004182083775	2.1544420664752297	1.8351337863365813	0.9148088074475624	1.2005127638070703	0.6475506408554788
108	-5.598306164912266	-5.609625802182271	-5.580774293160876	-4.126021374775669	-2.8271598744539044	-2.9371826574555424	-3.2220523276042354	-3.4090988549945376	-3.2542521871420793	-1.987603420961398	-1.6842265086566723	-2.111745590600362	-4.307431686970239	-3.1902284541646857	-0.7574497442195202	-0.1272327002650873	-1.0867741080502265	-1.2382484643190967	-1.9353524397624475	-0.06715136749479625	1.395588275246925	0.43905565031780636	0.2594296329624043	-1.1506878108536427	0.9893020962533204	3.378820410780822	2.5508811409442878	0.12347288398563185	1.8668137741640065	2.746919386604124	2.4904596742694447	1.0979000302252002	1.4760409556315701	0.8970705844164805
112	-6.319023116370219	-6.297988398863512	-6.3192620117858755	-4.735811221563734	-3.3346824561803454	-3.465269079996154	-3.7397451306337346	-3.9013376137462608	-3.6534457114485437	-2.3436050355868723	-1.985479826682702	-2.3969533382933674	-4.701258647493256	-3.5022568614274268	-0.9222990847189956	-0.23464024007684084	-1.1739621132774856	-1.349427100589301	-1.9835148999679975	-0.08349308350463908	1.4622908793723404	0.6104355439032869	0.26350054078331825	-0.9766295527596197	1.2338021962486574	3.617322912620067	3.0412213725554187	0.20601351507148727	2.2463881912736055	3.2929932987996384	3.1248009125970864	1.3710111345008709	1.7947952702030747	1.2274775474075088
116	-7.067072373667367	-7.011188012541372	-7.017063599989917	-5.423866258278711	-4.056828011760667	-4.162272442799377	-4.3443226704586415	-4.383932102579096	-4.158837307920355	-2.958587400596081	-2.477669709625833	-2.7765939165585	-5.0062088839975	-3.9228088756702006	-1.3256225552468748	-0.5612623081341879	-1.3720464671780055	-1.434600826456106	-2.110934967433463	-0.3290399602688786	1.2607485024092622	0.6324522479301891	0.28684571312962026	-0.8563140013055748	1.2856148448910365	3.5787408261543674	3.390068760895855	0.34100329789850986	2.6129240923715065	3.745457878193164	3.6849942114299266	1.7091448263885596	2.147089952770037	1.6344921547630744
120	-7.769837359838613	-7.6906609341046765	-7.606078605521839	-6.133118137133773	-4.877880560957241	-4.896421896969999	-4.910878645895901	-4.774516093597361	-4.7233261942820235	-3.7391936684616653	-3.036665193520291	-3.124936811186831	-5.1913151609959725	-4.399353016236452	-1.9148505877786872	-0.9894286965185037	-1.576482768846912	-1.4910522661710628	-2.3172662199642846	-0.7598448972591273	0.9066467858312067	0.5621013627165726	0.31608012238808586	-0.81277406010462	1.1407220334816481	3.3542981063078225	3.5935768990386627	0.4935528325494464	2.8896839545725355	4.102504243029624	4.160744656548352	2.056620115809731	2.519752257661064	2.0901617951073703
124	-8.352980592619247	-8.268583276853326	-8.03516099808475	-6.761088831043906	-5.616236672526909	-5.501220689235753	-5.298293100331592	-4.995690809988411	-5.244896875490818	-4.499995697104179	-3.4940926940438644	-3.2995669758460298	-5.253986822214695	-4.834587561798966	-2.5493266518124704	-1.3525257076447712	-1.6677005248879717	-1.523945208516605	-2.568744414519793	-1.2570422856064858	0.5693315849235073	0.4866074609391741	0.324252008573127	-0.8488018491295644	0.8537412264249855	3.0857157629307523	3.6768176462802824	0.5955713376267285	3.005146019024064	4.38590191687466	4.561030376362924	2.338636869248097	2.8849368022560298	2.5420699055386775
128	-8.743222214558786	-8.67084691719513	-8.26908777056543	-7.176434498787983	-6.08425711049322	-5.835409149695719	-5.403623090452622	-4.998566138045117	-5.591180787275227	-5.027914511384106	-3.7091979886820505	-3.210384360791043	-5.213287817190497	-5.113852488004291	-3.0528163832835906	-1.5135568342142198	-1.576889391732543	-1.5459636410782014	-2.806054346629383	-1.6818878608201697	0.38565185568716553	0.4635360527256343	0.27655842830451893	-0.949418184744368	0.49993318193099684	2.889025204040141	3.6530606654442668	0.5728887305100769	2.9060559199395253	4.605584132964303	4.877475726210948	2.482251876286017	3.1958238997834933	2.9214205668123547
132	-8.877882935043996	-8.82837865507865	-8.286536195814348	-7.263375740786495	-6.1604828678996455	-5.836676582859023	-5.206731783118914	-4.78179882749621	-5.64970491890237	-5.170676695166732	-3.632290354141116	-2.8701300548568898	-5.101167189116641	-5.150188433041946	-3.2907550251846844	-1.4331173860606814	-1.3298054899973613	-1.5749157627397234	-2.9669523164227396	-1.9428533266606238	0.39014482399666844	0.4763311731710061	0.13821671868237026	-1.0932823391968198	0.12852568891977414	2.793491356472503	3.4925990016495643	0.3741730144113678	2.565276139458359	4.733626353710363	5.059139238935885	2.438720696967822	3.3941986475126256	3.1577167431261643
136	-8.720622994339966	-8.695906617144068	-8.082011202434238	-6.973301393069155	-5.839222893277399	-5.542918191266708	-4.781041610090895	-4.395829189646227	-5.380070195919802	-4.90486429883467	-3.325392476269108	-2.396061175972622	-4.954609858401457	-4.924904810869033	-3.23202609199861	-1.188691255429324	-1.041983244172529	-1.6286632973559159	-3.0138649864397946	-2.03823971233746	0.5000377880823136	0.43358632812702524	-0.11636000842280247	-1.2666226593463357	-0.2648974054324251	2.72896217610869	3.1246211449888976	-0.011614591785253554	1.9855424115595581	4.7060632586871805	5.019976603231539	2.1985671464724668	3.4281721028559278	3.196908942734245
140	-8.279012659151213	-8.27256486711427	-7.672562102973614	-6.3561873275495815	-5.233128534456077	-5.071280943464557	-4.263076294626171	-3.9282786746981384	-4.839982974230413	-4.347516048899066	-2.928941004033968	-1.9584745119239184	-4.808244693060544	-4.501272667010623	-2.9620180055221117	-0.9337562299041499	-0.8655310251317914	-1.7205339626741967	-2.9524714872204085	-2.050918097086334	0.5633642659268852	0.21477730517997606	-0.4963366972789748	-1.4706172905985717	-0.7292934637730298	2.5688745910636537	2.474545472573174	-0.5566301331771636	1.200374719450119	4.45401333638043	4.677835929504297	1.7933345987818967	3.2727200902326596	3.015655986801484
144	-7.612824897619064	-7.61264131531362	-7.103359681315008	-5.551919446279381	-4.525491703051771	-4.564754474559087	-3.7946646117725424	-3.475593081282344	-4.168256272282561	-3.702553739736423	-2.591550105227595	-1.7011197762455517	-4.689076888643396	-4.00195931377908	-2.6383833818580094	-0.8174793103559544	-0.9141677594946216	-1.8583275032808915	-2.831078522210124	-2.0981457180455867	0.44385352618688795	-0.2612499886115711	-0.9922584866267157	-1.7176829533124984	-1.3174718585129976	2.2052762452714463	1.5167430600972887	-1.2120288579857588	0.27101695469141934	3.9461967845466988	4.003758420372439	1.2828550306356141	2.941143743718735	2.626009696052458
148	-6.824009401258581	-6.818025094938241	-6.444048388423945	-4.739541995480096	-3.893407334988207	-4.131329526007384	-3.464153042630197	-3.1105377595569252	-3.528951397569136	-3.16698002015661	-2.398642533922037	-1.6738048749625865	-4.611983287611233	-3.5569009691080673	-2.4111020504158485	-0.906622586345489	-1.2049814432238886	-2.045355791649938	-2.7186491420771106	-2.2634785118176146	0.09746231859157396	-0.9819784735682585	-1.5778313835361952	-2.01805400338879	-2.0377714582492867	1.6157827336524744	0.31277266065785	-1.9291202973297568	-0.7208787780681091	3.218145123939784	3.053669444957462	0.7337303143096184	2.4811739858926205	2.0704405255496177
152	-6.029040321387023	-6.0110564080107975	-5.772111401289857	-4.067371358139078	-3.438726893326106	-3.8044655226975044	-3.2746882355981737	-2.859182112150766	-3.0434031409672686	-2.844741098851044	-2.336752170385058	-1.8118425561936646	-4.575293052565927	-3.246707431225459	-2.3491196573075683	-1.1512161464235977	-1.6465806919487405	-2.281236404381423	-2.6717281274098084	-2.548355334523663	-0.40025198358571334	-1.830853696015356	-2.215006822715751	-2.36413430570716	-2.8271584439424333	0.8860883690396973	-0.9888066028425536	-2.671700232436124	-1.684959288157691	2.369885677076306	1.9618267963469123	0.19836123237596368	1.9571658323465342	1.4098532164264248
156	-5.322841154011069	-5.2961587772168635	-5.149093138092319	-3.5969974903843966	-3.1583495060335025	-3.5423953443735723	-3.1539974133015702	-2.6974096230114726	-2.743094198930676	-2.7108848026496926	-2.310645574457929	-1.9730956504596966	-4.5606818084011564	-3.0726208609252392	-2.4114801822813487	-1.4119172060604959	-2.080635303966261	-2.5603806907860265	-2.7078795364677046	-2.8689103054092855	-0.890094099181714	-2.628578656235791	-2.8599831985745245	-2.723157875815117	-3.5628280549695677	0.17544139877370496	-2.1954150144461235	-3.413810244524268	-2.535880320822249	1.5314317903000714	0.8956859089171993	-0.2946387819957479	1.4278284275245354	0.7088872772438926
160	-4.750076281952523	-4.726323115813763	-4.600859153575597	-3.2881708062123267	-2.9647593423377003	-3.26327466140824	-2.998228542387476	-2.5676858360312544	-2.566748851017751	-2.641066067703287	-2.2009904329043373	-2.0110001513253004	-4.538370597825163	-2.9670131131602573	-2.4758083757834863	-1.5324287375860675	-2.3535859525386016	-2.867882959754531	-2.79828118571456	-3.097395889091448	-1.2070347040219274	-3.20459436561218	-3.46832703668399	-3.0427908820576817	-4.106812943580269	-0.3556547155937574	-3.135947696397679	-4.127142418931774	-3.2052311816353525	0.81391101870084	-0.005461349138239979	-0.7354012113123883	0.9307391023978818	0.02459216111649963
164	-4.2978415380686705	-4.290316570894066	-4.113644112691439	-3.032213680241125	-2.7425689628022414	-2.8954682277055146	-2.726378910810647	-2.408541196464184	-2.4020466743858546	-2.486945146003782	-1.9290313671999764	-1.8445213986557143	-4.477314460894354	-2.837496035087598	-2.406050675993177	-1.4160511457931007	-2.38127850884991	-3.1744935432394468	-2.8825869487463374	-3.123505584460098	-1.2561354605431625	-3.4613792808879325	-3.9975790876548856	-3.2667665399089456	-4.358649242840683	-0.6154375060755642	-3.715049734272745	-4.768630492568519	-3.6476054099496173	0.2732493870512005	-0.6746556741847197	-1.1173262567920594	0.48134499666756375	-0.597607789914983
168	-3.9110596081217395	-3.92587422333397	-3.648213854161948	-2.713171475236082	-2.4075224338782553	-2.414238923653168	-2.31520437609742	-2.1809742395649807	-2.146196121519242	-2.1527037566193887	-1.4916782341489137	-1.4871472082738177	-4.356264103381373	-2.6160004072898873	-2.1194760745896333	-1.0638641092143308	-2.173148388144309	-3.4356138619466363	-2.8957345412576987	-2.899769775698805	-1.04528355334541	-3.398780098917074	-4.407855022745747	-3.350417128687006	-4.285873879102304	-0.610545812495843	-3.9292268653848317	-5.277898298289578	-3.8382608793626676	-0.0945640576478492	-1.1227744789386433	-1.4192463123728631	0.08623133577986829	-1.122833487536822
172	-3.523189535782536	-3.5541398435504634	-3.166467897049993	-2.265118354800535	-1.9387404869722162	-1.8476773453793136	-1.7994255974161155	-1.8805316639151388	-1.7540006593288981	-1.6322402912891456	-0.9509059166742055	-1.022706625263678	-4.1698589219672355	-2.2854549827093953	-1.6175322491815045	-0.5568271861322934	-1.8069149210132347	-3.5987543968893605	-2.7917156148998377	-2.448236459272899	-0.660302220107952	-3.089551441021654	-4.662937152533856	-3.2683265126680685	-3.917950143458957	-0.4217478324255608	-3.8400967024171146	-5.589401231005306	-3.766504993465953	-0.32706221855557965	-1.4055564368047047	-1.5990135629337041	-0.23990331529605863	-1.5238106212290419
176	-3.0897355001642555	-3.1215760629043006	-2.6578051976811663	-1.7001118617049447	-1.3742997611634054	-1.2546561924728616	-1.2439123360699336	-1.5331010779774363	-1.2525606123771393	-0.9941692923241008	-0.38943225047017777	-0.5476708398343051	-3.929245223615376	-1.8740974617371697	-0.9698345636677361	0.002103707049318572	-1.3734099830284447	-3.618165483876485	-2.555503600344238	-1.8316268874654305	-0.20241998084937415	-2.624835722971926	-4.7339343905137845	-3.014657489794727	-3.3132402813229826	-0.14361135625343638	-3.523709288283665	-5.654089436560978	-3.431665888705261	-0.4561808395789212	-1.5732198913908555	-1.6049655635366575	-0.4658733594576329	-1.7796854927906616
180	-2.608711951345154	-2.6291356020351664	-2.1499268954356037	-1.0953767271996495	-0.7789406756761861	-0.6900579315883071	-0.7059620004949916	-1.1779839962781957	-0.7187349778148853	-0.3302184633024022	0.13886335457074467	-0.11506303370750631	-3.655498733828004	-1.426231023048588	-0.2657686465229074	0.5493367896515711	-0.9243655181434963	-3.469899884046352	-2.20045446793987	-1.1106108399007502	0.27319216659236056	-2.062093729534925	-4.6054100874019985	-2.5995466643504717	-2.522535556146469	0.17514403120167132	-3.026289693821145	-5.459377751871914	-2.8461708950663067	-0.48123615858647867	-1.633131857563445	-1.4020541870958345	-0.5517658577339698	-1.878074045207965
184	-2.120414490114608	-2.1354067271678203	-1.6986314015417512	-0.5515554533384439	-0.2074029589423384	-0.17869007542317955	-0.2096950406502279	-0.8484212734736344	-0.23706459939231414	0.297124355281251	0.6333562119705703	0.2888511113980251	-3.3683645640207214	-0.9735860203957829	0.4330452371631203	1.0882501574697176	-0.45181625967394035	-3.1593923488958597	-1.7574919417831574	-0.31598356286379353	0.7811911086386439	-1.4045671189132205	-4.280554283778821	-2.047257656650629	-1.5736573894824024	0.5554164037986666	-2.350602620865836	-5.035893427532173	-2.0442984052542923	-0.369212686083361	-1.5456427296715407	-0.9982892249652188	-0.4689795959076151	-1.8177607013584713
188	-1.6905809598201333	-1.7330609516257234	-1.3628114427491123	-0.14755593203006787	0.3135630480478985	0.2866349213039043	0.25340172584452086	-0.5605409727249373	0.13664011622739694	0.874600408253272	1.1318145961796133	0.7228593211997054	-3.0789132040490013	-0.5272662626305726	1.1101415129289736	1.6676175552226538	0.0910651159967558	-2.7192408969889468	-1.265611168527051	0.5470286593931164	1.379320737217318	-0.6216670259038913	-3.7839896583388004	-1.399333831115154	-0.4858898210178903	1.0625483962888809	-1.4782383404603119	-4.447759140229228	-1.0899323197503217	-0.08142979422514227	-1.2540044752885329	-0.4545248437373075	-0.22065347377380562	-1.6105956990586368
192	-1.3864442075057295	-1.5100507698080938	-1.179705378414963	0.08532652982388168	0.7778732160955987	0.7249299269493299	0.7021908146295739	-0.3149115435278923	0.38764572045683554	1.4185734951443374	1.669105167943202	1.2410877911704485	-2.7884452272585585	-0.09526988839891673	1.775803561495531	2.3284227789265954	0.7436994891463566	-2.1973786298586466	-0.7688339333196537	1.4696299992650048	2.11130093995146	0.30621123236592906	-3.1591842094768294	-0.7184144836407371	0.6997621637796876	1.7501301721255356	-0.40936267272591903	-3.770776500718352	-0.07443505506795944	0.39188715716602135	-0.7269386034731892	0.130701914099674	0.150166555859994	-1.2796794143792884
196	-1.2559283940077355	-1.5132573804796243	-1.152951833675075	0.16151283640614597	1.1786395281597803	1.141154286364468	1.1400923700158305	-0.10611184659631683	0.5298981057139852	1.9351869772689687	2.238362306665573	1.8485915614185704	-2.494053595921748	0.2920748882072077	2.430414193692896	3.055749170217714	1.4975249729494595	-1.6432701307769841	-0.3162024013165338	2.4094777046405307	2.957338325663321	1.3490226234708764	-2.4615144667466993	-0.0836810467514637	1.9004267406166175	2.608883612721674	0.8075099567052824	-3.0700700205538722	0.9000697113200717	1.0118769381724901	0.012019699409059571	0.6569580419166272	0.5717097506393963	-0.8555312135077159
200	-1.3174407448885035	-1.7311248735590175	-1.25882291476001	0.11855506867040379	1.4916224442015447	1.5128465852688695	1.543548818505868	0.06700995547542367	0.5833607301288708	2.3915581642804997	2.781138413083281	2.4897608694158624	-2.1987183038512357	0.5753485545891021	3.03860878177222	3.76883815767515	2.286628955789927	-1.100854394040678	0.04264048476182326	3.2847409165420314	3.8253209494331797	2.4201035438471012	-1.749811168067503	0.42632663142332355	3.001737825444412	3.5538737684168575	2.07579683733419	-2.387770646742455	1.7482494071690413	1.699957485675366	0.8853918887672554	1.0619269582640216	0.9705201958948564	-0.3719095578340594
204	-1.5596710404118797	-2.1010522789360757	-1.4641909562336932	-0.008241511860543654	1.679265733293831	1.7996561481815248	1.8724653673580507	0.19721572051323996	0.5592358694262305	2.72207998542172	3.215586415755326	3.0757126730512225	-1.9182088326661435	0.6885925514002038	3.535905590666813	4.358843315563582	3.0147879047571666	-0.6077613219175461	0.2707954340296709	4.002381314663025	4.59131192001816	3.405961028082904	-1.0777062150448615	0.7610750775195407	3.899641265560236	4.459806431000813	3.2825648701760657	-1.7438238815149314	2.429395907944124	2.371644490929898	1.7913424923492431	1.3461916412697719	1.3010644879871005	0.1360397782467349
208	-1.947740907519866	-2.5362994606832516	-1.744026418097367	-0.19946159372038402	1.7135471062312655	1.9692985961785117	2.0950508064780835	0.27310734918305934	0.46127128484614416	2.867095701608325	3.4857382686346594	3.5329720884769533	-1.6801327424545447	0.6037104114549037	3.8649659059218306	4.752243983668241	3.6032822041136465	-0.19737510333296696	0.3626677682780012	4.505682457038552	5.166332231829312	4.216946114383752	-0.4878615724644044	0.922643361146349	4.550707328751047	5.224258886498735	4.343582142353822	-1.1465303868910557	2.9600703641543484	2.9755322858072053	2.6445116929997634	1.5671082695495966	1.5624020060193033	0.6331939085232567
212	-2.4323196349722647	-2.959410183110483	-2.0874943680511167	-0.4501718569357062	1.6014838178255386	2.0218710848305688	2.2086174432305397	0.2864181690137258	0.29801246448616203	2.81778358701725	3.6003363041577052	3.8424878023408873	-1.5157614908096058	0.36554530170655763	4.017301072468374	4.959952341908476	4.030024995165741	0.10180998567864251	0.35465690404041417	4.811236846220715	5.549009785947373	4.8285407898110595	-0.008400627390692406	0.9705429648691031	4.998990523114847	5.820802197065362	5.234366403715647	-0.6043187364579454	3.4030580434710926	3.5140995890586595	3.403273335447478	1.8049832536902308	1.7925161078019076	1.085595128179546
216	-2.956762783214823	-3.32546209449403	-2.4883770879862506	-0.7567033748595272	1.3967014515899399	1.9977337071525574	2.243950361308447	0.23860907494383465	0.09539849287027553	2.6381614141614262	3.6372940448480873	4.046092500007987	-1.4465540610984735	0.08934027679060036	4.052966107626131	5.081223951862305	4.337301243321828	0.2748594277118084	0.3181594602181479	5.011191355450985	5.832465633925563	5.289454923626611	0.3505057981701574	1.0007144187457169	5.359785543261055	6.310358031553229	5.99005030073351	-0.12928107348226672	3.8360025785871192	4.034656514471675	4.0713686840262024	2.118471855536993	2.0441946931726447	1.4657212458797928
220	-3.4618678005552783	-3.6256194023146966	-2.927911751030585	-1.1033499213018336	1.1857811182601579	1.9617741058410638	2.2488067093339055	0.1413428183801737	-0.1030324396869964	2.445840114140399	3.7074196245050217	4.216609467350911	-1.472466107465547	-0.08448694625027586	4.081063260265154	5.25557659729613	4.60329960614512	0.33208140647015355	0.334532677282675	5.233568655151988	6.157414420794355	5.690978989537909	0.597182868403452	1.1056276531915297	5.763462052099047	6.80173586081799	6.673145754178538	0.26703265241914537	4.312465656836681	4.594006049955205	4.67488144647953	2.511390918113083	2.3536636769951924	1.7598698094758232
224	-3.89060377092363	-3.8722112081038556	-3.363295069786084	-1.457474704877359	1.0547717783046697	1.9725320289401234	2.26146912003802	0.011706883989519783	-0.2503961318369878	2.359764570000419	3.896753539737449	4.41093586761712	-1.5673239191538495	-0.05750198647763181	4.209459294181707	5.588490948872594	4.894196021121126	0.3143258384874857	0.46160331251902714	5.580447182871175	6.636356813841734	6.114136680425105	0.7558447699537054	1.334521051852216	6.288571818687092	7.383626442387188	7.327847939110047	0.5808039292930409	4.835338103484084	5.216706739606181	5.229680048136659	2.930137865298036	2.7189006736774277	1.972416395929551
228	-4.19381474389772	-4.07595347329075	-3.731635561104649	-1.7747846797003128	1.054137227257993	2.0544903226479936	2.2914621772132713	-0.1336774375639938	-0.3161302498942154	2.4446544585495205	4.2203421486159005	4.635487067916881	-1.686425800834042	0.17528928772062222	4.4911985283947	6.092713340635444	5.225486265340851	0.28245556283209533	0.7085191589586891	6.076990112220551	7.290570717524475	6.58412216431541	0.8593671300171962	1.6737054544153522	6.920221788100629	8.067002276080531	7.947290877304404	0.8195086100868539	5.354976640532718	5.8698735088921525	5.71985195623137	3.2910761750099233	3.097955457495187	2.1237873977446418
232	-4.337524879948461	-4.229142178348321	-3.969945659151045	-2.0110492655524714	1.180604454874485	2.1886088792856953	2.318307632315171	-0.28232112455614383	-0.2980760328396545	2.6830694607704566	4.6127514722711584	4.84317110746211	-1.7840977862136647	0.5224125968141221	4.897255408320433	6.6775488684862685	5.552753434466974	0.2917312674309451	1.0329225037245189	6.657833559392978	8.033358553631293	7.054991704294792	0.9371654367627604	2.056851858668032	7.55582330703422	8.769770600111876	8.469953515602727	0.9957402919424794	5.791744217554986	6.46752260482586	6.096927627429003	3.5221938997987214	3.425677767687665	2.237838977885766
236	-4.3093452344812775	-4.303623188597286	-4.041620721149648	-2.1329562610180015	1.3861875499059746	2.3268597067259518	2.3101906718101515	-0.42381590497778876	-0.21798010115425062	2.9915196820070755	4.961989867080334	4.964069830759165	-1.8325066520200939	0.8465651848400149	5.332066522487533	7.193706971125966	5.797563061381847	0.3638669243208873	1.3632951940448879	7.1993727502254306	8.70995805448652	7.433340053864456	1.0036525700978567	2.4000251232587564	8.05615232341017	9.353723502385096	8.808041550332634	1.1161169977619094	6.072121604847589	6.903594953273223	6.300611480064165	3.5967059044628917	3.6410903838735367	2.3258449972558575
240	-4.119562138646957	-4.263130177224912	-3.953969707042943	-2.123819822671318	1.609005804767912	2.4223568378325013	2.2503666820930284	-0.5448523150039273	-0.10403061631878792	3.270714036313164	5.168611990276925	4.951159941570568	-1.8332699490991604	1.0403628323037564	5.682876095729021	7.509235363121081	5.893482193372341	0.4734838592972745	1.6337099034070173	7.580116729671859	9.172629333225615	7.627875308805431	1.0529639694331963	2.6408600740514636	8.313299158088086	9.693158125246367	8.892559029062118	1.173303720372959	6.159724219982859	7.096203786099921	6.289247496938559	3.539762488011201	3.710293522050256	2.3762123524753718
244	-3.7968058490260472	-4.083105553808581	-3.755953540855874	-1.9843047807185665	1.8074678136967752	2.4574587283078424	2.1546239798506246	-0.6259005649976643	0.027748614479578323	3.460033884849459	5.197728143920455	4.813807475334097	-1.8147081090886517	1.082784411557614	5.875679001278618	7.575573425239971	5.826655373167528	0.5614476189743267	1.8117971374544606	7.736908893124874	9.351244902843012	7.598999004251872	1.0645995113197129	2.7610912253287196	8.300177553201781	9.737876867504069	8.712318398413666	1.1489126653274238	6.067637428223168	7.022423726471745	6.065049156134977	3.408317557312794	3.6358981040709724	2.358114475018623
248	-3.378948918394633	-3.765926113157356	-3.5155548960618215	-1.7293791727272432	1.978671545755067	2.4538574156796056	2.068925137064674	-0.6429336650828338	0.18083846523403957	3.5650215058917643	5.095408426771561	4.618782985470042	-1.814587111660063	1.0428760025397208	5.906957134591982	7.448029976160131	5.647528634117826	0.5705412611861698	1.9052296828804922	7.688159923216215	9.282077765871646	7.381456833322842	1.017699715905897	2.781947128901552	8.076947191826907	9.535704588656595	8.325944879491706	1.0272030804448915	5.847272381324703	6.726166708176753	5.680263028108666	3.256260148410203	3.4497239502594006	2.238286012720453
252	-2.9039165900346484	-3.3444416438540703	-3.289140692989663	-1.3851842845276483	2.152051920225771	2.459892743575745	2.0478341527734414	-0.5757674560315259	0.36889830138528695	3.644424429275275	4.962542044508139	4.458800304599545	-1.855700249755115	1.0286022398728165	5.8368949742769285	7.252658825682937	5.448139176918599	0.4852709161904276	1.9447953651917924	7.5156740952520416	9.082870460466394	7.070215684206306	0.9079243517840969	2.738885634183001	7.754967193097592	9.205295539503004	7.843128661380865	0.8132181743117202	5.562886700890364	6.298385604215293	5.224182592553615	3.1064009588013786	3.1954288401989195	2.0053305575285796
256	-2.405938857679861	-2.874305717840732	-3.1004435937804087	-0.9872142647613993	2.36323809027058	2.522902243920201	2.125996584293019	-0.41936752094246527	0.5966957196429327	3.767138710047605	4.901991831800906	4.406852234204578	-1.9281843851998566	1.1129476995979142	5.751957402012128	7.120687466763203	5.319123731535103	0.3505431106776926	1.9581962774428094	7.319925766583661	8.89158151289027	6.7790450878650255	0.7569055538140949	2.65595340058196	7.443207721991398	8.878154732223486	7.385967235990897	0.5429993854164729	5.268134103825705	5.842505917103338	4.797344672488699	2.947692863651541	2.9132401869654543	1.6874678092313746
260	-1.919118637961698	-2.4198942123351785	-2.9400286600270924	-0.5782828316393415	2.623483412794676	2.6610586576033723	2.2977967204254277	-0.19217337619422933	0.8445528724328335	3.9649648566276094	4.966518866397513	4.480221260203421	-1.9895385453537902	1.2835725513476086	5.718940243587187	7.125335675369632	5.3074178561679295	0.2549372308970253	1.9509336899138434	7.173784714706538	8.801115013790064	6.591386301565136	0.6070196613244784	2.5352773602372234	7.205677967952432	8.640920617221859	7.046689492554278	0.27625164319863454	4.994026648310484	5.440396295163246	4.481446731696909	2.755276673036271	2.6324808531100943	1.3508607115018192
264	-1.4838354550091688	-2.040474409673737	-2.7841503549854667	-0.20364253171527555	2.903956405937258	2.85042738194826	2.51629995664439	0.06370368583808028	1.0701062652273186	4.2103857887777565	5.135680185703087	4.633409965260993	-1.984516854044142	1.4491977655061665	5.757235512502952	7.254378777308234	5.396694169724267	0.2847488813363608	1.908008809040773	7.099415284352311	8.824294067991795	6.5285162760891025	0.5035691844624052	2.3683233201313985	7.050325852713554	8.508412339663343	6.860851270519812	0.0737449897453952	4.752776610772609	5.133867727669333	4.317377079553772	2.52075242359787	2.373715633121324	1.076850888394494
268	-1.1486004561988785	-1.7803921654573345	-2.6209106379140867	0.09748005097334987	3.1450102249850276	3.0343956870715534	2.7127373150046346	0.29289027974567633	1.2281999557003627	4.43218134714722	5.3324766024425525	4.78350065930954	-1.8755972338052216	1.498710032493892	5.8426999898262375	7.430051307992633	5.520431504616938	0.4734841573204976	1.8149714424086043	7.077330571425891	8.904567696023987	6.549461825047451	0.47328197836592995	2.1609034483711476	6.950128537750464	8.438519456539025	6.805406076415413	-0.029312327430151507	4.552341449688083	4.926952349621188	4.296887386917516	2.2738563957025457	2.157067531861667	0.9273723936508889
272	-0.9617691015756726	-1.6631485181779677	-2.4660251078333335	0.30084830446580335	3.284152737908873	3.1490588108665296	2.8249571252071464	0.44352811462955827	1.296363231246956	4.55650376123153	5.467135892416291	4.851661669879638	-1.6692242580231627	1.376081463200533	5.934229358949396	7.559455375659083	5.597136960203304	0.7761303762867665	1.6811184840673514	7.074505788107828	8.959753967552135	6.5782627893302035	0.5103576766480247	1.9501109073994414	6.876139146610365	8.372554757914065	6.817422849608951	-0.040376644479615094	4.407139767010249	4.800811278620084	4.368805874284767	2.0782270379048366	2.006042236985401	0.9154258347287194
276	-0.9523246264255675	-1.6872272448856684	-2.3568301141362458	0.4041101028253164	3.288393727583224	3.1521220127630927	2.8213567662532237	0.48449101921783305	1.2909753290007324	4.549649703936823	5.484265790444331	4.799466121000188	-1.4219438993792972	1.1266579599545343	6.0040602532433045	7.586065750042581	5.569961533788762	1.0851525040885615	1.5483742913254108	7.071480733183825	8.93187329898239	6.543930990863417	0.5785805568392428	1.7988039209726778	6.819692594476267	8.274463632673442	6.823654157576617	-0.006023168548635735	4.335998047371749	4.72984169719526	4.45846890277543	2.000741238311041	1.9411616276368797	0.9974569653123212
280	-1.1093820305471631	-1.8239328815186693	-2.328170293651964	0.4269399930188361	3.1720521369956107	3.04019784159792	2.7090365818291633	0.41521549120021684	1.2615951267815144	4.436306942229577	5.386978612650407	4.641756522857107	-1.2207573621446295	0.8823533035889225	6.051295742015648	7.513323288068036	5.42959641039437	1.2799975839722963	1.4760254584239676	7.070210438997579	8.814147926965166	6.411131365801975	0.6273791774168743	1.7663049653281062	6.790205461524592	8.145141580997993	6.765888673866259	0.010013860625078017	4.347326744547737	4.689638602814342	4.4915799981203	2.0708503670860585	1.9655966709101482	1.0915219756224679
284	-1.3737524713164595	-2.0202345797077474	-2.3861854016140107	0.4024676372380325	2.9896433277942833	2.8469188141470596	2.524317258183596	0.26414403252668867	1.2640781370672987	4.283087719593958	5.227958665999892	4.432437408700529	-1.1447809905713147	0.791982648757272	6.092035278198191	7.392064075880289	5.212774740409565	1.2853778568240077	1.5086194238720714	7.080991727117332	8.644601800073893	6.190479262934995	0.6151100977626396	1.872013087314637	6.794860822688376	8.008644083784024	6.616296751483933	-0.042037721617183055	4.422958362856541	4.657409656209921	4.418350208571301	2.255890602138286	2.0534839578281465	1.1152800293420866
288	-1.652066465021438	-2.2111759129964192	-2.4972381528747674	0.3628364196199674	2.807056896751974	2.624147646954376	2.3124489725857	0.07678091506646177	1.3261784281626465	4.157971371643245	5.075234877170394	4.2331538093501555	-1.2274709908966002	0.9366809106066046	6.135346397168431	7.283529263227067	4.979699599091285	1.106615659780832	1.6457159477645222	7.100704652024836	8.474891641200612	5.926236614523775	0.5276919590024837	2.0741867966735823	6.817573053313406	7.884346942069035	6.379849894628512	-0.1742017115724739	4.512412059835282	4.609170425222094	4.229396809390159	2.46660088870041	2.150002950962145	1.0246809695122334
292	-1.8530415249769765	-2.3420617521282443	-2.6021094256507644	0.3237868837287966	2.6654496125635996	2.415589564900368	2.106757635519571	-0.10247519586439817	1.42558872339811	4.0888318912269845	4.972055899464588	4.081712712472986	-1.4395191633119746	1.2778781620187238	6.162347778020669	7.22075031364802	4.782344329203817	0.8228237012116019	1.8318387223724273	7.099517804341065	8.335327127392823	5.6697363710307505	0.38274431132004044	2.2788104953451893	6.814046365700239	7.766418437422928	6.085472568406411	-0.35718011765899793	4.5452957038562625	4.520489681274849	3.9565627475027045	2.5930759841299924	2.1880669538567656	0.8335890748912395
296	-1.9291869353224476	-2.3922915398279643	-2.6495256357056105	0.2760538451854468	2.5585057670847053	2.236710065916571	1.9177579831342006	-0.24592541096109113	1.4953144750989005	4.045688618936008	4.913655268661108	3.977235068770092	-1.7012941794357241	1.6680436092224327	6.124929412636626	7.191101056062966	4.641977775297955	0.5452025518957432	1.9761154601749726	7.028480035202792	8.218520143739978	5.455866323047771	0.22017757538995925	2.3790819584861933	6.72989032953576	7.6267514036263835	5.774521336281331	-0.5348808155860487	4.460643757048504	4.376055706419783	3.6614904311242777	2.5569205219562616	2.119044060125392	0.6074204429549362
300	-1.9012340259234173	-2.387382739715236	-2.628393881837454	0.19034299206360433	2.4369604526027593	2.0714688248786866	1.7366065935158805	-0.34863001020148937	1.456269737381622	3.9575538535335277	4.8524608489547685	3.8873824975095213	-1.9203852366599772	1.920644755282674	5.967489227487249	7.147276383474638	4.544669616669123	0.3636482050774362	1.993749851915118	6.8451471155912	8.088952044091519	5.292208658208282	0.08458038398130598	2.3065509737907766	6.531509859760743	7.4379944613539255	5.489240155666147	-0.649696288852686	4.238702286508999	4.1822848214414785	3.4138653192159016	2.3519313276038143	1.9418764065352216	0.4327096332115598
304	-1.8494838429486051	-2.389202350306345	-2.578062766241872	0.03409023201799347	2.2390124741291415	1.886933441166432	1.5485415419582285	-0.42393839252249294	1.2602268425595051	3.754527797756446	4.727362620816022	3.7711655998384632	-2.034600967992399	1.9022103500023733	5.659821972862423	7.03769205223886	4.45500801868993	0.3107155851625553	1.8479316187932835	6.5422530009079365	7.910598258073313	5.16453217156164	0.009153914614752224	2.0673081822652897	6.231035216812094	7.2005529221890034	5.264177785934082	-0.6656404120805585	3.91840409243242	3.9741332430638123	3.267567387914126	2.0524573274291273	1.7142142014139075	0.378518073795234
308	-1.8718477440304475	-2.46479892108411	-2.5686016017912716	-0.20663674123568526	1.930462236298842	1.6569913583882152	1.3476675714799737	-0.4914347815027004	0.920408842624006	3.4109239492129517	4.4990687256709725	3.6030640511143193	-2.0384385534319285	1.5960186679598811	5.220263944797395	6.835371953872716	4.336943138616921	0.3585366895683384	1.5684105118253615	6.159156306928873	7.671940307320886	5.050439345006435	0.006770625693393179	1.7417724088562316	5.886767372527478	6.951718789669056	5.119536863752879	-0.5795373305947618	3.5864007382444028	3.8070526026928038	3.244200459872536	1.7816486313660274	1.534690495431004	0.46834033609401304
312	-2.028421396856267	-2.647311680785663	-2.6593003205869374	-0.5104170428740711	1.533269401493857	1.3828704322233094	1.1451536388095096	-0.5638934955665096	0.5128781782552779	2.966172210833889	4.172541607812513	3.3861887369493524	-1.9801294753625922	1.1060750456540842	4.715315806881593	6.549758894596261	4.171325196225008	0.44484758264761975	1.2378325431089041	5.767889008264628	7.393035870006254	4.932507025663072	0.06917418522059275	1.4478622638387009	5.577329144701556	6.748320562490937	5.056375967611075	-0.4182125021389239	3.3405659114419803	3.7340466881890153	3.328477612674893	1.6542943674282276	1.5008320770518278	0.6725582463450139
316	-2.3024942816776055	-2.910219900413021	-2.858793251449233	-0.819925246552782	1.1249554128854686	1.0985877486148823	0.9658838486127083	-0.6403211935089242	0.14596199952466984	2.511580937720147	3.7948169612442033	3.1484641949317513	-1.9326816748460949	0.602817653087712	4.233626354972742	6.2167615733544785	3.962429751882423	0.5084414469279787	0.9523473357951696	5.4396471839895995	7.111350518392001	4.804439055710533	0.1722552771987642	1.2851788965202497	5.3627972467446625	6.632309896890281	5.055659281364106	-0.2256495797897485	3.2443373121365946	3.7772610092163843	3.476430168911456	1.7215163664269044	1.6605350929297442	0.9235861278103811
320	-2.6024095946410952	-3.172494641877306	-3.1118383329026407	-1.0601522895749598	0.8066618422169146	0.8576111175819019	0.8361238816132027	-0.7078216654072885	-0.08655327536664854	2.149763101872175	3.431300154605843	2.92637275910637	-1.9542572448981281	0.2402361774339664	3.8479795358780473	5.876177296107682	3.73299407016494	0.5138518201252258	0.7769905905179931	5.2106323110631685	6.857309324117622	4.6695246578578	0.28356665301254813	1.2884241310014974	5.254895673835935	6.601339800380338	5.08353041319071	-0.04706210631171015	3.294716111447877	3.9100851913914116	3.633336058026415	1.9448776196013748	1.9815417478123345	1.144607421846167
324	-2.8071472573932255	-3.3366765891709163	-3.323382130815199	-1.1693401307146922	0.6544571502374555	0.7064544540688825	0.7690162043229166	-0.7503218035827619	-0.14554439448326661	1.9474753092234174	3.1341817299867323	2.7464036872188293	-2.059663767382857	0.08715633280922158	3.586118212228881	5.551920399953696	3.5127329737667	0.4566957641038358	0.7184953671434932	5.067603098472622	6.637085897854785	4.535387504570976	0.3710520556141632	1.4137347900936876	5.213639723012363	6.605144960893192	5.102659212580891	0.08428213724076412	3.422405234279179	4.062404145474616	3.7527747059487386	2.2140932027229403	2.3575100839221266	1.2778354850931726
328	-2.833850615022339	-3.3428964530468144	-3.4094428930033125	-1.1288025350681383	0.6785229427372726	0.6582717282841601	0.7559422831523118	-0.758314846031606	-0.06087767317422147	1.9055875491668202	2.9196891710952904	2.614688151433825	-2.216097349293808	0.10553058955251535	3.4249670419051577	5.2466664181804425	3.3277137195493802	0.3534406414645207	0.7279241066674174	4.961330401292204	6.434169276205235	4.410882938692692	0.4128395308561789	1.563378091679681	5.172286974245918	6.573142988775503	5.087952124147564	0.15589196940640604	3.5256612211858416	4.150500763904538	3.8116910361375136	2.3996496139976196	2.6516988210486345	1.3028552499302113
332	-2.6899979046616553	-3.2089164176032208	-3.3472773944267447	-0.9764963959835277	0.8128496387940044	0.6812072975125998	0.7684251050621714	-0.7345818858673744	0.08637279995330492	1.961396212394142	2.7656030585082463	2.519096844988769	-2.3635890424181314	0.1817436362684745	3.3108866131160344	4.952390658272782	3.1951739707385034	0.22782717587647472	0.7303551417030887	4.840416419206125	6.228454574118414	4.307270992848331	0.40576341645792197	1.6358426768009855	5.076724039611703	6.4585599736229025	5.039989935547954	0.17850226118796647	3.521877756763631	4.118537415596566	3.8167807959513236	2.415334218602795	2.759052746482548	1.2391216723628515
336	-2.477981799545089	-3.0304634494563594	-3.194842807332967	-0.7944069484681007	0.9429948902163653	0.7093266826840674	0.7702326755150662	-0.6921477896381455	0.203007041895446	2.020978207254088	2.6288034849553163	2.440262311496401	-2.44636272766447	0.1913942242796926	3.1933984675844167	4.6671790958825214	3.122973672611465	0.10505504879653671	0.6650183780092529	4.684967982861535	6.018751606050451	4.239461411262941	0.3695505550114173	1.5748240907962903	4.916184412941831	6.271578296085953	4.987015711591124	0.18134652032366108	3.389780512834449	3.9691216845437505	3.798436393684406	2.2592966499507314	2.655663245171926	1.1327764959345699
340	-2.345921748914153	-2.9368228838205868	-3.0652332228518504	-0.6722573620989475	0.959830400904603	0.6725004298397278	0.7344925981097263	-0.6455168111715878	0.22550478520679346	2.0048770853922737	2.4717397627413904	2.3645298421288907	-2.437714093729397	0.06399788691336822	3.053631774822059	4.4054989703530145	3.110798112644647	0.012708478575151515	0.5161929117521581	4.519906986268996	5.831811890183317	4.222831715412593	0.34217381390965373	1.3939021790597759	4.728054988367984	6.078899368197177	4.971537100637772	0.20101630636961884	3.179154149611957	3.7645106220568034	3.7948636912855895	2.0123310038304854	2.409581178303599	1.0354343626583016
344	-2.408738607047182	-3.022945873257688	-3.0678617876798087	-0.6654390079863709	0.8119684437278698	0.5302537070238175	0.6559338553080375	-0.6018944963517614	0.14489924871100782	1.883481378568336	2.282265895803384	2.290035718858108	-2.347698682579711	-0.1847220207557363	2.9113888667034047	4.1933932198509325	3.1494414726850213	-0.02000967035606041	0.31888309040621654	4.398603905062806	5.709105477224078	4.263267983163285	0.36386173871680494	1.1654049128672668	4.573156822102571	5.966577514843067	5.025004374214939	0.26488688521264886	2.981516353708967	3.5951831250020145	3.8325247667825453	1.7943265392777443	2.1464283412147007	0.983535346885861
348	-2.681106083776512	-3.2936789906314035	-3.24703621044521	-0.7669515590377546	0.5305359350161164	0.2928648285624215	0.5527173862807617	-0.5569043741470827	0.00453752138437616	1.6855317311646685	2.0771987385757678	2.2232646886006635	-2.2117631379552636	-0.46576398493474624	2.808195107045731	4.051455010675601	3.218699685553374	0.030083851812821402	0.13867355848109783	4.366547096672061	5.677940354316922	4.344971168992161	0.4555143106404032	0.981113014128305	4.49676655587698	5.98608873763316	5.142530905137695	0.37543088102920946	2.877300732023844	3.5303363710916402	3.909115781451232	1.701340313430664	1.9858679721284993	0.9834206675496027
352	-3.06089519681605	-3.652411690073591	-3.552263966174828	-0.9093134976317249	0.2136586750119782	0.018771337297849428	0.45689397934953585	-0.49774843328691565	-0.1263290789514126	1.4779128991006598	1.8895534229255642	2.1698915903620044	-2.068093771481446	-0.6662920100555979	2.7780053545432177	3.9775273699473326	3.287706128402831	0.16727745490756005	0.03688631569967	4.427162159232647	5.72554539188594	4.425606239589357	0.603510616686121	0.9057026482603482	4.498290050593593	6.1159953916630885	5.273931966817658	0.5045984970704327	2.888860695220976	3.5781683831473896	3.98985241836287	1.7564326480388837	1.9822685668488906	1.010362741780439
356	-3.37260436160218	-3.9418260951656436	-3.8570146463288686	-0.9955543850558943	-0.019607147152392427	-0.2097725564905626	0.3994895805763162	-0.41183656350107567	-0.1859747911764625	1.3307901587265647	1.7496356919937273	2.127392763488713	-1.9396471928262502	-0.7077121716751126	2.8245935368749344	3.9423775573377133	3.321122876365337	0.36520635989489814	0.039379477401491905	4.532503116608288	5.794896587999908	4.4461440927784714	0.759676990975219	0.9463744139619527	4.528069007885351	6.263831122796186	5.338830457559567	0.6026636942906458	2.966205589434879	3.6783175375576236	4.018948544845806	1.8991182994578117	2.10014581150062	1.0201345656388243
360	-3.4484591397004603	-4.0168537992151085	-4.0174693959847945	-0.9437938904775621	-0.08170281329984663	-0.3203273407478003	0.3990898718294616	-0.29430416152082367	-0.1442995514802755	1.2868851390772824	1.6721270042163956	2.0865361637841264	-1.8302830411477173	-0.5822197184168163	2.919059746048051	3.9039242169044033	3.2921891129343592	0.5694895372317633	0.1256503012584242	4.606238830380863	5.808833107587525	4.355104912252708	0.861253676624219	1.053530213557133	4.514399040268498	6.310578330319763	5.2622904644666795	0.6209533794937974	3.014327041644927	3.7325172330079406	3.943296422539251	2.0189437815237508	2.2369835320261098	0.9683298444141805
364	-3.2079832472869736	-3.8137407206568747	-3.942265739024397	-0.7253739219471408	0.04889869677595672	-0.27812430192345977	0.4581445145960886	-0.15092189571900308	-0.010357069756763643	1.348334785871905	1.654853816622677	2.0405864664056317	-1.7320231155535146	-0.35410734921697257	3.0174481792560655	3.832469215253755	3.1967627921456248	0.7190884929621555	0.24027867554558396	4.586351859911053	5.71122501838694	4.136695374535096	0.8635837413918958	1.148830768545709	4.404807556475365	6.1749386631512335	5.015229689333612	0.5389977083902907	2.947489969441238	3.658485641779447	3.739672174548714	2.014784092584668	2.28036927601142	0.8304538109793249
368	-2.6958994797352562	-3.380532971430185	-3.637817850465051	-0.37785541915861665	0.3269629470199569	-0.09549927687375567	0.5672583565695193	0.0040901754879502485	0.1776228393600095	1.4860262833270017	1.6885426001832509	1.9957895228541822	-1.6382014710073716	-0.12547339467317747	3.088161937546158	3.732896795384912	3.060791723152981	0.7754163126441602	0.32156321325177534	4.463869083578447	5.50302313368921	3.82852601038395	0.7668082098674317	1.165917989648198	4.199104775317469	5.86278198669326	4.638754356116641	0.38023212456071237	2.7410418918069515	3.4389812859493647	3.433433762464836	1.848825688462657	2.1696853582916025	0.6159902795498156
372	-2.059828037783443	-2.853751890606859	-3.20613574172218	0.013843394780970571	0.6709285957563245	0.1797535265914159	0.7142179590312762	0.15482851823816968	0.3734855940449088	1.663469787212496	1.7699609950201087	1.9764482925105582	-1.5516338309213684	0.017950052350143464	3.1333444039390415	3.6505532172541866	2.9362006113307024	0.7446598391805531	0.33448570882271056	4.295974720599019	5.252664075941179	3.5171773344885113	0.6221568568734188	1.084735748413344	3.956984748386649	5.474593148714602	4.238454331187359	0.2072021210922748	2.452762597567135	3.1390428463837607	3.098772994800862	1.5684162338712453	1.9302248906039456	0.36968186404352593
376	-1.4839737377846987	-2.3967893063113594	-2.7983610559383574	0.3554106643763407	1.0030820344395073	0.48631143447164454	0.8893983341650076	0.2897416345910435	0.5423583970681767	1.8577506495302116	1.906453127816063	2.018151755005975	-1.4823689423328177	0.04942058014313122	3.1893863597454253	3.653664102866449	2.884330026973748	0.678813515379819	0.2891537539811081	4.182620991637163	5.07120417268228	3.309842101323628	0.5115153776605742	0.9415022707056684	3.7739040756311097	5.1642694342881335	3.9476685424317766	0.0964346451112737	2.1999618951566897	2.880164377570203	2.837138407219849	1.2835715976732947	1.6623055892936824	0.15842550952967102
380	-1.1149698467714586	-2.132902140000682	-2.5491363937868274	0.5806254133823894	1.277355190866785	0.7689707855837123	1.0837476226147524	0.40272894400006815	0.669341681697831	2.065651888400453	2.1078426784703232	2.150565857225983	-1.4396890365491557	0.012353877505761952	3.305516949891066	3.799472322407987	2.9521162435384443	0.6492170079052572	0.23611640870562117	4.2175149811120525	5.0629010072674525	3.2924063122593727	0.5081148134754342	0.8106583932436591	3.737562885384728	5.06965016038762	3.8744537732532227	0.10413405272895386	2.103903765134931	2.7845683027535766	2.741102211707312	1.113748905230962	1.4932631216494898	0.04983593138390957
384	-1.0148491833813555	-2.105143541743129	-2.524549477879055	0.6706618053669834	1.4830038510073622	0.9881792043532319	1.2825927701992645	0.49103411908153183	0.7574893813081958	2.2939011992713225	2.3711724221444688	2.3796136319162473	-1.4232388698884177	-0.005630027488560739	3.513280859660092	4.102361668719681	3.153226129200124	0.709633586999241	0.2410008752221816	4.440312374348371	5.276816831617504	3.494556656597625	0.6406739337958144	0.7690786699904835	3.8883268734989582	5.251320825669912	4.058493603950066	0.2421998375499727	2.231782907573298	2.9187805578926285	2.859185926848022	1.132884857178498	1.5186378917499144	0.0898244602200496
388	-1.1595386237432839	-2.279844039882985	-2.708013289290243	0.6481643898811814	1.6268780190401109	1.118569609678935	1.461234089023141	0.5526271448487996	0.8180696943609642	2.54095243766125	2.668179028450263	2.6792304448194555	-1.4193719589637326	0.07587762157833251	3.8035125636392415	4.520724761993249	3.462759962876024	0.8700072743384769	0.34931179792903133	4.814262854819032	5.683849320366456	3.8786253831212307	0.881236431757941	0.8592406489613021	4.202293385386323	5.670214638699221	4.458648193546463	0.4773366439211836	2.5660967762055544	3.265547982554234	3.178176871858687	1.339841004803567	1.761984224639247	0.2890544824454853
392	-1.4741638861630426	-2.5832426482783544	-3.0253546161562697	0.5533976540898657	1.7098846392376439	1.143638727161723	1.587969537540445	0.5855257496355812	0.858504948832697	2.782899849541236	2.9458787366877375	2.9985775871863996	-1.4058115446836992	0.28106549311247564	4.123460282405426	4.970077025263041	3.8276033304851564	1.0947023602503634	0.5591452107617559	5.240743623853355	6.1900653682827205	4.356682289568061	1.1623121470669697	1.0684699985230757	4.603545654118132	6.212171538881204	4.975494372203709	0.7523599248010658	3.016101829543278	3.73667429934266	3.6302926448718678	1.6668685632582974	2.170555109265969	0.621808348516297
396	-1.8796625089872185	-2.9468214437471247	-3.3908097658378322	0.41747358335950896	1.7148530439949972	1.054344413002709	1.6348895985334333	0.5893923625370433	0.8751315452415245	2.9739065095204165	3.1430098931114157	3.2820322430716975	-1.363472219839424	0.5571512565851191	4.396433342324145	5.356469140834125	4.187819947159925	1.3254669871244038	0.8160808661837651	5.602835164229445	6.678812486952316	4.827760684222209	1.4136531317305516	1.333735581845349	4.997933375137779	6.744356138367645	5.497196660467837	1.0167949174004909	3.4640703113834577	4.218031872590239	4.1218089953307375	2.018853182463921	2.644951336858517	1.0360137198040555
400	-2.3255188406404703	-3.3369119083078953	-3.7486386204489275	0.24757057365854424	1.6131561953824334	0.8539274909394383	1.5909999568824642	0.5673609957675634	0.8530348517815357	3.061599723715516	3.214738360871603	3.490931025274381	-1.2891914811963983	0.7929695824629711	4.55308722300163	5.613281235827827	4.496812809081209	1.5138522348329808	1.033390280975535	5.814386829955094	7.0589628041382815	5.215361581986286	1.597277518054359	1.5692013462502445	5.310010419790534	7.172688466082597	5.944864734899107	1.2481803862529444	3.820009937178522	4.621499049916309	4.570162761593773	2.319273227558094	3.0836896818506623	1.4699368439755338
404	-2.7942855287574853	-3.754167308865755	-4.0882363216178925	0.030282661242322623	1.3858740294752476	0.5663375840193539	1.4705318175381796	0.5259597288203948	0.7724176029730813	3.010374776869139	3.154122583055283	3.6167790798425097	-1.199933764289184	0.8705830552055536	4.558856952601321	5.7246103142210645	4.732291209670765	1.6434845882883444	1.1295399637314376	5.850970253477231	7.296621781046795	5.48907755419561	1.7205400423479484	1.7031687455091775	5.506433949873226	7.472475033013697	6.296133025485628	1.4524662457988176	4.056157101880769	4.917071806891007	4.932322012846156	2.537465089113536	3.419683686205606	1.8680306625886687
408	-3.2825276768778195	-4.209383953910901	-4.429487217210174	-0.2513361864896895	1.04519295428558	0.23965819119503873	1.310106393367409	0.47205462932613623	0.6183704122189772	2.82040237668349	2.998002998412215	3.6792113688084185	-1.1265273065735166	0.7243736964056904	4.4246210940229975	5.724820599407302	4.894667613069398	1.7291556553098997	1.065131184749767	5.74932239988255	7.416986446728011	5.662819848068477	1.8206840707587444	1.7070257620628548	5.597186074430475	7.680969695725824	6.578120215020261	1.6451809364743692	4.205703247896024	5.130962835708894	5.211971746637179	2.686436407936028	3.6334688571746394	2.1907765810014137
412	-3.776522150041614	-4.694778907366794	-4.7910036919749235	-0.5986258968498209	0.6417773349771106	-0.06167452021763123	1.1550064057752953	0.40833416478059403	0.3899479796577947	2.532240145965717	2.813478701163861	3.711131086516525	-1.1007664175852119	0.37643304372161024	4.197253693473998	5.676802144023165	4.996638285419369	1.7949871971587668	0.8614050724215663	5.579979405620159	7.479513149451005	5.774408325875122	1.9315963934767646	1.604185457947807	5.618635640263771	7.861450175464246	6.837158185862835	1.8281708909607892	4.33090351918637	5.315093027046989	5.443818078601872	2.7983515191952177	3.7435183430570698	2.4169080196394708
416	-4.240096558356065	-5.169420229258039	-5.162862287837829	-0.9879471634717071	0.2522975498028445	-0.2749661796303316	1.0417324278279474	0.33141001975309864	0.10444691005800939	2.2144601289152512	2.6716093949577155	3.73992704400913	-1.1418055267116396	-0.07150721531933957	3.9369275470517904	5.64134977823743	5.051233755709996	1.8484125090661172	0.5894982203858972	5.41006849830378	7.542318325073688	5.85998199890736	2.0547423310854676	1.4548207484707905	5.609764561794958	8.061673144013907	7.104070645516094	1.9784938047047955	4.4808258897184965	5.508545384804418	5.6653256273285075	2.89495252832022	3.784938564281229	2.5412723953935963
420	-4.62011336113807	-5.566332803023998	-5.5000491003410055	-1.374370690690509	-0.0455175152761907	-0.35894104747747374	0.9868027542949089	0.23554013610022648	-0.20400738664618576	1.9414272259333283	2.621598475513058	3.7762761020686026	-1.2465118138313147	-0.4834434675885504	3.694590559214536	5.653701291115181	5.065888392056053	1.8695231628900761	0.3370226017072357	5.2768592701244765	7.635364036356104	5.937210068017798	2.1533408110611396	1.3256283965020481	5.594641671360727	8.289617517522876	7.37493560836372	2.0587608762260787	4.66343401685145	5.713937268135951	5.893016323469952	2.9730067178051587	3.7905650043152415	2.572545045079655
424	-4.866470801464563	-5.81783722362314	-5.740231499484359	-1.7061798529463383	-0.19858346829344764	-0.3062751881496116	0.9859276985071708	0.11917956888388063	-0.49180057520676346	1.7701785519729896	2.676129811206068	3.814487686063314	-1.3911492789431301	-0.7493475060617232	3.499247065292448	5.71569345938518	5.043063151024814	1.8216627790234854	0.16812479453554768	5.1826886999887	7.752776603198337	6.002317413434472	2.172502989052311	1.2593829600009057	5.577441201433452	8.515397050339068	7.614718894806665	2.041542048068258	4.845427977726187	5.89981459081729	6.114244445622587	3.0116605682629873	3.7826399707659144	2.531367057131251
428	-4.953865992436539	-5.884881004734389	-5.835003361275112	-1.9421597670157684	-0.19308234702475913	-0.14265057408556642	1.0224577162677246	-0.009781768520811793	-0.718195376967096	1.7253944830247792	2.8130867410208076	3.840855111915322	-1.54208182899236	-0.8310155847549147	3.358092061147487	5.8032417150845514	4.983114706809714	1.677121158180227	0.09659774577070916	5.108829008555304	7.863152960951891	6.0375494804536745	2.073059553634436	1.2582482067765368	5.548624501524517	8.693054177270898	7.7782106203155195	1.9313869427555526	4.976244437051669	6.024423584032957	6.29659365017929	2.9940276070343126	3.774521579749424	2.447940581816981
432	-4.891862380074772	-5.774384484017272	-5.775480255804056	-2.062959427393457	-0.05219113068516656	0.0873836202203375	1.078897473472335	-0.1343501206820693	-0.8564206936194534	1.7978053047566322	2.990865699846251	3.8431768320327513	-1.6698107677262717	-0.7694167475347959	3.266214124062562	5.882698044229646	4.88630579668426	1.4415898286662439	0.08709521569673932	5.036708819070642	7.929217318542662	6.022198185021241	1.8583443117906755	1.2897392478805012	5.49646996064057	8.786963440644639	7.834931353814891	1.7692136719858016	5.0203332774249745	6.064920410102587	6.409295065910371	2.928305380103688	3.776689043046564	2.358515733486238
436	-4.719748961930215	-5.536575780241461	-5.598250851802055	-2.0733761735066834	0.17908085837450155	0.3398933402063049	1.1437487573357006	-0.2363035672897434	-0.899753449075692	1.9544321249254575	3.1681036869170787	3.8147230052002934	-1.7612701609966408	-0.6538800580681973	3.217847815972395	5.926718696889501	4.75202797643612	1.1589015693015328	0.08225308337902373	4.962564932691675	7.925402621286668	5.940607055924261	1.5764143427148827	1.3101246323886644	5.416511521969154	8.787968613371595	7.7835302156390025	1.6143599707852778	4.97793816263333	6.033180698421248	6.442602141326766	2.8517017292503404	3.7991151713773945	2.2979190291561977
440	-4.48905657588546	-5.243350969427827	-5.3675656183146545	-1.9960253188283184	0.4540530133704568	0.5883494600700414	1.2121813266667092	-0.3067676119211802	-0.860258934710074	2.156041378299805	3.320155612192364	3.7525603676466677	-1.823480839893834	-0.5705416188140375	3.213737241260483	5.924734100642071	4.577024448282991	0.8922358728770207	0.040113221752695334	4.899824606922345	7.847519377922514	5.785233483013318	1.296443935935778	1.292147633151215	5.315824972082982	8.713985421114536	7.649416427372871	1.5142161807930605	4.8843450422946795	5.97014282626595	6.413782103557733	2.814625732945023	3.848463287173823	2.289267295779604
444	-4.242697705047496	-4.957877623438373	-5.14262388838331	-1.8609687042935101	0.7400982957274093	0.8310494401930616	1.2831521001844246	-0.35182586223466517	-0.7609207014899622	2.3738188683658143	3.4469489964242435	3.6548409369699235	-1.8771948766997475	-0.5593504891578441	3.2619929231302263	5.886537537017804	4.357491005386332	0.694067416822935	-0.04016855721464898	4.870687949281065	7.713824729517385	5.558312402043271	1.0745036574891653	1.2417378394247278	5.2114281522781996	8.598644234882308	7.470044117187315	1.4802589379130962	4.789494502373021	5.922787174530042	6.357701285523055	2.8540766167107754	3.923031081785362	2.335458034340962
448	-4.000628938111053	-4.709264743359273	-4.948239313983947	-1.6962852435200257	1.0244696114423935	1.087212321397509	1.35773479595712	-0.38825631043637304	-0.6255574210585588	2.598840468520956	3.571098080201984	3.5226137549154592	-1.9432253788523726	-0.6021658762987386	3.3737802420313403	5.840380653894593	4.0967917338887725	0.5817791208837491	-0.11843952506679842	4.894012438815682	7.560196857438217	5.274884210620186	0.92820328239696	1.1948698728911415	5.1247453560187815	8.476861932333332	7.277224045500066	1.4841364584645245	4.731081950640616	5.9170131533959385	6.306080802254946	2.9713761731468002	4.009372701058948	2.4146804748605493
452	-3.7575266266368144	-4.483625877504395	-4.7639970659139586	-1.522777911156271	1.3101290431323667	1.3846811021177248	1.4407962524277078	-0.43083295117322246	-0.4724763023845351	2.840533010940526	3.728454580430307	3.3673248205998845	-2.029850954652951	-0.6439360363914908	3.5567941575848994	5.827049717496366	3.815443029307362	0.5338630066744339	-0.13934223318682232	4.977072703193377	7.432164173435297	4.966259466984106	0.8348080494784634	1.1960046261155104	5.074626909795221	8.374801614597846	7.086716157187108	1.4767265282540458	4.716647613061092	5.942322716015144	6.2682194551520505	3.1283419053249624	4.0844707385890695	2.48494958250174
456	-3.4911477477622372	-4.234610546864788	-4.537212837207969	-1.3521960939599955	1.60619830679679	1.7452243522450381	1.5441526135559183	-0.478467820866875	-0.3130266956532413	3.1158366124640793	3.954506625681724	3.218132726173702	-2.1255505031326463	-0.6314132197650878	3.809642066873888	5.889622196586433	3.5554575830338306	0.5089776503110243	-0.06839133036750869	5.114174829922423	7.3743204884311915	4.678972709286583	0.752302525528292	1.2704650131574355	5.070812212539226	8.306130388269759	6.8986739938129915	1.4173504078366344	4.722680556771446	5.955919727546977	6.22413299896453	3.263497344360559	4.122043599211981	2.496582740202472
460	-3.177127353276132	-3.909352531099682	-4.213724602551065	-1.1874139278950124	1.9177672814587623	2.1719675009250006	1.6857343869563932	-0.5093205558315513	-0.15397383233773201	3.433732024106539	4.26910685415074	3.1200942914389254	-2.2028200570757432	-0.5448005781723928	4.118369092080145	6.058584197960381	3.3715443526021707	0.473539232012131	0.08397204407710306	5.289982782359409	7.416771870007361	4.464193809682364	0.6485383494215581	1.407040711665154	5.109819876167548	8.272010782337837	6.705038053750117	1.2949498859136102	4.709444987804619	5.903203472492084	6.132982715381186	3.3192186271788606	4.099848736902295	2.4081442295309823
464	-2.8041713166963933	-3.4788312824155256	-3.77073072435128	-1.0238476965803773	2.2391247692796146	2.64252113628787	1.8809671354487685	-0.4900639938856169	-0.0009057482215990994	3.7827412986617768	4.663713443425451	3.1184508721773274	-2.2315242234156254	-0.40414783256536396	4.455709446147876	6.335678084589888	3.309784404027631	0.42104840172320984	0.2649840705857098	5.483677373392594	7.5614857482735855	4.358988750896467	0.5206647502151415	1.560485835903902	5.174348818112783	8.261755922439411	6.49861715583378	1.1303187580181067	4.6421484830001605	5.744461998741256	5.9546027033193445	3.2661318696529795	4.005389203449376	2.202034467859587
468	-2.3832738339333734	-2.9582526609118673	-3.23478149551033	-0.8517609217119677	2.552634948007731	3.110507480397456	2.1296329444522955	-0.3948568691774902	0.14094860816178575	4.128499974317751	5.096425997264597	3.234761468349736	-2.195009226025517	-0.2502656274675816	4.78373764737657	6.683657152467429	3.383917561570565	0.3720294823790447	0.40814101592968705	5.671352848992978	7.774319629114405	4.367608536183542	0.3936858167245447	1.673776026314588	5.2373781071992545	8.253300645971501	6.27817962968745	0.9598518585766681	4.507195938174868	5.47436951208797	5.672359452231404	3.1129538934314405	3.8391713999139574	1.8926980447666848
472	-1.9471552322817816	-2.407863610864088	-2.675904028812229	-0.6606892926701462	2.833104841708792	3.515778532688454	2.405631059295018	-0.22403034511270722	0.2687826149830102	4.423521984376114	5.498715863650036	3.447575798867119	-2.100437397422125	-0.11459734261905194	5.060734259226048	7.029561501874866	3.561920157022641	0.35606151729332236	0.4711023259189641	5.827689632961059	7.989413241242245	4.4533390886404325	0.30146020574752264	1.708058948972783	5.2710342274145745	8.21619794678539	6.0481753196602455	0.8132108429404313	4.316296566556012	5.1260104049963005	5.306326375915558	2.8991570399520605	3.616377344537738	1.524817105258178
476	-1.5390708407644882	-1.911787743509992	-2.1813845579385784	-0.4445896435480055	3.0568187159608633	3.8024489783605544	2.6595857076254017	-0.010178302389017548	0.3857609321868291	4.626651752234843	5.795645699173553	3.692142477250502	-1.9787048051467677	0.0016333494527005514	5.252422796339737	7.285639267646789	3.773360481272131	0.3873321106191416	0.4611484396735722	5.93014810972264	8.129373529890344	4.549169528919724	0.2624522440959777	1.6637819963410412	5.257986055450448	8.120419481756212	5.8159055563001365	0.6991878730287266	4.0997991458379675	4.75914858570159	4.9102024908072766	2.678041451368478	3.3675630007598056	1.1616082162139496
480	-1.1952493160588236	-1.5431784352441689	-1.8214189960269696	-0.20710529334708164	3.21133350515205	3.9390277763097936	2.8359351086541613	0.19310268710973735	0.5007485138648209	4.722380149362537	5.933689102450516	3.883682002752629	-1.8732374859245218	0.1250718083800172	5.343204007963564	7.3823704533156524	3.937457551551795	0.45099177842716637	0.4310145963277168	5.965030178268604	8.134868601287604	4.585003364431059	0.26613455943625963	1.5801646669546816	5.198912607418441	7.948776701885614	5.58889530678173	0.6071248039175967	3.893050183957614	4.438634861230048	4.553217876382648	2.4979960855358176	3.136087648103258	0.8673919417416255
484	-0.9295197105781456	-1.3319972719895081	-1.6221879679731557	0.035941257982110134	3.301930657633275	3.9330656429172537	2.8984115050570924	0.3349619201309412	0.6224031432650089	4.730226027943802	5.905151352278426	3.9561893840087743	-1.822107906509544	0.28699457572957093	5.3431010111376525	7.299643021273543	3.998744000829435	0.5090934621355305	0.4476271558427352	5.933545574466259	7.990939596981799	4.518607605016173	0.2783041887409377	1.513622280114018	5.112097250429377	7.707288722606396	5.373741136334951	0.5205431567401066	3.7231447602685424	4.211669911241556	4.2939886938401175	2.389438623117638	2.969200603617991	0.6881275159628404
488	-0.7285766583167708	-1.252195355114878	-1.5593769510953004	0.2589448981899922	3.350529423837479	3.8321187399433607	2.850649111226265	0.3912218203203958	0.751125691424818	4.697444903911576	5.756352886925346	3.8976128002943615	-1.8421828700285008	0.49428287023681217	5.28550003624646	7.079967480904097	3.953524341138306	0.5221583830047969	0.5511963353545789	5.853644833090841	7.7365436358626125	4.355863083332337	0.2607378059003093	1.5063320360299461	5.024516569803329	7.4275340846408335	5.177100645345825	0.4321219910202029	3.602056971038737	4.093588818705209	4.15864752673187	2.361165040730526	2.903789512932308	0.6376900656812471
492	-0.5604454264796036	-1.2350039450935848	-1.57312225898296	0.4340237070092828	3.387171021492771	3.7084832097837084	2.7390744616971725	0.3751213839119946	0.874353645024525	4.677265155427369	5.573118672605253	3.7614231014652337	-1.9229251097767337	0.7147305589750503	5.215025411790602	6.814738733252202	3.8529457948681944	0.47283449649640846	0.72796022708206	5.754761204495283	7.450537185931633	4.148940552726836	0.1924898619560264	1.562479611266605	4.95811318099393	7.157593709040629	5.006702410454995	0.3488923302424836	3.5272858053797376	4.066651810869166	4.132289399204423	2.4034647880907705	2.951085798442169	0.693386374153451
496	-0.3931703855601509	-1.2032351463456683	-1.596844669125093	0.5418168292671148	3.437850466631541	3.6326255706624866	2.634456866288699	0.32870402849177266	0.9696851944283061	4.704245555444699	5.4476313453463945	3.645079365110414	-2.032703632944699	0.8864962436228656	5.1709966528990785	6.607631189829786	3.7782192134833745	0.376520960572432	0.913246212084076	5.66744993686294	7.219709378134291	3.971818198666581	0.08007158318807459	1.6454410511435122	4.918705927828043	6.944997293103995	4.870895850281516	0.2848985485990139	3.4877545745530307	4.091533173721386	4.167918194738249	2.493414157294212	3.0875995081194776	0.8039768913951413
500	-0.21504504924363113	-1.109936949788621	-1.5859000642790684	0.580466090167307	3.5139758498164184	3.645889273021577	2.600471966853629	0.3005781166117187	1.0161590550516326	4.779636847826376	5.440681920620288	3.6449584868911145	-2.132212156634504	0.9482035016915571	5.173786627104681	6.53182504912152	3.8018867873524527	0.27402260830359704	1.0239199374096626	5.612915501728409	7.104208928291624	3.887685765941373	-0.04734600323405857	1.6976399378830607	4.8943052168300785	6.820220930046222	4.77861450896177	0.24975095626240668	3.4717681320274747	4.126708497118904	4.210340966084999	2.6015851431966435	3.25981854569431	0.909005520432948
504	-0.043699711450871835	-0.9603453254295177	-1.5320808848800365	0.5697030410688098	3.610536327783076	3.7463791275804867	2.665860407774354	0.3224762968027842	1.0096278165122141	4.87620733937333	5.557927594457572	3.8101673030023226	-2.1908123437881883	0.8741676189286506	5.222121225523908	6.601862413904409	3.9542000193897735	0.20856048114095402	1.00352811559988	5.598921761681953	7.117210370214365	3.923496474850593	-0.1550695892233551	1.6733432965946113	4.864935385819026	6.788776380565065	4.7384891390374415	0.24100457071014836	3.47339295463995	4.146500576994471	4.221765507529543	2.6996436050920143	3.4038641366849998	0.9604164337705552
508	0.08360239842288114	-0.8040282705988079	-1.45829605688029	0.5471634254946133	3.7145190145170046	3.895755281149271	2.8144633698930646	0.39659172196394266	0.9714522337228559	4.960334288471233	5.7521200034826645	4.118241299722069	-2.198031658345157	0.6927462798748241	5.301829801525055	6.773472292011175	4.20973538289561	0.20087203332730427	0.8541948177705809	5.623403058159449	7.227181893221625	4.061899174925355	-0.22132046464831945	1.5652209480821935	4.817337023970206	6.834047300250572	4.755580413255765	0.2456422590968005	3.4930477054143005	4.148997773185676	4.196081150904937	2.766859047579782	3.4710736187083056	0.9376751756835926
512	0.13503879274606545	-0.7015534025599552	-1.398410435960625	0.5575748071898237	3.818042268650165	4.042532433793831	2.9970583840042	0.4989297079364143	0.9442165470125973	5.018078791346682	5.9495158045284775	4.484037387970886	-2.1656181757609776	0.48021146533840964	5.399829850868693	6.96977613596746	4.498620021906237	0.237478449341106	0.6391124709205758	5.682336792904455	7.378731708970591	4.251667488807808	-0.2465343469117403	1.4107625448848222	4.755677211198636	6.927118760739466	4.825978266929345	0.24889492925746498	3.5330536276308004	4.150510777484834	4.155297268866793	2.7951822210312223	3.447266569970805	0.8507848360515903
516	0.11084629567293694	-0.6844964010122913	-1.3735291923176947	0.6383544786548809	3.9276151557941743	4.149210442557698	3.1570463100834236	0.5944271668685089	0.9751509403404097	5.06904791505833	6.086432918440607	4.796911704350144	-2.12115621031232	0.33114820635158376	5.51471851863893	7.119244557526124	4.735339629615462	0.277454166903942	0.4535624373428715	5.775256142340266	7.518795948118916	4.428602207446784	-0.2501704686524379	1.2747068372968113	4.700898158602564	7.0362043203090225	4.930465208956801	0.24268963871717783	3.5898113160098397	4.168951024020309	4.130249489846781	2.789614193548942	3.3549919043712566	0.7307692747739425
520	0.055573515453695946	-0.7310599070211334	-1.3768291438627078	0.8081387261014306	4.063383092157936	4.209139813286518	3.2558088220411032	0.6543726308513774	1.094927427388467	5.1589727271481856	6.137244685890445	4.96674345669846	-2.0967926926126017	0.31940907159270904	5.657090649627131	7.185613137223061	4.849903571281782	0.27348360350225404	0.38037857317255575	5.904036030168204	7.614246826021236	4.535014617914203	-0.25981518560616046	1.2171670167710038	4.678217399229896	7.130348664401165	5.0300731531938405	0.22580887320250856	3.647297134727617	4.2047381294902575	4.134939183285868	2.763129465756313	3.236845961981558	0.6108252986744892
