time	FP1	FPZ	FP2	F7	F3	FZ	F4	F8	FT7	FC3	FCZ	FC4	FT8	T7	C3	CZ	C4	T8	TP7	CP3	CPZ	CP4	TP8	P7	P3	PZ	P4	P8	PO3	POZ	PO4	O1	OZ	O2
-200	1.2066897123388383	0.75227504778712	0.6486129148319838	1.3105936017325732	1.1043910952341414	1.3222672905916497	1.3715357745828594	0.8527551867889557	0.8691508151998617	1.275602456686945	1.9314427327029215	1.622603293136902	0.8393650629786158	1.252786752398846	1.4054015839379692	1.8360023452180554	1.6692521529968471	0.6104652270163101	0.7596590499771869	1.3316419090982545	1.790820355662329	1.4578921758083119	0.4528656888495287	0.4712116706395285	1.1089799376145235	1.7577978328193724	1.478683110318503	1.1008391352516542	1.4878363571749709	1.9291655968596717	1.8072646810678936	1.089969632257857	1.606091495273622	1.4274866544922562
-196	1.0772535773735799	0.5409867153814237	0.7109047156505117	1.181086537240211	0.9697642897917234	1.1410301894943589	1.0873768302166735	0.6222004874732843	0.815531549778902	1.198957321000939	1.6834213691170792	1.3942127192582716	0.7639314512992553	1.4639984332315548	1.4548865519984564	1.6703270631580127	1.5660932024516343	0.575024543740921	1.7043833689573438	1.4355502092356915	1.7935486986653895	1.4956821165469467	0.5623890743361771	0.9310001111366943	1.3144004311754764	1.9261406611449579	1.5799826343699972	1.1821918457701353	1.6167305667112997	2.0568563886210236	1.8397451592726315	1.1293009491064918	1.5747071464835363	1.4578260146527782
-192	0.9380984282650741	0.49606323116943574	0.6402789338158852	1.1191813917513649	0.8861909486330969	0.9767650937214968	0.7386615257687259	0.39309230347569224	0.9082005001026441	1.1592121095000285	1.4794627390701967	1.1303851575922188	0.7139018756008303	1.665031667320247	1.544442172919506	1.5422687491579035	1.4026035035006976	0.6002807005985421	2.386429303819816	1.54436206427713	1.7958928301291976	1.4916337690840233	0.645353911677828	1.3182538714504766	1.540025111124933	2.019711250927941	1.592537399085919	1.155687686863358	1.679293985895383	2.1034102386774367	1.7745469763775488	1.2209248511960256	1.5245318374290033	1.392110344233062
-188	0.744600115326639	0.5392283783649892	0.4909161316874968	1.06129157275232	0.7586652021327113	0.760015128124176	0.39447957177701454	0.22212089542098729	1.0633622381065893	1.065737602404181	1.2608269421215885	0.8436469414391796	0.6756200773347506	1.743141646752555	1.5608024557761495	1.398117419527649	1.1674128741353906	0.6325553639653901	2.547741168265448	1.5633285006153528	1.7311055616541589	1.3874845469730124	0.6566227061859675	1.4762378893774109	1.672350164005871	1.9783863971351814	1.4736463986384092	1.0274962160871568	1.6321465927877954	2.0455007501456657	1.6037435491125578	1.310718533067707	1.456725951331581	1.2645000187419537
-184	0.43825653084732025	0.5617462978485421	0.309268324786418	0.9201627946509944	0.48127803084932763	0.41011449591089527	0.09137687809046637	0.12480048058710405	1.1421576709520835	0.8222672918540284	0.9378848052187384	0.5248296843629512	0.6093276723736438	1.6019858081425695	1.385931965189823	1.1638847560107533	0.8463000037760786	0.5877370819511651	2.1215586608728274	1.4031650984623536	1.5355468949649747	1.1336780757891662	0.561157105936425	1.3169499602446622	1.6012011726007271	1.7542843774373127	1.203138706030665	0.8192210772811834	1.4338020050088431	1.8567590666622316	1.3234086003269274	1.3020063605814634	1.3355002369541138	1.1012594672055491
-180	-0.0003859513080247772	0.49248531336421436	0.12505993215457567	0.6441798193880066	0.015504503583505991	-0.09461472904636095	-0.1637816275991483	0.08119170347218808	1.0277050707619226	0.39801412720327134	0.463796137592455	0.17245106355519588	0.48535084601886963	1.2130761115918183	0.9721494292510335	0.8047863224691475	0.44972675925196975	0.4058906127695515	1.2430123059360976	1.0362468931738282	1.1963769167258376	0.7304579597150666	0.35393398910808105	0.8556959607454592	1.2806045976731564	1.3510721887809483	0.8066138604779917	0.5621827826611303	1.0716147395734856	1.5290161332627132	0.9492704844349874	1.1092098923334863	1.1153109045480023	0.9123721695752964
-176	-0.5116571771101368	0.337710141282984	-0.029857788159565444	0.25844833189562216	-0.5636673555448027	-0.6718150360311861	-0.3693586876603697	0.06339861436572887	0.6972215754071958	-0.13248136606146702	-0.10945388647101573	-0.17677035883142297	0.32105377235416627	0.6410552247074799	0.386178790547972	0.3669718196663655	0.03468143186157644	0.0986073461665601	0.1787546719567918	0.5251090513323081	0.775321004817405	0.2503161722062235	0.07036479544755578	0.20568662829920314	0.7628416995815782	0.8439504482896096	0.3610954871597632	0.2928363077399685	0.5836810454890851	1.092779514414764	0.5273045288124218	0.7131373268242267	0.7783825377839185	0.6958071571902468
-172	-0.9591324305160455	0.17207562879986477	-0.10260847184977945	-0.13663414086177328	-1.0860573025939675	-1.150488969759174	-0.5043542372367598	0.06472413225521978	0.24605384406909664	-0.6093900784365661	-0.6324477775818422	-0.441712676363573	0.1896540219763851	0.028610648515111133	-0.2068630004666814	-0.027732757781462954	-0.29904410167532985	-0.2402274006500454	-0.7812166790311881	0.005551767521490813	0.39137166639698284	-0.17735364988372226	-0.2193876052324231	-0.46205010893513543	0.18616400612082426	0.36350870040669164	-0.02514386356979288	0.04968557121726267	0.06182181074507994	0.6216702445547011	0.12945392695167893	0.18838559043528366	0.3608904769845758	0.45113742237630733
-168	-1.180768248437914	0.08809061326197522	-0.031471621165687594	-0.4115908433536095	-1.3663567270114014	-1.3488044704715492	-0.5267285095267668	0.10822135182713967	-0.1547628041174707	-0.8635156728877341	-0.9253805852414584	-0.5277747498538677	0.18702468228804672	-0.45672279481017314	-0.6170251353897931	-0.23797240793227373	-0.4456210125162725	-0.47061362743768453	-1.4200798237232979	-0.3711553504632982	0.16694928663541647	-0.4187135387816408	-0.4322713304573106	-0.9761503314168355	-0.28099971938713203	0.045188031976575095	-0.25388222868716454	-0.13082468476644016	-0.37154608871113676	0.21268159097380332	-0.16790381031560084	-0.31547337690812666	-0.04959871607417332	0.19258011828914967
-164	-1.0701739761036124	0.13633330131919025	0.20888782984923399	-0.47593879579544035	-1.3061052527830286	-1.1772967547256705	-0.4009620537171298	0.22716003599034934	-0.34808424027298146	-0.8105790594616633	-0.8784789420836591	-0.3829864253865068	0.37019836809152307	-0.6933020335813067	-0.7255859356680716	-0.18251073314363583	-0.34892555983186196	-0.47521018861954556	-1.646876807823237	-0.5099506961345258	0.1636641170422703	-0.40189710157968295	-0.5040484654098341	-1.2201818196961314	-0.5147195445416751	-0.0334049760451924	-0.2814895205543372	-0.2220866823549726	-0.6082164033792572	-0.05221915231872084	-0.31500765601735	-0.6351557954010855	-0.3484799257063239	-0.04937867435266962
-160	-0.6453722103037278	0.2909522645280199	0.5618395195127355	-0.3311057380422885	-0.9589438414204523	-0.7075458151119645	-0.13726939226302434	0.43116754184582434	-0.27993515063180896	-0.5095544444570594	-0.5278707729363584	-0.046050120028817094	0.7046670299858709	-0.6596046073472622	-0.5510665760432304	0.1026568261177314	-0.04578055802350097	-0.2246301466515676	-1.4971127472272336	-0.4199031878837093	0.3439518502611369	-0.16081534285474536	-0.4163556982495689	-1.1674704522220982	-0.49181926126285336	0.10650400045446522	-0.1423327025157818	-0.21577072089077817	-0.6015429481577638	-0.14370667898135275	-0.31227022330598436	-0.6690757257735147	-0.46369048835985743	-0.2391972535769932
-156	-0.0638784466561205	0.4602935004533949	0.885183630138936	-0.07649572919367334	-0.5153012262685696	-0.1576950993132763	0.189191698550352	0.6829728466910341	-0.03553121527999369	-0.14512409233169413	-0.05555656910817103	0.34990033419005767	1.0585567924476402	-0.44366571195167487	-0.24443310437477858	0.4687578666296105	0.33475288664224173	0.19864514419947324	-1.0964536639187323	-0.2103864098243933	0.5843765124825684	0.17311949984234185	-0.20425730892109797	-0.8839663840864062	-0.29711693450299514	0.3521883478809515	0.06540563686069976	-0.12478538571085279	-0.39087960025328194	-0.09911413465748334	-0.21089722162882873	-0.427350221985467	-0.3925735344511994	-0.35285174757562665
-152	0.4349278498635979	0.5381587134125506	1.006000039421764	0.1366474475986858	-0.20834028668254848	0.20817179925335502	0.46151560428446164	0.9052454210314306	0.20097178170008403	0.06271974726577353	0.2951217882334658	0.630749760465768	1.2581888405504904	-0.2021932894847045	-0.012852461044823547	0.7241516094998179	0.6244244559735286	0.6335103495815704	-0.6101937278600437	-0.03626914313219173	0.7363047581202572	0.4320141066134318	0.058445691914816744	-0.5001205789336975	-0.07877527902503045	0.5533614144659338	0.22607424798153977	0.020449880458937635	-0.08950381703428993	-0.004576997819908005	-0.08950449503712254	-0.03168841443405923	-0.20702835865203204	-0.39134845038790145
-148	0.6382574422934316	0.4663767206814902	0.8145249465404766	0.18117923988852128	-0.19002114188379102	0.21739202682922018	0.579037068812425	1.017412421518805	0.2441174679791674	-0.02409437292691475	0.34610387595531905	0.6681549532233493	1.1792523831158135	-0.08688309766768045	-0.011446196556994763	0.733485041196987	0.696876702933396	0.9146356559549271	-0.19399633954659853	-0.020516307972726945	0.7012794000086146	0.4938824760365444	0.2881090633747674	-0.16288223821524198	0.02437355549440236	0.5941517934103419	0.26046499544186114	0.17964370503369453	0.16005551774622825	0.04505130264709586	-0.020531933702844393	0.3350813678387696	-0.02409899601216347	-0.3835486759992535
-144	0.4673715222002799	0.2728745334411545	0.3411009303064055	0.020823251403448605	-0.44502559191879204	-0.11256877304504913	0.5169445263208782	0.9814381574647338	0.010218834478685053	-0.38141089581513676	0.0834036094824765	0.45200702433906237	0.8224087336757233	-0.1726240213327362	-0.2609108381836554	0.4910296785355073	0.532987414444894	0.9486281251798648	0.04446034122209139	-0.1935448939682095	0.47967660305986803	0.3418321600866638	0.4204350401276973	0.01644913103003747	-0.0529578885589116	0.44504305607966715	0.15845636983442557	0.310791670491419	0.2443351292401764	-0.0129795092761641	-0.04415686417398369	0.5068997727947555	0.04393460963004829	-0.37645521664941073
-140	0.02680440985349465	0.06267231686981327	-0.23812048077068315	-0.2687304013143188	-0.7931597808839692	-0.5734581336801786	0.34775602729735444	0.8271619656659808	-0.4320732046185774	-0.8266200402370512	-0.3305856279132916	0.1034975719819074	0.3255896560077991	-0.42395210159075664	-0.6374344213604509	0.1243311089118441	0.2310224765666877	0.752062736042966	0.07012539339241985	-0.4812681066759976	0.16465383726510568	0.06615267677294484	0.42749851834129377	-0.0002703712664237622	-0.2786253981708213	0.16651943283954285	-0.02751546904948287	0.3756155064159351	0.1238639277072741	-0.18835806799062813	-0.16215705830641308	0.4030800153569088	-0.06417381002197863	-0.41734182729256564
-136	-0.4373061645910985	-0.03518657377419192	-0.6797797662738334	-0.5376810417905267	-0.984477338689513	-0.8727073647399851	0.20302727767229614	0.6383643730258887	-0.893785474427979	-1.1104568214990393	-0.6441572292276938	-0.18656468344315402	-0.10022326533524412	-0.7174488883978137	-0.9424425935792708	-0.17804416969170178	-0.04916659730180393	0.4322240937764454	-0.07615458946074329	-0.7488443236517998	-0.11592813551959216	-0.1932872826941407	0.3160926393634571	-0.17183642045982386	-0.5498847351496079	-0.13566902245600684	-0.22276860419296496	0.3421718767587034	-0.15625603457577494	-0.4443587351547286	-0.35089746028998764	0.056809041505674125	-0.3360303631881649	-0.5345688448760819
-132	-0.6552555544522062	0.06233164652345963	-0.7969833592320121	-0.6404057724996469	-0.8387377240939387	-0.793024895573183	0.1934499288681609	0.5061246739960533	-1.1636877030556234	-1.0503753397171367	-0.6572630388831728	-0.2638134949699213	-0.279438405523505	-0.9086859203284693	-1.0141627762938552	-0.2755047373968399	-0.17828056171228415	0.12354446916382636	-0.29906687064957654	-0.8762577750017121	-0.27617528964887006	-0.3308721474400035	0.11345483334030121	-0.4040365804961716	-0.7540888767277004	-0.3761083474200161	-0.37862855100404624	0.1889707143304052	-0.4939937281057368	-0.7247472983181992	-0.5815357551197455	-0.40749966995352305	-0.6959401947570496	-0.7263336759348911
-128	-0.4735562491381714	0.3437643638514693	-0.5551325664809629	-0.5119475113341048	-0.3516962817372506	-0.3171111039261628	0.3357921234235992	0.4775875198704098	-1.1176865072641724	-0.6330221875420924	-0.33670666728840143	-0.10017661725024456	-0.1640200163753256	-0.9078196264234909	-0.8181729296054545	-0.1575254346923515	-0.13215027716173683	-0.08262155929209489	-0.4904021608368963	-0.8236031511493617	-0.32127115049311333	-0.3351154020908504	-0.14731326662063873	-0.5959641322348066	-0.8280606844976351	-0.5358006940665448	-0.4981194423973833	-0.08587021358982773	-0.7801443318697414	-0.9819026564602956	-0.8324228504145087	-0.8333889224945891	-1.0400129530398081	-0.961019334750936
-124	0.059774637071373586	0.7016643268036021	-0.08474910237849735	-0.20215752669792955	0.2918571822427152	0.35377007633536256	0.5341901765687799	0.5316229449201407	-0.7803574184742754	-0.029072826654822925	0.1609775717962532	0.18658368242362822	0.14384284579199835	-0.7241478544072065	-0.466224848046986	0.050220798574252566	-0.0035576985593468897	-0.17507845119142276	-0.5775769934376933	-0.6503325088294123	-0.33908900532941416	-0.2885444753037523	-0.43323215732866405	-0.6854744536259413	-0.7842411975133895	-0.6610627753733659	-0.622926889277328	-0.4526615429416884	-0.9438939666758873	-1.1890161007425297	-1.0852246257085576	-1.0970394583661058	-1.2762962547503791	-1.1866248816094678
-120	0.7114413362660696	0.9801817511606855	0.3944512297684954	0.15111750326150086	0.8080095628365284	0.9014048553596695	0.6334731562833245	0.596532164498082	-0.30641126555329024	0.48954424138448777	0.5735998735250967	0.39872619409028276	0.4507053483074214	-0.45672175172889223	-0.1528536524489739	0.16068425734005404	0.057520214323016156	-0.209498181410193	-0.5565803632989017	-0.47859582184120697	-0.439543782554962	-0.3084972791035503	-0.7092082482551977	-0.6711063964112406	-0.6922456604646195	-0.8188275674173698	-0.7919396738084974	-0.8444495775836985	-0.9733656024199601	-1.334326979129317	-1.312484261060075	-1.1483031482314896	-1.3538004125747194	-1.3467487062784362
-116	1.1754720181351237	1.04865228865032	0.695375857981741	0.39619108934509634	0.9613925790355772	1.0595829460095025	0.5174573646832308	0.5989231452125654	0.10622348609569926	0.6883001906183187	0.6790359003089146	0.3756363382392315	0.5802233204497498	-0.2359040224556615	-0.044575896001567625	0.040126915919797904	-0.057724144164019685	-0.2563413971150988	-0.48754218097618185	-0.4209584881167932	-0.6764420849887727	-0.4638122606488261	-0.93392544749024	-0.5983962997587258	-0.627837358320106	-1.0365916464383387	-0.9981662605833576	-1.1660612792138763	-0.9025998092751096	-1.4051146471787448	-1.468826051818304	-1.0121133301930725	-1.2692013946913876	-1.3965190613773877
-112	1.229928490394485	0.8649995305156711	0.7547358851451037	0.44865557438109327	0.6917365771948782	0.758079526894627	0.19276449035613566	0.512748836176442	0.32098138251326935	0.49128627653061746	0.42061206592223327	0.0944383440017547	0.4688129413212439	-0.14888015351853817	-0.18427333189216116	-0.30430751962125424	-0.33952939424622525	-0.3446202865482829	-0.45111763363429186	-0.5128878342077072	-0.9996935103925815	-0.7194937449409602	-1.0623027059437369	-0.5200319277031589	-0.6209431274949219	-1.2666736809221346	-1.1745604247002304	-1.3212619986554062	-0.7772583345816482	-1.377883430816833	-1.4983067474683598	-0.7576585392896412	-1.0545046302874608	-1.314044233819198
-108	0.8538888671297213	0.49747133129405446	0.6423951371186477	0.33508238111772815	0.15013444385770233	0.16193196136598714	-0.1973201478506228	0.376196949724251	0.32669305718909536	0.020510548673940063	-0.05871842041687857	-0.3067845992448983	0.19365176509602197	-0.19047234904360152	-0.4650926876246583	-0.7166922074343005	-0.6525872333262831	-0.43795707711272475	-0.48799061652001735	-0.6894534212825213	-1.2694882122413225	-0.9456127262082911	-1.0588124963730812	-0.4540981042841155	-0.6343747361379207	-1.400835629741123	-1.2225348918566334	-1.2513213126060982	-0.6236339791765132	-1.2267477481387217	-1.3602832521427024	-0.4582256067151008	-0.7584469895287395	-1.1063852282247122
-104	0.24238885877923944	0.09407953894227394	0.49241185063971415	0.17581526890711466	-0.3743915846432073	-0.4148796488300778	-0.4432004380957329	0.2659919255216722	0.22937871457838327	-0.46600806595448524	-0.4918879556157836	-0.5991662129533457	-0.07944885621277534	-0.266641258520216	-0.688003955534533	-0.9705837940506712	-0.8064383247995712	-0.4562028336927878	-0.5581720457289652	-0.819261668044173	-1.3266005482558803	-0.9869433616515791	-0.9136249399960226	-0.366928278473467	-0.5853552207473094	-1.3285213675335623	-1.067668912099317	-0.9652817820973522	-0.43903788813370814	-0.945111868379508	-1.0579800579062497	-0.16487231808997826	-0.43163606415489836	-0.8086245635597681
-100	-0.2914351813587709	-0.18447235180056373	0.403063624079637	0.11508168251069333	-0.6009460076418454	-0.6744679791587959	-0.3865532865301503	0.24525748131342445	0.1788376863255931	-0.7054313999485406	-0.6314795597345553	-0.5900136813526133	-0.19490155528451694	-0.25056922372497853	-0.6723526699257026	-0.8924269057630435	-0.6656336767557158	-0.32915404355869066	-0.5499843941154207	-0.7788178305036142	-1.0824090215057665	-0.7549926023495032	-0.6522318108303848	-0.19524727712450254	-0.39938557047144574	-1.007088539441904	-0.7115068417705125	-0.5450734482354856	-0.20946395344301716	-0.5673955068568012	-0.6521068198906064	0.09492371207351587	-0.12088641493793995	-0.4766002881414875
-96	-0.4785369324523176	-0.23578569233491992	0.37415638471551743	0.2366585725531293	-0.3990587582049674	-0.4892519402072472	-0.01834449353652934	0.31751191535894296	0.27593156625699883	-0.5617489800575503	-0.3826620271081358	-0.23564192593208463	-0.09463212615201085	-0.059602849034984036	-0.35807663111880106	-0.4618819940349709	-0.23644798934366953	-0.048302702483771734	-0.3420645883983786	-0.5258442150191117	-0.5779945239732908	-0.2890489392135352	-0.3302350333936079	0.10301624957540015	-0.0654051525729622	-0.5024514185617543	-0.24683880743648431	-0.1177687492973509	0.05851870760448225	-0.17329971448536524	-0.24673160848312642	0.29997304006180897	0.13007910516798837	-0.17413482026004362
-92	-0.234414487485324	-0.05966522157029371	0.32025977888311796	0.5116835819677057	0.14628025852464452	0.03698246544203055	0.5019507395469052	0.4166694272965521	0.5129632936878024	-0.09092253423623246	0.1466267403238491	0.32483890570642615	0.15379372200283672	0.2889343790865661	0.1558948751328315	0.16709397691024344	0.32148983993424207	0.3148086659112697	0.10934685888101114	-0.13109642234128507	0.02211301954468059	0.25000300940336423	-0.01390383668458794	0.4986497151182888	0.33977267060326183	0.025475842813902146	0.17533098116953733	0.1945722247218032	0.3146169475718337	0.1328051384910695	0.048536211129670374	0.4177381385746766	0.28098639774905837	0.04304076347809208
-88	0.2999508969363308	0.24346905885261538	0.145772203435023	0.8076945522896858	0.7787129263290744	0.6305186136539126	0.9205929613712523	0.440625606854904	0.7774831633011734	0.4909703421117832	0.7031220179925488	0.8349943139929162	0.3991741825992835	0.6741839034225136	0.6569780690772212	0.7365968804835639	0.7677710632967023	0.6354999526191497	0.7114355546155411	0.24954736169752917	0.5000609742890726	0.651483176493896	0.2419137501569343	0.8755731560535505	0.6732713563133063	0.388182579490972	0.41090431705681985	0.3225882343253898	0.46882471323855734	0.2598260038491599	0.16206783015340961	0.40392112629953314	0.30200859828039406	0.14258082175019413
-84	0.8348253944300492	0.517989514950442	-0.17407384470859233	0.9546197628714941	1.1982766359593224	0.992794093963315	1.0172513697690284	0.30811396163396754	0.9147037244590888	0.9159126854660157	1.0177032921845746	1.0494098636835025	0.4897962200196395	0.9239001846829097	0.9223589873868436	1.0077421639748607	0.8985934830866468	0.7926193455711552	1.2467893330566884	0.44884216672109156	0.6823890191969332	0.7536200265930809	0.4067940701704535	1.0674145194760578	0.7858957032388876	0.4513197529842149	0.38627719781624775	0.2714457803071732	0.4259431053374846	0.16709454315436736	0.08689687379116938	0.22359019461447463	0.18619552207666967	0.12516233293404128
-80	1.0840126248647548	0.6188725217452974	-0.5603000507513635	0.8329159596394905	1.2053503959741168	0.9483606791394329	0.7156618219426698	0.006336673146878998	0.8108908513576962	0.9903428529531159	0.9353669262158486	0.8546121098876	0.3497462859860246	0.8961323477054398	0.8248032906688841	0.8705971815063296	0.6452566368978001	0.723795650562118	1.4611824714008959	0.3682970991372779	0.5151714669572212	0.516643582470167	0.4740459310960873	0.9342634654299078	0.5912712797495542	0.19330231796574732	0.12767048147869603	0.10761716934689933	0.1355038430845901	-0.11779694974483906	-0.1223341596018148	-0.11679266363697349	-0.03958429013629394	0.024457536576033705
-76	0.9096327401083358	0.468590228566603	-0.867624340251018	0.43555480131808494	0.7875165323401726	0.5191766606574362	0.11814150929425447	-0.39835947651422804	0.45126601939708555	0.6764304620830708	0.4792025375188439	0.31951469102298435	0.0081612951847494	0.548980234667425	0.38682678244201163	0.386064617851193	0.10292533014060544	0.45059829836567505	1.1895647018916573	0.0232054609219464	0.08016452173020597	0.03495274102803814	0.45036056524058865	0.44176694639250397	0.10994664551871039	-0.2880759231923559	-0.2563175254549265	-0.080318376219144	-0.3699332764345538	-0.5089340793158035	-0.37776493930807603	-0.5490759001220479	-0.3140216759859648	-0.10328163925559253
-72	0.3817140152353767	0.08385028668929553	-0.9693425869310022	-0.12804196742632076	0.11149957747918704	-0.10551016006057015	-0.5512691722303105	-0.7916862944641969	-0.07561710457783821	0.09422799176029284	-0.17711928442105715	-0.3473860612681677	-0.4266036440092178	-0.03775050854092532	-0.23944255649194698	-0.25581699545168884	-0.5221270905663689	0.06355574711012127	0.4513749468851376	-0.4681253123385287	-0.45148116236185915	-0.5135265575795077	0.34584724815788653	-0.30225732846241377	-0.5327332006355688	-0.8211669901142526	-0.6268946512607185	-0.2244544619615357	-0.9709963177961201	-0.8939927197773397	-0.595955489561336	-0.953166422821605	-0.5564362988728434	-0.19818207571538238
-68	-0.27219909360826505	-0.4350144852145602	-0.833842275421606	-0.6845737082363698	-0.5667994604105522	-0.6761881692026706	-1.0587717267961576	-1.0645805570427223	-0.6221744998482278	-0.5461851344623847	-0.802719531416779	-0.9042828656253831	-0.8248155692256769	-0.696301160484898	-0.84844261193641	-0.8316420891745671	-1.0131411526849845	-0.3202161482832525	-0.5387302027452142	-0.9411421394428447	-0.8991427994915099	-0.9488731598739178	0.1746540512205323	-1.0771753760798322	-1.1527568072778622	-1.231989619005614	-0.8722321965130354	-0.2999012760696806	-1.4975846968033737	-1.1719547480558081	-0.7241014223890437	-1.1982934444691067	-0.693693516887203	-0.21763338093646756
-64	-0.7943002561542221	-0.9444519853588657	-0.5423595295564245	-1.076773998402928	-1.0229486201208553	-1.0032929156721901	-1.2640680042777124	-1.1593453854854099	-1.0465066406531127	-1.0415472958017424	-1.213666316782894	-1.1850919693590045	-1.0899322005410323	-1.2398421733070772	-1.2692811457058957	-1.1807265251866768	-1.235270854692215	-0.603024540809205	-1.4531915151146135	-1.2551364866992492	-1.1441647977551825	-1.157920596060296	-0.036194570271185396	-1.63371741359224	-1.5750433166792206	-1.407131787562141	-0.9417753195826951	-0.31860253134396715	-1.7903296902277768	-1.2803661790946566	-0.745002446677857	-1.198123213604058	-0.6876481158061223	-0.15107856652739965
-60	-1.0268237564864988	-1.3088046279288013	-0.23974774717358766	-1.2282803027613172	-1.1531797618361206	-1.028226372983812	-1.1634235352706457	-1.0857189866310766	-1.2633970943978143	-1.2723494736018963	-1.3357719149243141	-1.1567587823272676	-1.184392568458976	-1.531764741844946	-1.422303196177096	-1.2554007736935158	-1.1753969162828963	-0.7353427391560113	-1.9899494597738343	-1.3413693871010388	-1.1607625455160115	-1.1205307216963836	-0.24010187326846535	-1.7939130022533367	-1.6924343066401	-1.3222429718966429	-0.8464479425040377	-0.30419757885424364	-1.7597005322850885	-1.2040765255091934	-0.6657686216711466	-0.951297876817259	-0.5502505288536709	-0.022541884275982492
-56	-0.9737689470501367	-1.4436546527653398	-0.052450369911091706	-1.1622309655409906	-0.9948058699286948	-0.8180550912230311	-0.8602616765237268	-0.9032351947868111	-1.2618026701540983	-1.2291815249880456	-1.2045476406203086	-0.9041976309835694	-1.1233774395236689	-1.52579247566282	-1.3240406479785298	-1.1103790970424485	-0.9184233523069059	-0.7189397197691718	-1.9984215447515288	-1.2102932899435708	-1.0001767848512002	-0.8908048249642214	-0.3766476204422599	-1.5192466935901132	-1.4931346140356785	-1.0312207911204778	-0.6340428574766492	-0.26841738752307115	-1.4162386620050906	-0.9685177778586828	-0.5035744296711322	-0.5453686104356682	-0.3387463680297879	0.11953389614443395
-52	-0.7678590993568133	-1.3377382721504896	-0.02433376566882495	-0.9700813268964832	-0.6785879714045584	-0.5013822900511175	-0.4921931910009077	-0.6857731921048013	-1.0881946059409273	-0.987043020617392	-0.9173488593782527	-0.5638108835290595	-0.951380190831486	-1.2644928661845987	-1.0498403284269837	-0.8498969652652577	-0.584499894096942	-0.5915466532077212	-1.5317573508690125	-0.9221884584985718	-0.7461705188985712	-0.5540251121838321	-0.3939835121221238	-0.9156956053502918	-1.0493612262934886	-0.6295048578581323	-0.35922890810868974	-0.20577897079488827	-0.8589269497166413	-0.6250833257152123	-0.27965232659306377	-0.11839123785407166	-0.13116125729347583	0.22149951700077267
-48	-0.5727110490644501	-1.0513225767295158	-0.10659836205748702	-0.7535719852495132	-0.3482590010910217	-0.19214256059295826	-0.16304530162177455	-0.4904274928108619	-0.8140737393806661	-0.6524414999701752	-0.5754305109754613	-0.25098553236536114	-0.7210632544432232	-0.845457909356818	-0.6847538334724262	-0.570420919408672	-0.2687653594383913	-0.4074030508245861	-0.803395805714693	-0.5457001314690719	-0.47195410609297633	-0.18788188648471976	-0.2769842140833969	-0.17631824270078192	-0.4787121999098371	-0.21382191723244465	-0.065017692580578	-0.10702645751634422	-0.22903433384290173	-0.23560495615125604	-0.02181009570218082	0.20520062692809285	0.008818153269676993	0.2473761433077778
-44	-0.48558232065627044	-0.6919813734703527	-0.20399683662408713	-0.5760924205540209	-0.094416051864665	0.054487377267599224	0.08404938110350388	-0.34588432224684323	-0.5087001310856507	-0.3161090008384066	-0.2495035075802464	-0.021400328671545763	-0.48365765687900997	-0.37881037497247455	-0.2931622855414221	-0.3303178838496365	-0.015203055887283259	-0.22264854553752925	-0.07598289083132066	-0.13203628327889172	-0.22096706871033842	0.15342639347917458	-0.06200671180328697	0.5042613732004342	0.09920959149585012	0.1436610814282147	0.21855524127139747	0.021578373332975784	0.34562596591471656	0.13983112538319692	0.23275934100989623	0.3704119017308918	0.060673948224183843	0.19505980561599606
-40	-0.49681502455208965	-0.37738731408205495	-0.24258859394337748	-0.4484009135369334	0.06675376726224526	0.23860852360087187	0.24844281312682392	-0.2604482167343992	-0.22827807011190096	-0.03115866325379425	0.022368768173604895	0.12217806993870334	-0.2867132120046191	0.04277715448665787	0.08280359932735992	-0.15277630052141192	0.17086309151426035	-0.08697835334037163	0.45255198960486787	0.28430247235044254	-0.013728964107839052	0.43336811552305343	0.173511057654044	0.9982010100911739	0.5919610246971535	0.4021918465473531	0.4658895421186486	0.14999255500117276	0.7887279371375291	0.45171168332494593	0.4429451216004821	0.40865263239682487	0.054481055449978694	0.09830194686866325
-36	-0.5215212093537567	-0.19727384994291042	-0.21326011365453262	-0.3472982636266352	0.17243917242859322	0.3819422116173231	0.33536863242353926	-0.2361431562898966	-0.015216795689191872	0.18488620174935558	0.2194225633564956	0.1968086207904519	-0.16908711152301673	0.3562421491688581	0.40923127428684347	-0.044953353589525694	0.292958735680028	-0.0356598868065777	0.7115687113916331	0.6691868884357401	0.135295614258593	0.6219305380377781	0.3467397681064998	1.2674324480482095	0.9443294978141614	0.5481643662917992	0.651089726234727	0.2376517200430306	1.0826033326472435	0.6696445925018149	0.5806697592379904	0.40904509917935755	0.05488809184283187	0.015960890759463442
-32	-0.4729281949977588	-0.18582571996025563	-0.16618290501599065	-0.24962830480492978	0.27127575805838067	0.4942030000130148	0.33407494341427807	-0.27513939072761157	0.10168326620416997	0.3356202534308233	0.325447051895534	0.20969769305691371	-0.1497997637781335	0.527743397810795	0.6495882852366257	-0.01306995839305982	0.3425777545862767	-0.07983423749317822	0.7466573100312228	0.9755107735800103	0.207342162204821	0.6930150968220824	0.4109411229248757	1.3394908871210403	1.1324260206241754	0.5868157133545534	0.7521921377264468	0.25929498607019663	1.2453114954978586	0.7863754610234734	0.6474313123569397	0.45852348092661377	0.12593534557018163	0.00865846963275916
-28	-0.3267136207914909	-0.31465503493974906	-0.16806551771646822	-0.15681806167110432	0.38722833893284964	0.561076222433669	0.22464714887644688	-0.3756882538846998	0.1121746224313058	0.4315626014303982	0.3294384471205184	0.1510931845664939	-0.21841973011184276	0.5491065369093852	0.7691919188152708	-0.06240846945980055	0.30036985798339927	-0.19902373800096948	0.6561588032368519	1.1479476661309467	0.18362481845748108	0.6329579337351868	0.37815961146245985	1.2618690697282104	1.1522572011466163	0.5342032299859528	0.7594597916502058	0.22391313257905235	1.2957640853591865	0.8134340623345515	0.6748609525808078	0.5834514483979899	0.2920865707175541	0.11033660890616881
-24	-0.13456644083857425	-0.5072562681742571	-0.25240838463952453	-0.09272807068062945	0.5097615109924865	0.5581616745208005	0.005629475214275387	-0.5225977288403271	0.03404608360277787	0.4848283219017654	0.2374341630901497	0.011165032135073371	-0.33826154385040896	0.43984162696415263	0.7540326099431744	-0.18487811041884775	0.15582285782096347	-0.34388750704726434	0.524981318578877	1.1469110221516303	0.06061961114002766	0.45271968727252	0.30715471428569663	1.0693196031275591	1.0138287518653772	0.41131612554653335	0.6798036081316834	0.17047615306251665	1.2306172816677703	0.768647966828424	0.7030134183300422	0.7266083937419672	0.5152311312064907	0.30673724335474384
-20	0.018340373365469644	-0.6711534244758496	-0.3952124108826777	-0.08044473061516821	0.6078878625780847	0.47437104463019386	-0.28352501916827766	-0.6831573826707927	-0.08404194542408691	0.5088464604882049	0.08044149706319731	-0.1976459170358202	-0.465360491292958	0.25062632497452914	0.6273288710968109	-0.34983661682495365	-0.07352992873700798	-0.45373856906773813	0.39241161843407585	0.9759464239275737	-0.1379754539820898	0.1907542194080327	0.261918126875494	0.7817194442085991	0.7423960547776992	0.23825746714519233	0.5311019407214744	0.13938742840860913	1.0267827484909968	0.6609464867117026	0.7455443721067866	0.7739102820884227	0.7015255671909154	0.5312469588218468
-16	0.07581467162302803	-0.7358729820745944	-0.5298418389294594	-0.11722213745323765	0.6529024226870596	0.3241238287848612	-0.5682348594624091	-0.8175827244143787	-0.173117890516937	0.5168344961469006	-0.09321163571189071	-0.4336858976858711	-0.5746325835978677	0.05901591837407233	0.4486276198027642	-0.5100352751252486	-0.3401041022296986	-0.4849094736254222	0.2673715644284826	0.6933900696414177	-0.36277034787140067	-0.09833066885679187	0.2660178833444064	0.4285663653520712	0.38389530681006967	0.030925171371701914	0.33096519029026295	0.13827301526921848	0.6701056940326331	0.48554557439285917	0.7674641589815288	0.6215662344498306	0.7420912366250875	0.6864724737955407
-12	0.04665201518081995	-0.6817965490293616	-0.5898044094453353	-0.16854143100147576	0.6325813515904467	0.1392788883507472	-0.7729497532402925	-0.8990367032240775	-0.1704659904706081	0.5150085674634612	-0.24025969146627094	-0.6421592219352223	-0.677575824934183	-0.05200279490931302	0.28955972121564827	-0.6231508239271837	-0.5853415712836902	-0.4358727324925142	0.16110034246301935	0.3945759822896953	-0.5565647468820101	-0.36472046283191595	0.2819651358161216	0.07093963009089892	0.0038401568211517993	-0.19848495671704383	0.08858363307999009	0.12642803756265109	0.18915325355456894	0.23472529590472058	0.695137499007886	0.2457489812130014	0.570097564211582	0.6856147033547436
-8	-0.009251780784613453	-0.5480613098612428	-0.550499676268203	-0.18778333020483248	0.5500269518316828	-0.05256095887861263	-0.8625772573627596	-0.9299072003728521	-0.050800360610972525	0.49400353306977757	-0.34693941386367094	-0.7848771790715372	-0.8151698091906734	-0.02952781870956712	0.19720564732829837	-0.6768215877610995	-0.768712935891065	-0.35297924191047936	0.0990939957381807	0.1702423389428143	-0.6802039129249842	-0.582288084944201	0.23026497603931095	-0.20455953427166854	-0.3269294492096777	-0.4375445831695981	-0.1933497483617076	0.03296148396157052	-0.3312625280599743	-0.08105830827751755	0.45949742081978473	-0.2663701169918173	0.20559903927392686	0.49635761850923815
-4	-0.031248900960466064	-0.4156147529122367	-0.44086134322439546	-0.14802226386845194	0.4138398458045964	-0.24427631435709277	-0.8624330141227674	-0.9417710280482822	0.1572488542401308	0.4280351687591741	-0.43703341373729493	-0.8619077779943327	-1.0250022385467616	0.11911874234404092	0.1685104365862708	-0.6982755047334532	-0.8858594275996932	-0.30883231681098683	0.10550077977962231	0.0646026654400548	-0.7300195079492058	-0.7524843792990427	0.039889372784516215	-0.32061713852996654	-0.5546120391194536	-0.6674059612589927	-0.505307315504312	-0.19685724327930465	-0.7700349669088454	-0.4155447770594471	0.05135720582750982	-0.7441158275890616	-0.23724971651735793	0.1665778900947587
0	-0.007933903465505395	-0.37126430775367253	-0.32310175814115566	-0.06544288231300975	0.23002512694934035	-0.44724506026836724	-0.8432154038120953	-0.9771884655122675	0.37950545453576784	0.2861620776580949	-0.5560626373556898	-0.9104899145026866	-1.3040902581668392	0.3212952009672195	0.1523814048496108	-0.739907322446031	-0.9650199388935149	-0.3633936932448879	0.1707968409517598	0.057475220266904936	-0.736903546380159	-0.8926339126938257	-0.2998716823636243	-0.2542565756577312	-0.6626883132415762	-0.8599975087387491	-0.8172855952609236	-0.5551925287534555	-1.0179021332790432	-0.6896888596287897	-0.4477266657969365	-1.0099486087095852	-0.5915815219248267	-0.18561190319882495
4	0.010600763346312561	-0.46781328202391737	-0.25542187626247037	0.002370022464147785	0.0027576007344986466	-0.6736286861578326	-0.8802301265427388	-1.063952443297665	0.5270304070517919	0.05133128153238828	-0.7412371020676126	-0.9823966001503023	-1.593277092725714	0.4660647797738458	0.07901438305694325	-0.849289415122596	-1.0462478372861514	-0.5298243747685842	0.23156239033886122	0.07987667600015115	-0.7490259986086165	-1.0189902756713154	-0.7201338392195871	-0.061768259697174754	-0.6793318969741219	-0.9853040551104604	-1.0794872018262536	-0.9580569243084337	-1.0313643191047346	-0.8232980349735268	-0.8876170493603923	-0.9686117147786116	-0.7154880744035882	-0.42125329268910794
8	-0.05170512931405625	-0.6998290997956014	-0.2637591653363457	-0.015672773083217528	-0.2586908631946009	-0.9180671549506274	-1.0122637723161059	-1.1981817453650796	0.533349572265635	-0.2653451257205251	-0.9973914002032338	-1.1148761482701082	-1.800519461854272	0.45388987545811843	-0.10115760539264237	-1.043497917401737	-1.1584075660068816	-0.7665991763787321	0.19059453856508257	0.052816968277857174	-0.810313580374504	-1.138289687143795	-1.100854394040678	0.13893015647620804	-0.6670980436648605	-1.0299802992565443	-1.2439599005763442	-1.279917832957788	-0.8631625153683316	-0.7841227034798752	-1.1234307260759635	-0.6630939824528933	-0.570598898877522	-0.4509633768140026
12	-0.2388267809083271	-1.0053817008384252	-0.34138801607724134	-0.16645182627137703	-0.5354672060798685	-1.154567715590856	-1.2259274690193938	-1.348373528890911	0.37979224228338054	-0.6250405295803716	-1.2940602269879389	-1.3131967749819211	-1.8548597050566145	0.24698424276936906	-0.39089232584490935	-1.302494880248809	-1.3080060449001167	-1.00207888827047	-0.023869423135455217	-0.07179495674126629	-0.9443895792959434	-1.2517722813473302	-1.3329074349129304	0.22680178227383135	-0.6956685167868493	-1.0148923371440641	-1.2954795327857471	-1.4208512270340334	-0.6451851709288948	-0.6225948318021226	-1.100482580267508	-0.26170605354991855	-0.2550877922293478	-0.2884698800910042
16	-0.5253487812129896	-1.2942044702279312	-0.4720220255855264	-0.4477713692804052	-0.8045806864451915	-1.3541156019354958	-1.4745770655595825	-1.4799644909686491	0.09687457954266954	-0.9788781379780942	-1.5859979351055424	-1.5551485976056096	-1.7605470374480514	-0.10819701078039097	-0.7471854071825995	-1.5851124485049948	-1.4854266606020752	-1.1775062054468823	-0.3966486742018817	-0.29197570607855183	-1.1503218383356457	-1.366690989858458	-1.3783647979268239	0.14495168589711657	-0.8095067719048613	-0.9969466303450428	-1.2713063923209607	-1.3676664794723892	-0.5269565568971016	-0.4633184063657865	-0.8974080659143466	0.022534437420694668	0.03524786597531777	-0.05328213782567107
20	-0.8283751586026761	-1.4912767372627203	-0.6575838906851887	-0.8117464760312867	-1.0542404625024833	-1.5124415121039987	-1.7172261433160931	-1.584920163921435	-0.2584053271445253	-1.29514062077641	-1.8448368264350692	-1.8125849916471126	-1.6148575503586067	-0.5023755418491469	-1.1092892857201269	-1.8577115488833376	-1.6812630849352115	-1.2823191848804363	-0.8077889660467716	-0.5680439457856755	-1.4099692070648648	-1.5039386711296776	-1.2932130065692407	-0.06468112750412292	-1.0078700755422256	-1.0489774915913936	-1.2525634734000812	-1.21037923984112	-0.6000954493630479	-0.44808801895497496	-0.6945625526058342	0.03986413766809815	0.10536228093725578	0.08607520141327335
24	-1.0614645454310216	-1.573706384500284	-0.9273577309083111	-1.1915976971105235	-1.2967305150671347	-1.6653108554756701	-1.9481264303612997	-1.69435548354565	-0.6328629239316547	-1.5773210485689166	-2.079126829620094	-2.071336502567619	-1.5703155954768626	-0.8168565610289135	-1.4337682687799855	-2.1142995304132497	-1.896710033396387	-1.3576252426202995	-1.0808579894433372	-0.8534799196629499	-1.6975063042698115	-1.6902556376697706	-1.1965057819675167	-0.2820034318002931	-1.2457056014081183	-1.221768256917468	-1.3239942755650116	-1.097922799199447	-0.8471617677280655	-0.6536608917899115	-0.6742859465741114	-0.21568782573126608	-0.1270236518752266	0.006219879708381644
28	-1.1953562467912808	-1.5819683035010312	-1.316608187212383	-1.5338827332870473	-1.5663013418706646	-1.8764983368226609	-2.1967344228595405	-1.8623326969811063	-0.996567127572716	-1.8605072451348241	-2.3291773737275467	-2.3359310568007055	-1.7557492211836143	-0.9820089315416619	-1.714761729679432	-2.375560992918911	-2.1400213187546804	-1.4649041854112748	-1.080811736239108	-1.1228436203264083	-1.986134166471394	-1.9382826040922077	-1.2029273479608251	-0.37764745855352033	-1.455657955309192	-1.508552428251513	-1.5228154620823846	-1.1543717355193295	-1.145547983138348	-1.0323339674634926	-0.9078479982343324	-0.5977150782753078	-0.5690767154630912	-0.2900598935910182
32	-1.2800899711714648	-1.5990890224137992	-1.826142664113493	-1.816768403234756	-1.89876102921793	-2.200324768233166	-2.4970083173650934	-2.1264176315026493	-1.3420026268455336	-2.1859652940872913	-2.638490908636913	-2.6158640318629853	-2.1970601026377707	-1.0102651093725437	-1.9775350043913593	-2.6680858067860695	-2.411485904327233	-1.6386473137491657	-0.8057158569020728	-1.3790593112459932	-2.251379007377338	-2.227933162786264	-1.3572572435443853	-0.2925620965723716	-1.58160459595953	-1.8368555261012163	-1.8084328128932525	-1.403767463000933	-1.3304201330927332	-1.419249054186516	-1.3003085818839675	-0.8825231768261034	-0.9859652494332845	-0.657934723623451
36	-1.407820936463294	-1.7043145851974466	-2.386381143266959	-2.0426337667392076	-2.2989456595552173	-2.6362430982788183	-2.8447348999680035	-2.4661211905204685	-1.663820500941469	-2.564255946360959	-3.0155842228093555	-2.9013655112447023	-2.7838506628322928	-0.9820474361420896	-2.247521394777214	-2.9948496742929795	-2.686663859259917	-1.8520863009422177	-0.4104939390785774	-1.6339048105949407	-2.470815652331126	-2.5023653444054013	-1.606968518014633	-0.07859820852701102	-1.604016061547783	-2.096627945374858	-2.0742623753629665	-1.748288388606626	-1.2835730281847657	-1.6126104552562477	-1.6329318243760838	-0.8888821579425559	-1.1214807005224152	-0.8784837104552291
40	-1.6383918482423034	-1.9231413554274328	-2.8525521683198485	-2.2137477342026943	-2.715545170603624	-3.1040539663146283	-3.1730642238613416	-2.7872297693453674	-1.9357687186005077	-2.9492769166870922	-3.409689417813481	-3.147036782902274	-3.3058285629731654	-0.9934876536081704	-2.515505545940829	-3.3167605316345297	-2.9120144770533876	-2.0203685709488646	-0.13787905837057018	-1.87672888758807	-2.6244380407829886	-2.6859557560817726	-1.8289649440364821	0.12614570526222407	-1.5437388381129322	-2.194254154387409	-2.2005228940718995	-2.0168511816602597	-0.9997080539258699	-1.4893246851512547	-1.6880875783261844	-0.5789206013368279	-0.8472243526049217	-0.7824577669415678
44	-1.9394265364318488	-2.200381035017692	-3.048639051369699	-2.3128883780258747	-3.0445561332128928	-3.461583844028285	-3.3669407282699217	-2.9497427865894807	-2.105916971611782	-3.2428903497836803	-3.7185203935199636	-3.2786896146011326	-3.5453762918605527	-1.0975769730513332	-2.724336617267219	-3.559895744872601	-3.020606033328293	-2.042295689194895	-0.18869614553494057	-2.0567417092847653	-2.6990683010620944	-2.7182462146794464	-1.895551319104879	0.17530323520746444	-1.4441103898781418	-2.1049354023240987	-2.1211602634281546	-2.059473509357214	-0.5922188743898008	-1.0901516648425413	-1.387409325911496	-0.08502427467098879	-0.2571999126139536	-0.36334547308738635
48	-2.1866853181943604	-2.415694469074908	-2.846719973052591	-2.307575458422589	-3.168246022808443	-3.5641574769632816	-3.315315238211665	-2.8322718071955144	-2.117165321726815	-3.3341841613512813	-3.8301243685342112	-3.225578538380245	-3.3817789469214237	-1.273280259732359	-2.7904031206251974	-3.648893347110672	-2.9632420465041287	-1.858643646315982	-0.6041125043875433	-2.097314590880937	-2.695753805983793	-2.586246483948871	-1.7419483617671643	0.0022568798101337065	-1.342566844411553	-1.8924697589777715	-1.865669603405787	-1.8334888173542232	-0.23125740827347674	-0.6171140059149288	-0.8575226046846339	0.35806968717770227	0.356129585797484	0.19083572875955726
52	-2.236042493896772	-2.441076510941977	-2.242926830350948	-2.1804492418551242	-3.017016164791824	-3.341388932374961	-2.9767064973063158	-2.4030764042263946	-1.9473850677914553	-3.1601710239732395	-3.6832830812920347	-2.9647989198217313	-2.853345386930517	-1.4431210719866576	-2.654261343930348	-3.552860966295391	-2.7404086520624564	-1.493235107466516	-1.232799884544645	-1.9416772078128852	-2.637653344170644	-2.3376080930818715	-1.3996598685212522	-0.3359848550419938	-1.251552220999375	-1.6833666520533135	-1.5496673544859036	-1.431966181954396	-0.04903080302018724	-0.33476278101324947	-0.37597384953942	0.5396175370897451	0.6436854584654876	0.5766490683301728
56	-2.0304248281713995	-2.2161061707812126	-1.3935724461657109	-1.9687063644295186	-2.626199238822365	-2.8545548843792456	-2.4235989986264843	-1.7615835622180784	-1.6468820530319639	-2.7594287325808415	-3.3187105571880777	-2.554924243198484	-2.146961445156226	-1.5301014146320435	-2.3345344007678546	-3.3206121837701907	-2.4180884300216228	-1.0532957288851785	-1.808195824826224	-1.6055967767232353	-2.5729274684795684	-2.065950150042156	-0.9804152821583259	-0.6865575296234204	-1.1607989043492328	-1.605892534969864	-1.315454360501734	-1.0361922953193519	-0.06482866390073071	-0.4214670647470552	-0.21743225996434198	0.39190751215216074	0.3939129402228879	0.535629032690025
60	-1.6767055945979021	-1.8052353813369941	-0.5845673665546574	-1.7852213337648442	-2.1559920256540557	-2.3029434622794986	-1.8407840682284435	-1.123770234131747	-1.3486403192802523	-2.2893085421936843	-2.8941392825489576	-2.139134878479819	-1.5234310588520705	-1.519810672737554	-1.9533771227155967	-3.0848750990229625	-2.11766027869578	-0.6872833353810178	-2.09563445515825	-1.203310486616474	-2.568737738799595	-1.875377411875845	-0.6201586111623689	-0.8861297942677117	-1.0589567396130735	-1.7257169441521998	-1.2541569439694833	-0.8166874626521127	-0.17212955610208916	-0.852058348888646	-0.4823304998617919	0.03860459466962643	-0.3238084308078285	0.014343332463052237
64	-1.4344930612586242	-1.4024811947699274	-0.1369018700242672	-1.797494049302401	-1.854092116443135	-1.9672759721678101	-1.4724191390055825	-0.7504174690373848	-1.2357172934804554	-1.9889813611358365	-2.6475868158252513	-1.9096617650455108	-1.2155213325329104	-1.4880100451094078	-1.7107125477514837	-3.0263051910287473	-1.9807728478966733	-0.5230956660415236	-2.0248196073908735	-0.9221907234750675	-2.6946604183827936	-1.8414167119264924	-0.41696253313649506	-0.8547476508494769	-0.9582960581426688	-2.0127975889886094	-1.3537206615602113	-0.8391394593987105	-0.195978328090827	-1.38308965810624	-1.008507726030423	-0.25610902840802857	-1.1513898343580347	-0.766474602671466
68	-1.6083649356289051	-1.2710386482573055	-0.28473114895458485	-2.164219850798077	-1.968804354465282	-2.107764238757997	-1.5358990392054186	-0.846570251234808	-1.4728950224882678	-2.0959589428435885	-2.815505735918265	-2.041913265794982	-1.346176501690037	-1.5723500212071997	-1.8101898386075055	-3.306052199599798	-2.120448583971333	-0.6191571935280259	-1.7286645130381906	-0.9487948989755254	-2.997757665694939	-1.9854676673351985	-0.3962399949560111	-0.6422190053937812	-0.9022514797319217	-2.356579059373086	-1.5031913480953707	-1.029449937128672	0.011491082579687603	-1.6581553178884505	-1.4259673321007673	-0.21158856100067183	-1.5861766298301279	-1.382055636731287
72	-2.3908710419372636	-1.634280439065367	-1.0786586972659675	-2.9527690336063763	-2.6421756677676242	-2.853605978436817	-2.1346890872465365	-1.474368687721974	-2.128334755292365	-2.743888848052815	-3.530777683880443	-2.620229237616735	-1.8974442434088767	-1.8967875194343995	-2.3635559022357198	-3.9893171686541384	-2.574343197998699	-0.9482017731568629	-1.4618648253725617	-1.3749116624451245	-3.474514952470369	-2.270080322256269	-0.5143930899030645	-0.3971847583756381	-0.9433165764834058	-2.6180813246430317	-1.5503541192012718	-1.2154816358395901	0.4940236794396608	-1.3815373147416288	-1.3332625593856056	0.33879002843197564	-1.2102200954399713	-1.386832472160816
76	-3.7354783917529057	-2.564615243158758	-2.358203166729825	-4.079348077011427	-3.8279039763126446	-4.130064953867022	-3.2064342417824614	-2.519875758484727	-3.1216223161085295	-3.884046544759155	-4.741924750753621	-3.5867924599688776	-2.734299175988404	-2.488707536136051	-3.3166966354554916	-4.992531286986135	-3.278854361838876	-1.418206807370605	-1.4463561736783188	-2.130141968117392	-4.051148881220807	-2.613743775444388	-0.6949812752343241	-0.2760404639427285	-1.099975702369618	-2.689559691314373	-1.3812316621239924	-1.2221395938534811	1.1756497591853952	-0.46977686763411786	-0.505641161118856	1.3762965167583396	0.10847697379619414	-0.5229677544741584
80	-5.334500776174014	-3.9247822662444416	-3.8063475989561804	-5.306814657164325	-5.273858057058323	-5.657309041045037	-4.527417648328891	-3.730381956218898	-4.2270908248989105	-5.268782125522066	-6.193504317858999	-4.737707126099963	-3.6627874281913155	-3.235540381845694	-4.436672199491839	-6.082433208367697	-4.0755724804023075	-1.913571114477169	-1.7342792705618564	-2.9805283471196646	-4.585026252614595	-2.9157519266899476	-0.8716652967380079	-0.34318286093850875	-1.3180323805910503	-2.530668252277669	-0.9773423051000443	-0.9649513339475516	1.9131665181494553	0.9000403262302716	0.9761517023236619	2.7177274158526314	2.1447842066973672	1.150857803300113
84	-6.722262365535244	-5.394687638967613	-5.06480358752388	-6.311438544550989	-6.586618406832301	-7.0294260801222785	-5.775474533758172	-4.804835307388	-5.139342295068841	-6.514578802827172	-7.489553909465938	-5.776472553927771	-4.490972507582283	-3.9106433292836793	-5.376988874211273	-6.939580899837641	-4.7537274240636656	-2.334074491329929	-2.169978136306	-3.6050197987137516	-4.897630679162991	-3.0835060995452177	-1.0141208146240392	-0.5228450881155204	-1.4675883017680234	-2.1692893450327144	-0.4228104938322559	-0.4919499742485158	2.5794403487884425	2.3675246178934244	2.7440926959374323	4.106029023294162	4.406684864362472	3.273000947318132
88	-7.461065750358176	-6.580178721027027	-5.860630020603722	-6.797078115468422	-7.361250858795	-7.849324206561756	-6.631150705761616	-5.498870835726061	-5.579134450177955	-7.228721123564419	-8.226851442547067	-6.411112769152852	-5.071928011486605	-4.261547077863675	-5.801016316072836	-7.26991222453464	-5.11787127156348	-2.61667846972714	-2.4740092691901285	-3.7208595181936235	-4.8346495506293765	-3.0564296168407523	-1.1275488109730982	-0.6331078394164185	-1.3882571423766406	-1.6751451450016221	0.13871248031403788	0.04621020320311843	3.1238481919574017	3.5473537355506286	4.298186291333181	5.314979539803623	6.33697126695967	5.325491891766828
92	-7.327075462915707	-7.161707383194062	-6.087663635142822	-6.609927160740737	-7.32869909343529	-7.869941691556089	-6.881667596608613	-5.702545151618082	-5.398316846569535	-7.153285962164299	-8.148682573725871	-6.459330065631456	-5.325752721691706	-4.120482434359966	-5.513921246912427	-6.9214191262018545	-5.057397352801368	-2.7384674479963125	-2.4026639400855903	-3.2029166140752783	-4.33187435963802	-2.8226203847192717	-1.2317054240600425	-0.4853405046130272	-0.9662271117611031	-1.1273285122065646	0.5705064520737088	0.4770247626181838	3.57330583623889	4.184490670129756	5.216756807507666	6.211910708956325	7.5237078476731645	6.836968881511506
96	-6.406585200347144	-7.017782670422672	-5.814692482572731	-5.803023800503802	-6.462415202037241	-7.087276917683738	-6.491547568144109	-5.461640821019032	-4.637649047586716	-6.267967685133155	-7.2548703964170995	-5.920142635657324	-5.246955858334741	-3.481781950743037	-4.545109260527876	-5.955564483865012	-4.591374862522883	-2.710175507378656	-1.8882622671136995	-2.140625709851177	-3.4574632557360765	-2.4256625114233983	-1.3368601765258756	0.007824034410332826	-0.20387980290436614	-0.5949279650926473	0.7951729873608199	0.6887719017758802	3.978383054225568	4.230313767243069	5.315111623696112	6.756247980226049	7.821986655513833	7.542133312256772
100	-5.05610035573433	-6.265090449727821	-5.2282433377826205	-4.6182889821753905	-4.995412337088724	-5.743552193445702	-5.610830769678008	-4.938751685071134	-3.5106065184650617	-4.804145800858979	-5.812537655460251	-4.977201449225767	-4.9017920370321235	-2.506787770617991	-3.141042939838794	-4.6346859814931225	-3.8657867810876048	-2.56917547530972	-1.0779069634879581	-0.8031780103432337	-2.403816217075479	-1.9566829155157832	-1.43320500488828	0.7774212936800527	0.7596660833252527	-0.13437308337141105	0.8093290904592345	0.6697725636738244	4.345712173934137	3.8144585989967372	4.681763160329343	6.953742486563361	7.345506649545198	7.431360702825753
104	-3.7465047741713557	-5.198811994778314	-4.540475833873314	-3.3927082929784245	-3.336046448867942	-4.235798348222874	-4.516507137339591	-4.338037956729392	-2.3198053778253054	-3.1591017166486686	-4.253934849489339	-3.9275739093800937	-4.414234150232083	-1.454102274084482	-1.6685020881488875	-3.322271100239391	-3.0991616170838165	-2.3727500378784008	-0.2502048903347088	0.4722505795953406	-1.4227917158444416	-1.5287612638022972	-1.4977889023158586	1.6278121430306722	1.6958208041291085	0.2070525432365886	0.6620115025018605	0.48934522147608517	4.6075649145144775	3.146353236837716	3.5919241814525034	6.812077981916147	6.358721240201875	6.688088400167422
108	-2.8641343044447813	-4.163295258501141	-3.909858693741837	-2.4285864768701177	-1.9150890063571868	-2.9658341332895763	-3.510267248827857	-3.8283989332816097	-1.340970035982052	-1.7443143085309052	-3.0020751877329888	-3.0642907542110414	-3.935393085080567	-0.5695936069412784	-0.4701871264030711	-2.3368368089804252	-2.4966885980513256	-2.1863250677222474	0.3411847642390704	1.4167309963696924	-0.7276803832755461	-1.2384525506222923	-1.510692234993547	2.3347282350721748	2.383427613916506	0.3959155370729954	0.4179190684734355	0.24009074210108164	4.655786502527496	2.4140291153040883	2.3621375501122257	6.336957915519274	5.146879183172372	5.57056091809511
112	-2.56154012033327	-3.413229456867043	-3.4087657842403734	-1.8841568184012254	-1.0265121434043998	-2.1939132158201544	-2.813686125327156	-3.4950265796158475	-0.7250855546764455	-0.8326996543841467	-2.302590841201898	-2.564012520992311	-3.598125687097857	0.008586891905145229	0.2613434784966653	-1.8262085868504483	-2.170434469465248	-2.0647962041222176	0.6016001686166036	1.9252754401235828	-0.4066133190856284	-1.128897306453092	-1.4691661559205338	2.754105799397259	2.7057273319595887	0.4285088766723305	0.1303418275403338	-0.01861573937305612	4.420740593239338	1.7350718931260785	1.230425235502789	5.569129929786955	3.93330620726296	4.312024105629299
116	-2.7224752834248727	-3.0293583793450134	-3.037540189703385	-1.7335282520395827	-0.7311941962854734	-1.958740587057524	-2.5027382310621746	-3.334207287953396	-0.46213823440221335	-0.47205662608173116	-2.141000742275157	-2.4305386481908724	-3.469844332517561	0.28464907335893636	0.5341341482028326	-1.7228248075857102	-2.102745050843423	-2.030287022233027	0.6285256727562344	2.0684127755394783	-0.3916511823779513	-1.1721487015694176	-1.39087915069369	2.8796646522296676	2.694351904742215	0.34678128274148107	-0.16355681378078432	-0.28163900900305644	3.9424807925822036	1.171546694658706	0.3162017158631207	4.628510940309983	2.86887788048261	3.083874217830421
120	-3.050864450381414	-2.9237329886052223	-2.7666625906710984	-1.8099980308611026	-0.8652556516736243	-2.0960123486051723	-2.5058293279324224	-3.2838461316169223	-0.42006653441230385	-0.5017010556905714	-2.2836131991904858	-2.51828622182187	-3.5256359488165203	0.36726927664536607	0.5128930794164342	-1.8014664604480723	-2.169661278015174	-2.0566897340346526	0.6283003671995522	2.0203289934648336	-0.5014377819752632	-1.2814106908870635	-1.303156730222724	2.818975203072591	2.4960677560729128	0.23806509315466545	-0.42975622307039585	-0.5738407358940258	3.3825175676776156	0.7771948556351227	-0.3411242357224538	3.720226993704864	2.0674085564868383	2.017570013674436
124	-3.2332236685184137	-2.921765320076865	-2.574494355377468	-1.9067749928970377	-1.1448096008007347	-2.3415267408380913	-2.660495512920956	-3.2678635037886226	-0.433850615121292	-0.6590343101074911	-2.4177110134118576	-2.620329135001126	-3.659341564476261	0.38634493849486395	0.4096009124904848	-1.8080656482823632	-2.2110884133781097	-2.074861044413579	0.771839557129509	1.9475934456290638	-0.5366778360168449	-1.3494453396105561	-1.2260285584966775	2.7075965336150256	2.2821342887480527	0.20977583474601696	-0.6230401977067599	-0.9019710398789615	2.96055793014738	0.6291811450331745	-0.7127208691722324	3.0810317915375487	1.6364508825947381	1.2424915997606543
128	-3.0933971326928527	-2.870715849304263	-2.458963626375332	-1.884069199573627	-1.313451525233048	-2.4640662607923804	-2.7957091260897062	-3.2305707849954484	-0.3975728740191132	-0.7190333586658775	-2.3144435824134275	-2.5724286968133474	-3.7324428464114487	0.4136082519579063	0.37004735972436587	-1.5898498256597822	-2.109140152374518	-2.0006349036250297	1.0754977437522195	1.9215611170891373	-0.37770509624487264	-1.2935862508538818	-1.1583859891255275	2.614975684239496	2.153304094600051	0.34806099446157773	-0.6852344257220367	-1.2173871963282483	2.8490383553099212	0.8155240991983238	-0.7374376636006428	2.8856501506429004	1.6677944618079006	0.8929183460579758
132	-2.6669650010485433	-2.7165188720782165	-2.421187633123539	-1.7293544964043686	-1.2587114540745614	-2.361358398197689	-2.798237793533273	-3.1469366470993045	-0.3119630209675876	-0.5952231272928299	-1.9286152075712053	-2.3187043608297944	-3.637622108812103	0.43082144747680984	0.4161342967971097	-1.1575334042888128	-1.8327326728325115	-1.7727670624797598	1.3794192040902382	1.9008028459242008	-0.03155491493126061	-1.0830242606475846	-1.073553797872423	2.5007510122103804	2.0963754601002274	0.6829212290687889	-0.5584834203924857	-1.415960189105403	3.087988130402432	1.3878622020013558	-0.33457580124306113	3.1644511142944647	2.1914074365601235	1.0685512992583441
136	-2.1631081049665335	-2.512021058416057	-2.4398012099655824	-1.5429625472213373	-1.042124984017447	-2.0765392727876377	-2.6365089349938455	-3.010442726164011	-0.2657749646152376	-0.35457226544504683	-1.3876776660215973	-1.9095667552419788	-3.343988648554921	0.35930535106542116	0.46902927637891	-0.6499996764938268	-1.4279242717930922	-1.3803455794769985	1.4413485490648021	1.788211937204254	0.39537805219009037	-0.7345288973383028	-0.9267728901352515	2.2496504726832156	2.0173067995637726	1.1814258068774162	-0.20486827142966438	-1.379346128795928	3.57371901563543	2.317227834573146	0.540820001190408	3.7854816818030512	3.1314425389383502	1.773374672227066
140	-1.837768311629002	-2.3600630700607006	-2.4605483946666187	-1.4617861472416567	-0.8326372483212244	-1.7355333522847645	-2.339664930158588	-2.8116474080624054	-0.3634230485323657	-0.14606508575754862	-0.8850867129867759	-1.4418754541232863	-2.899764292071499	0.13035075333586638	0.43206393609633825	-0.22772842588149242	-0.9656247472225238	-0.8647582509142294	1.0897760363721152	1.524365659679789	0.7799211124756211	-0.2818751626050603	-0.6720160228928612	1.763664479571223	1.8287407113634033	1.7745573475857135	0.38091993235736143	-1.0338643763188815	4.130222786965989	3.48967742038863	1.8447669697915687	4.5187029724475725	4.30734108791041	2.881630890246554
144	-1.8491101218268071	-2.331758254839805	-2.4104773937401793	-1.5667248924753692	-0.7862582782921409	-1.4487791024823211	-1.9533081005371211	-2.5256256993424024	-0.6440694315861613	-0.08964242763536515	-0.5465983138589245	-0.9833613609282009	-2.392465585390269	-0.24842645165187438	0.2779646210805097	0.038215853177382804	-0.48338857171085087	-0.29476615712131127	0.34652435692082545	1.1577597827290982	1.0681366893503332	0.2584943764835949	-0.28169888186858216	1.0542107793894602	1.5352759322505098	2.401204103129437	1.172150847336624	-0.3924586763010072	4.620473850028761	4.750728595183298	3.4342396172601646	5.151065336573668	5.493431077439014	4.165643204662206
148	-2.169887060409013	-2.4101445614045938	-2.228628868198326	-1.82539152638193	-0.9408377385227453	-1.2369646994831656	-1.5042620859314124	-2.1184191650311446	-1.03821861481802	-0.19025659513122054	-0.34984096796401126	-0.5297061787582931	-1.8903660726503801	-0.6711030585511416	0.08701242484535533	0.2147829825223766	0.04024893780321595	0.27028617194599575	-0.5523913488746636	0.84793174052733	1.3127742972608198	0.9013473964822512	0.23824906289030023	0.27672958304155937	1.2619473902312475	3.0423715037781007	2.121327156433104	0.4445258665782569	5.030756460839821	5.973657592950191	5.1116056313205105	5.590725407790293	6.510508520855026	5.380710588221652
152	-2.601406567681347	-2.4928021368032036	-1.897153730370975	-2.103492493087019	-1.1854565113655304	-1.0236030791188366	-0.9962483023286174	-1.5722486933113373	-1.3884464467279691	-0.32675266183372026	-0.14392940663715487	-0.02063019754744398	-1.405859586027267	-0.9711462234773517	0.01193155717817535	0.4633831370098491	0.660926876783621	0.8037021735880651	-1.252060410199447	0.795747099297847	1.6377361971514295	1.67296373421764	0.8422678091718485	-0.3177553705299134	1.2033684223310495	3.7212018872723487	3.170608274084217	1.3291624750911477	5.474742875581899	7.1061134158966786	6.696311933777031	5.900736793878927	7.2962846571767965	6.363113387254995
156	-2.880249254584149	-2.4502172408230734	-1.4550766908148098	-2.2378628197436163	-1.3203177418752583	-0.6935805660856389	-0.43176883350080036	-0.9138491130644569	-1.5243210754056096	-0.3191318503905586	0.2483754598783978	0.6003260597331017	-0.9040791369500552	-0.9985618566097331	0.19202494572795217	0.9338143444326591	1.4115056955940055	1.3067637648968446	-1.4411190711829962	1.1395406694251824	2.152655119229375	2.5709922248778874	1.451784011036441	-0.49118736262286244	1.5218819341382694	4.4691004640278855	4.254854191528033	2.1248667186495096	6.115536197480898	8.166315058117387	8.082144716838199	6.246757491552672	7.914100626991473	7.087208253133131
160	-2.8209376263922215	-2.205679411087689	-0.9849720572398997	-2.1292583888654724	-1.1709195345879628	-0.1767931278056697	0.1623079623654422	-0.22645479383514747	-1.3507398332825198	-0.03215112156499207	0.912528750976726	1.3259937729735987	-0.3490859559305476	-0.6953191143600581	0.6700113994848365	1.6632862049070514	2.253900760682128	1.7820794537373763	-0.9974616144746019	1.877158398657237	2.8724081443744534	3.5334796816305793	1.9757975290005434	-0.12902894583550337	2.255391353634908	5.28180550195403	5.300279603927651	2.75447749396114	7.0551233113501235	9.194240546855134	9.249149299157908	6.7926029987499845	8.495582559117123	7.649478416203281
164	-2.4185974536867194	-1.788752074493845	-0.5793855771695468	-1.8013158991157499	-0.6900477391940762	0.49570336812751287	0.7274593692532769	0.36673098709975854	-0.9009310580395462	0.5450684414453372	1.78005122689008	2.0668122716220108	0.24299022494002123	-0.12764035133083815	1.3614172901113357	2.5415553982462753	3.0738556307432887	2.2045178357732387	-0.04153072451000363	2.858292572434384	3.6908545400894472	4.441445339433401	2.3389518201902955	0.7056146246261176	3.2884995854320778	6.094463333001631	6.225752814786857	3.2134129919937235	8.25750062765035	10.190887425442357	10.227464650081455	7.6031513022150214	9.150449729704953	8.188985803909759
168	-1.8558049155110763	-1.3300125565327883	-0.3085730366068685	-1.3917093241840257	0.010080455776930335	1.1973199814130928	1.1931363314068708	0.7447981815607274	-0.3251678339377887	1.287805077162423	2.65863727852013	2.6877226761670334	0.7817496041587793	0.5414561615624895	2.0939953274310654	3.362721911523371	3.7260320092541726	2.514132016510093	1.1230301828640843	3.8504505060256173	4.425534237178651	5.159311281529655	2.507057660448852	1.8003289654100507	4.403488148061949	6.7942390270356485	6.952812654107213	3.5448870569374717	9.550830816950924	11.087074251792984	11.040208788654473	8.607123353208067	9.89543530826838	8.790489174583492
172	-1.4099510872528989	-0.9993733142416564	-0.20000563511419783	-1.0801080438046666	0.7126784306652595	1.769168491665176	1.5101898870486483	0.8390724041735075	0.17908136501398086	1.9974226901169045	3.334467641041117	3.0784537714482325	1.1324168415089033	1.124180075668188	2.6934721401875517	3.932709207142397	4.104545582898737	2.6398332052338658	2.14675735885303	4.643831241327211	4.908142554289039	5.59347818869765	2.497726195704956	2.8874883578831327	5.382082448722339	7.266100865138745	7.425083141653857	3.795421829177857	10.706653567939002	11.76408097158029	11.66410729324383	9.635658239832457	10.641695949389625	9.426018691106375
176	-1.3084202971802599	-0.9202711558949225	-0.23596695005922425	-0.9928367112842218	1.2058147161557449	2.101700062213859	1.6748506980571751	0.6662611944543267	0.4587598133425515	2.499127381690798	3.6835019495470975	3.212743751043875	1.1849616736058546	1.4883202276800358	3.065884105571154	4.167425145117911	4.196254242792928	2.542074435491669	2.7828104425742985	5.138405310055338	5.067029940209909	5.7353491638338445	2.3702502190828323	3.7539992237679125	6.099595054485257	7.4450940897844875	7.627618293577808	3.9775464434336127	11.546833009177128	12.112441986020587	12.031615226886275	10.506618473229198	11.242114038694027	9.965586637131793
180	-1.6086907346164248	-1.1063964338979018	-0.3692199578500053	-1.136533615103856	1.386139150934539	2.186891788683341	1.7255557731931341	0.3250446609396713	0.47219732284536825	2.722565167228967	3.7273404504129783	3.159449807773278	0.9215792394258606	1.6072231490564706	3.232779733125247	4.12636755855165	4.084540356813992	2.2470810356627253	2.975889913674955	5.371563421038936	4.957077967526085	5.663594708448601	2.1985554639621205	4.314629543855142	6.563426954864487	7.348088245913193	7.595873813524899	4.062110413785905	12.01949784105261	12.094893424968701	12.073693244968515	11.106765719028425	11.569932908410797	10.250711415159481
184	-2.1665861551896857	-1.455060001514315	-0.5437760339359354	-1.397605296421032	1.3018168178115561	2.112558836371624	1.7129288868572161	-0.04575411591302925	0.2989777617058623	2.724771731172981	3.6056950001280628	3.0387737674285416	0.44080358632375394	1.558852907059758	3.3051803028582247	3.967544307228397	3.901826848669342	1.8485095454275666	2.860510103633009	5.480391011706556	4.724637496463771	5.503842339924935	2.0403053709015806	4.620809543387288	6.882660371569486	7.068897229467203	7.407653313054065	4.003499974633345	12.206279723820778	11.775809258293842	11.775983780693304	11.428881616347484	11.583320588430707	10.186465237648347
188	-2.709777348352562	-1.799822802767896	-0.7134056073296834	-1.6067579944098178	1.115473982855696	2.006775612532866	1.6650457340163785	-0.3282043925582044	0.09161768085475097	2.6487607889057836	3.4886844070091794	2.95277952402383	-0.08018799105902702	1.4800344668214387	3.4171991261990615	3.856216897765209	3.7608423138080087	1.472770091153134	2.680242293266608	5.625777707201306	4.532807338714453	5.370017991813102	1.918940062446402	4.811008918059669	7.194946270897007	6.741845113898887	7.160811883013217	3.782505741106219	12.265546767738526	11.301341028290587	11.21455952673967	11.553316087163688	11.344158143966176	9.80186746029905
192	-2.978985778916772	-1.9967321107042804	-0.8530629255691541	-1.6324292380126066	1.0107007001154624	1.9664511630954908	1.5724461038943351	-0.4759292888546227	-0.0031579192648074385	2.6437249116907147	3.483132591990237	2.9334623739566346	-0.46721157313642897	1.5000522098815554	3.658991327584445	3.8829669854357087	3.705968609036273	1.2251505820813526	2.671787970473012	5.920622333837266	4.491816509350172	5.321288572227879	1.8283224059674257	5.034989344282502	7.596837501419194	6.495971186449591	6.9483008209276855	3.442369452368423	12.352038352297988	10.845300647056725	10.551556560579119	11.596338242816786	10.989528628259967	9.2501296763527
196	-2.86389612428486	-1.9993442246503221	-0.9609618758735177	-1.4523751699018308	1.0939084263839598	2.0097207972330717	1.4023095333934077	-0.5286432491306972	0.08701320715631604	2.7902021337635223	3.584824076184785	2.9379701540203267	-0.630178509551683	1.6860395627368727	4.0430002110448475	4.034810532873386	3.710386028458714	1.146558758701897	2.969037763728876	6.395165904111327	4.62959669851647	5.356356130427916	1.7557408765333669	5.390472875336897	8.113320330162807	6.421140654564545	6.841244680298319	3.094926826292506	12.558602301361425	10.550895664279517	9.991297696637192	11.659245461591066	10.676821681722815	8.75188825305009
200	-2.4610998568386884	-1.8830167007588403	-1.0562506887471028	-1.1656266421452715	1.3426452841238794	2.075258965021095	1.132401940347747	-0.5828447923249976	0.33271256005208666	3.066097251780333	3.696899643147305	2.889837972974246	-0.5999803527942773	2.021195406579101	4.512886989643653	4.2258930099605285	3.7141818906470063	1.2044335573304965	3.5605962186562325	7.005233270124766	4.9076709623407675	5.44123457488525	1.7073429779815485	5.894389614482111	8.71158693021483	6.554232580803228	6.88244531801168	2.8884460853129656	12.902521100847117	10.494206402032507	9.715149854927171	11.80085942149964	10.529608699916759	8.510389306516263
204	-2.025504107129746	-1.8064780189681342	-1.172441956420972	-0.9406737065407377	1.6226640898744193	2.0632526822450115	0.7811271528549615	-0.7334995251256308	0.6250414832546857	3.3644597445420548	3.6950597669770233	2.7366917064236476	-0.5015530573579678	2.4190704761464623	4.980039107147069	4.359557617624767	3.674560299179048	1.3221207823751617	4.308536995500163	7.666638831809369	5.261025892326317	5.5473651745928825	1.7190569595803917	6.49053047448823	9.336973166734026	6.882222635059361	7.086926919210501	2.9508593007925943	13.349751438768262	10.679497691847896	9.823864912025739	12.037528007633066	10.605750057146395	8.63899133408464
208	-1.841952915309538	-1.9298620175274692	-1.3439937796038732	-0.9309090948443521	1.7587106183471581	1.890582675928947	0.4091595102947151	-1.018999216368009	0.830250082303997	3.5476198106842345	3.496469965690084	2.4852087434965693	-0.47995087383210955	2.7624936034074543	5.3610548837729874	4.379341591268664	3.5931429772257935	1.4255593979129546	5.010927187666008	8.289907434514332	5.630977139561225	5.671484932885467	1.8406474543829632	7.078839761027794	9.940316175159461	7.35159729055155	7.442043285654006	3.3324317847993092	13.848534549081222	11.05654141495601	10.308403942784818	12.356290786064108	10.891900035061632	9.128898597557216
212	-2.083635801776679	-2.3310615957534293	-1.5906422098054256	-1.2006193369116598	1.6203080374816863	1.530219074200533	0.08948655403909045	-1.3987137043924764	0.8489898421787113	3.5089728743651825	3.094959489637761	2.1933028642591954	-0.6224557741662127	2.9487607404646408	5.598494992426438	4.281988609947074	3.505479565353006	1.4788474999283783	5.482736096844678	8.799989678099545	5.973716243920502	5.826211437774361	2.101226562916959	7.552177886968961	10.481904003381928	7.878139952796376	7.905943850583844	3.976756324264465	14.348213159575025	11.543998689115924	11.05884072372706	12.725707022008862	11.317894907032972	9.864540075192087
216	-2.729266636633434	-2.9609627648936723	-1.9051310967982826	-1.6975946383531457	1.1814594238969844	1.0202836964596758	-0.13306744363090253	-1.773614640526326	0.6554552896163441	3.2161488451820066	2.5525522167609918	1.9302381228350523	-0.9178705788326544	2.9254457876731634	5.664535984996517	4.096210469394391	3.4462804707301307	1.4913855753438052	5.623165593255264	9.142376876636956	6.251002772761436	6.013044342118327	2.4792251524319644	7.828785876535485	10.92007252797146	8.360741594186567	8.40941522382442	4.737446773012241	14.798902474233042	12.049022644139688	11.905899017792057	13.099697079963553	11.782206505592143	10.673859569303536
220	-3.578945866131877	-3.6614646819177996	-2.252446407353281	-2.2827784957471584	0.5292180763234597	0.4451341617789763	-0.26533421807055874	-2.038502688029545	0.30052229686202747	2.719995968627055	1.9620592544609494	1.7342660383307498	-1.271639701493703	2.70429062160555	5.556591019906503	3.8510055444763642	3.4184770497798196	1.4978170357081215	5.444750772080963	9.28429887334895	6.4217004613868625	6.201866611081294	2.8984334395663143	7.874034384874613	11.204273195588883	8.70358464904607	8.867444969677283	5.434529767620684	15.14489742270031	12.482326476053515	12.677720991551402	13.421274151295204	12.181785552740042	11.389255494926534
224	-4.354217518303533	-4.236345757279109	-2.580793612640006	-2.794491760827887	-0.1743906433947737	-0.09517882740309103	-0.35451409131189293	-2.1351463740800987	-0.11380114377615248	2.1327793544327545	1.4093583786667487	1.5979896743483375	-1.5623650511396359	2.353696340340447	5.29705713842065	3.5612752347677996	3.3911766920301427	1.5289131364368014	5.061708914374955	9.221460319125278	6.451269133492384	6.337782843800882	3.25796245706069	7.711827735503872	11.289669962035875	8.847429253175084	9.203971839555173	5.926174625693365	15.331194838916966	12.775653806855903	13.252741780199711	13.63648125066641	12.443313567216466	11.898518532276023
228	-4.826559531423728	-4.537920463548955	-2.8417372631805278	-3.1130638043961287	-0.7551406006821069	-0.5119783269353758	-0.4485754061340728	-2.0755550808955916	-0.4748294937543263	1.5876325328797358	0.9539923047775277	1.488822337206356	-1.7034918026830443	1.9741086909997414	4.936859118395004	3.238127700259572	3.327558985891934	1.5941194255635531	4.640150058475177	8.9868592989046	6.335863097406803	6.373086436393634	3.481372347625175	7.419300537450928	11.16623017352917	8.796271301949265	9.379978156249472	6.1606359326270415	15.324363669805795	12.899689641808855	13.587986911799588	13.71421238297748	12.54474827460197	12.167351691997675
232	-4.9121703977542115	-4.527938354504334	-3.008308403049283	-3.1972260394436494	-1.0874077054225892	-0.7470187525962282	-0.5565528855577296	-1.9253977488543532	-0.698508976126449	1.1936758726500154	0.6272228344340233	1.3850722277957535	-1.6780922370504558	1.662769671056732	4.551710117292217	2.9075915740036415	3.219294778325309	1.6837780433105145	4.327426422637531	8.64885137281707	6.119643672751289	6.301258548086213	3.5558891206609147	7.100201588824203	10.87865540618882	8.619800545864049	9.407667136282104	6.182861789351933	15.13295265191748	12.87248608200205	13.712758029648633	13.659573520505568	12.517106024610724	12.228985755562768
236	-4.688832271181856	-4.285036076217457	-3.0794494074320466	-3.0824682634730087	-1.131940481189061	-0.7840589861147712	-0.6374070628285681	-1.759924049702432	-0.7549872379314869	1.0005869840155088	0.43617537507559717	1.2980996337541686	-1.5324140748434898	1.479127403339537	4.221565712760761	2.6149139338276646	3.099272958559976	1.7836550429133908	4.190069188029491	8.290084817936735	5.8844017833916045	6.166176303554216	3.5358719736472444	6.841914159666746	10.515237781679115	8.42234227915067	9.338601088788021	6.093513473384888	14.807844124601091	12.748525587319904	13.692115749122138	13.507626499404822	12.422182051766889	12.149692504725365
240	-4.333363998916485	-3.9573027987703675	-3.0717775744130864	-2.851321928454791	-0.94070273400267	-0.6535202844332413	-0.6279104336144161	-1.6206480223746267	-0.6745278222219993	0.9842600201552106	0.36485120561990064	1.2627457348413536	-1.3387150730666026	1.4233890735928725	3.99739884320954	2.4052650867770207	3.020418636325592	1.886613245015507	4.188245285903968	7.9725265301642745	5.710068211444059	6.035941585560273	3.5061087519816665	6.672700388273901	10.164297078219453	8.289049127631733	9.228529906814948	5.982738479768084	14.414686166609346	12.5876159350162	13.578393901875078	13.295247998048936	12.312137572674606	11.986019104259695
244	-4.021713723519245	-3.685360422366502	-3.0010733528661335	-2.5952854090969484	-0.63109981854365	-0.427724688165323	-0.49243822569496065	-1.4986001215292035	-0.5314284549647297	1.0594656440688808	0.37280383611968915	1.3033109870430133	-1.1524521083345398	1.4389016591936605	3.873354425187761	2.2926828803351893	3.014053575535388	1.9911303469931427	4.199113835223452	7.707851867288812	5.6275291300789645	5.956299766761105	3.5261804968498134	6.541351301844051	9.862714742555093	8.23764226740996	9.09851358023891	5.876082405513439	13.993016207651987	12.417539565206344	13.376526798808083	13.028023686895	12.191983192179627	11.754580468064237
248	-3.84625815374128	-3.537976732858239	-2.868318788916028	-2.386629337007177	-0.34170332464730707	-0.20311783202864253	-0.2607100003335918	-1.3525848354522392	-0.41295182600665226	1.1153447599861492	0.39984989065307375	1.40116345528656	-0.990511116864892	1.438478585426113	3.784147968274924	2.241201156679768	3.057516567140132	2.088792557211047	4.078533162310116	7.452584247846631	5.594781861484885	5.914029583304595	3.589580288407274	6.334881766537699	9.570248579658246	8.20504949405475	8.916480041880142	5.722723946427976	13.529278721029844	12.213144271532938	13.042428937407946	12.66543003699259	12.008283584794302	11.428829164260215
252	-3.787764062855028	-3.4908883483488298	-2.6641287736387116	-2.2654945793174073	-0.1848878706794051	-0.06929665041355519	-0.024491315645729726	-1.147212502444143	-0.3841721107797077	1.0605964633867044	0.38326629899534304	1.4914728365435361	-0.8383629896931819	1.3441389765181795	3.6351013091816267	2.176517481077087	3.07760881600603	2.1554758494316038	3.737065544229978	7.134829980002643	5.516604409594862	5.8382797093808545	3.625514498140157	5.93419693402272	9.191361404101173	8.081542948346065	8.615426995460052	5.433819280256755	12.966238942788296	11.909102409812778	12.517670599804612	12.140900581224614	11.67635723980714	10.96567818734118
256	-3.750703802175891	-3.4558117302428095	-2.386913770371327	-2.2403881493270843	-0.21215932017643874	-0.07548335920588051	0.10864015641201598	-0.8846179820614456	-0.46263733389398	0.8587819912209136	0.2830237739093045	1.4960770569222315	-0.6750234348420553	1.1234470577485909	3.3516213809270075	2.025564188611528	2.9920880718982183	2.1591734831655542	3.1878781238178364	6.698885423913356	5.300217615097241	5.6434664583773495	3.5452487379210558	5.280904279727301	8.636074044358118	7.776168803609249	8.141485193678124	4.949356543442796	12.247628181052809	11.443505258278337	11.782028168495426	11.409684152406696	11.135211916466371	10.347619984250748
260	-3.637597313279939	-3.3429095660686317	-2.063237185037409	-2.296226972504586	-0.40557676451327906	-0.21196563488373013	0.07783009837289105	-0.6094836577286272	-0.6153765901287576	0.5368815646921729	0.10036916260412472	1.372603174558802	-0.49798419945872946	0.8023840168721853	2.920160047787827	1.7602688029669424	2.7639391352488976	2.0840642399622427	2.5392367775703666	6.140892966978646	4.914669024456888	5.288557039259982	3.305898658035244	4.418954361249218	7.884047011497283	7.276033859956196	7.503846149572676	4.294426430350242	11.371434183020845	10.808584185967785	10.89307591549079	10.496492359363161	10.399794552295289	9.616391157666747
264	-3.4149312886803735	-3.121556274162285	-1.752502079353739	-2.404024833331666	-0.6964155417979332	-0.41824298991464953	-0.09159135050298793	-0.384283452255867	-0.7802417854637032	0.16346506733154545	-0.12451340226684879	1.1467523545876388	-0.3317299774854451	0.44759917146208383	2.395577424676846	1.4159131014361495	2.43230127674172	1.9543136308919433	1.9361994217625673	5.512936578183224	4.416114795979288	4.814640033010218	2.9507892057305156	3.485794297000607	7.011187535704215	6.662972910271116	6.7937040157454955	3.5893292336441136	10.415986034798355	10.076272939037395	9.986010526240383	9.510578131505676	9.577232336659657	8.876664139270707
268	-3.136523954101912	-2.8439125942907584	-1.5280421933695423	-2.530343287755174	-1.0031883691255181	-0.6172663553865901	-0.29844412132253556	-0.2510028177123024	-0.9005261636886093	-0.19224220465760994	-0.33805167589668467	0.9041166282715242	-0.2140600824912046	0.129670262009345	1.8699004602905518	1.070873853840798	2.098066086240368	1.8376190615988612	1.4842570982652454	4.894234168093686	3.9222652813112213	4.33560227253144	2.599804871670987	2.655056708308223	6.160888179483094	6.0771636809456995	6.156760677052109	3.004738084836251	9.519221281813445	9.380203223387577	9.229390121046174	8.614212014384018	8.83297917996938	8.263596513865428
272	-2.9160301611710566	-2.6200935774455685	-1.4425603114900265	-2.647076838485841	-1.2719624010397024	-0.7594273667235298	-0.42233508718672763	-0.20557282813145306	-0.9560533737840122	-0.4980483042540235	-0.508774458077498	0.7428894024212596	-0.17121152536557638	-0.11239601643318443	1.4212386572240951	0.7990297654959189	1.869940156983872	1.8183468534337126	1.2005648582664725	4.348470676887378	3.5500235467926675	3.9835433859386136	2.3916983544046575	2.0601351209125505	5.475512967590453	5.647591099785393	5.7299475525193575	2.6840557984297093	8.819776512766385	8.8600339665832	8.756440140550806	7.957915762836661	8.320733049365703	7.888211707226514
276	-2.864430420319278	-2.559614890311886	-1.497598167453059	-2.740129702325612	-1.4971803388942384	-0.8503067471970539	-0.3939186920710942	-0.20217557200408975	-0.9719004010457907	-0.7705046515084897	-0.6497337801741551	0.7150217872686876	-0.19855381498274674	-0.2845158271758774	1.0750538083590533	0.6253324731297444	1.8025593712119146	1.950802678904958	1.0209250424358398	3.8954529663917334	3.3538126860819975	3.8394107721667714	2.4102151333038297	1.73991190947891	5.028762804686407	5.429635987878401	5.575841889608876	2.6752898625540142	8.392721154957878	8.597452141989809	8.60786340447573	7.6158985899330816	8.113303164025156	7.789529780748367
280	-3.0288906020939974	-2.710255616021032	-1.6391054350477527	-2.813595526267326	-1.7144206719028883	-0.9451513862588943	-0.2371075743410887	-0.18415372027156016	-1.0003921960368747	-1.055116889197048	-0.8118427375323559	0.7924879173297573	-0.25890231067140773	-0.4237398792535697	0.8003542403041289	0.5131975995458228	1.8644566488876702	2.2175741139690346	0.8556916692110462	3.5137901217437673	3.300629130613246	3.889317264274046	2.63575338651858	1.6338778692955702	4.797199713992971	5.38433407377769	5.651289448775079	2.9083635733608233	8.216011980294162	8.578350999154734	8.716486908840155	7.5559201049770905	8.17100236737069	7.918196181332939
284	-3.3649134550969393	-3.027764551147744	-1.7835881665021218	-2.8839240001345634	-1.9681522796530855	-1.1117604942862753	-0.05807021990658274	-0.12116374044821847	-1.0854036780610108	-1.386118527727499	-1.0496346924030278	0.8807215668376711	-0.30016493721517884	-0.5651510939634504	0.5431584702129768	0.39235126873139314	1.9560053299156872	2.522739642449664	0.6607590301043573	3.17228745613259	3.2964529907922464	4.032559384655192	2.9523823186720497	1.6280904967210705	4.686933982459842	5.409408078841337	5.829606518332196	3.231280318685063	8.18777177650804	8.702609993897163	8.9427947772263	7.660362224311788	8.365079858640946	8.16158578719427
288	-3.7547192478749816	-3.392923346536231	-1.8618737412174946	-2.9652061387538087	-2.2717740478379302	-1.382374402370741	0.013683097402477617	-0.02836080260864984	-1.2289233176675305	-1.7497876838375208	-1.3790101970188222	0.8730853177915516	-0.28281918096662956	-0.7101428490829161	0.27531105210413126	0.21003602392096582	1.9674048374094892	2.7314381530464087	0.4761966156857654	2.8679082321238516	3.2473466314344166	4.137686242147341	3.2089643397374994	1.6236948925985626	4.59766005308929	5.402183519075641	5.966169819073832	3.4871637733155088	8.184171655972696	8.836252190215022	9.143508888047672	7.786612967859003	8.543891885167028	8.398523309484244
292	-4.058418740516417	-3.6661040690368236	-1.8569322777595116	-3.0544552725921967	-2.5847265655109357	-1.7241229967456406	-0.10163187954992273	0.0438864043737079	-1.3828586305036736	-2.0763254113227236	-1.7538309053010066	0.7147550564839912	-0.20163200744743293	-0.8199329951565832	0.024778146234180773	-0.027803441439407512	1.8421575976591797	2.737411730530716	0.40233367579923807	2.640920870788981	3.1166932504166285	4.113842953785908	3.2988486206690104	1.5849780996360103	4.481678951392368	5.315166459969166	5.970906242554306	3.5890693573935493	8.121300676822347	8.874978996757871	9.23498914294366	7.829976062079355	8.602398850656519	8.55170629249593
296	-4.174472321461203	-3.749999036857846	-1.809645171364923	-3.1257283608674498	-2.8209819722478224	-2.0455341287466555	-0.38809242746597683	0.04303513828975561	-1.4727107249270877	-2.2661929073338327	-2.0763759560613657	0.43923774250713543	-0.08947879798470863	-0.8392212965757805	-0.1318610754260168	-0.25050416525537045	1.609930511224623	2.522790664025463	0.5252851830571748	2.5560543472605723	2.9461250230793277	3.958079804917698	3.2132778086597145	1.540749545975704	4.363394249389983	5.174296366025513	5.8495535702837875	3.553318014710375	7.986945608954774	8.786048866977515	9.21964356955711	7.756524543252351	8.51850793595133	8.611163117602164
300	-4.079482068252544	-3.630202045812038	-1.7856250956275332	-3.1381051461145217	-2.885551922188559	-2.235981697159254	-0.7393516879488377	-0.05140908794536551	-1.4395962917221192	-2.236537927702894	-2.2369086685924606	0.1570946570244862	-0.0005147411707831257	-0.7337031345916695	-0.11001199456096102	-0.3550066938973954	1.371883031242444	2.175507063141406	0.8429030158696161	2.6624174050822416	2.831217520241389	3.7541489506352104	3.0404534263140715	1.5460177620955207	4.312608231146623	5.054797636621408	5.693072781494293	3.476864329142904	7.829568366310121	8.610371567921547	9.165245033012324	7.595635871783556	8.342686632073947	8.619420983487077
304	-3.827802171579625	-3.3745813284550987	-1.8267961694371604	-3.0570826453272626	-2.7214717796279677	-2.21712040341415	-1.0103366349460934	-0.21478907709728948	-1.2759706941814377	-1.9633529136678882	-2.162200683856764	0.003164892542567266	0.01898340876077969	-0.5175278769778221	0.1329961713770923	-0.2579122775241881	1.2483141390754826	1.8509104205130575	1.2427201239681462	2.9578666612332762	2.8680970596380235	3.6253011135124	2.9130647108916787	1.6332251984369275	4.391809452412724	5.032392489125485	5.622427926173386	3.47445749359295	7.716281394550244	8.427960374534434	9.151993728419315	7.4038076213828665	8.152583101670125	8.63007352557444
308	-3.517660132109973	-3.0968060415282403	-1.91631841175722	-2.8780996726803965	-2.3430516660661747	-1.9791108319859525	-1.0870984765262752	-0.3931263079254508	-1.0344722244847664	-1.4968512020466196	-1.8475236846054706	0.07112073135301111	-0.04451714072312863	-0.25308337743757925	0.5687324390357378	0.06320797636047669	1.3190575804785987	1.6960282282924033	1.5514906605649794	3.3820934210264646	3.1039318960024365	3.6693808939797226	2.935038320760517	1.7855914786079647	4.613337981974268	5.142559992204273	5.721625790455406	3.6126518158301026	7.690049628869403	8.312707880013408	9.222017264924652	7.227959614624691	8.00619600181999	8.669650055931061
312	-3.2420940317314915	-2.904432289419943	-1.979860300787466	-2.6369714670361346	-1.8361116601362975	-1.5816929300428642	-0.9362900233471545	-0.5356415496653963	-0.8025361875299127	-0.9407533979506011	-1.3555852140533675	0.3712102463409977	-0.16286160010704062	-0.02064735437187023	1.1071838112533967	0.5619232640384335	1.589566226760657	1.7776296093882595	1.6334065157658766	3.844533910581571	3.518299093900352	3.9122390648295773	3.129209033694966	1.9495865057360313	4.932445036832662	5.37006758287743	5.995782837034955	3.876824130760666	7.7511219782635505	8.302144029637246	9.359766936512903	7.089445573073771	7.920565108328911	8.725150086308515
316	-3.051885597153128	-2.8552601265344473	-1.9277365159001452	-2.3983840881829437	-1.3238127198174843	-1.1226376266745846	-0.6126298888951528	-0.6231846793653306	-0.6552920324947166	-0.4072783281057085	-0.7865501026322244	0.8297668674500229	-0.27953204442021073	0.12529107896643105	1.6381895500784465	1.1483256787871576	1.9955836484116478	2.051998610084094	1.4775062762150288	4.268892754267248	4.039500226312473	4.3001861463696365	3.432317486680301	2.075539583687989	5.27646158793554	5.667617306705046	6.372807963493947	4.185148705406416	7.868576029938443	8.392948129444608	9.508996939493068	6.99246929310621	7.882424334652014	8.76145742111675
320	-2.945516817285575	-2.941152326787561	-1.7138189034107552	-2.225906128031861	-0.9159685350180292	-0.694591341649188	-0.22750775458592987	-0.6743774397036106	-0.6147050842024134	0.026413181729983085	-0.23838505088701195	1.3252509798922831	-0.3383980980912446	0.18539476347845643	2.0791158623654833	1.7286239818798457	2.4371850429037063	2.391920560519819	1.2163398235128995	4.625188815837169	4.580209720491746	4.729866015890267	3.735628833875939	2.1547291224437433	5.586919770440282	5.985867008355156	6.742795927189944	4.4367012865584154	8.007769564438087	8.556879975649373	9.61126134353175	6.94252393877064	7.875869254254746	8.753814675164367
324	-2.885109655725442	-3.1018221300012936	-1.3754171098315437	-2.149582380589672	-0.6674985868767398	-0.35290497452327674	0.10218255196045105	-0.7259609084874069	-0.6397571547568388	0.3388804784801939	0.22296717706653282	1.7398457483233762	-0.31364312688795204	0.21188750809578802	2.402373307838399	2.236117834167578	2.8208036351511048	2.6547906331746174	1.056634542658487	4.929575907658998	5.069600092486135	5.095921026715335	3.9444701572012044	2.2246043625932526	5.845503792309393	6.293022616710522	7.0103926481634975	4.563581455152869	8.150732019826654	8.760265328224254	9.639394735794705	6.954626542652438	7.901491622048942	8.709985711041627
328	-2.827924244416574	-3.2566592611106113	-1.0280276510986326	-2.15068387442234	-0.565159438613698	-0.10757734599370931	0.2992733709408795	-0.8030799010981811	-0.6538327319803651	0.5558350072178674	0.5735846743407172	2.0016794154174367	-0.225725933339513	0.272686301973429	2.6310124330851155	2.641001217849935	3.088710538695286	2.7524514128810504	1.155385133687242	5.21434401149325	5.467546926045625	5.331395612607635	4.0209526914166736	2.336716407598283	6.068974956448551	6.574654085726033	7.13197658645516	4.557098854003464	8.296851137194555	8.974186874620187	9.606043791359864	7.04319809089073	7.972337225812946	8.665505387362424
332	-2.748643391345255	-3.3344023143506085	-0.8130602220034642	-2.169440025574326	-0.5421689139029141	0.06713493896462151	0.35112699777643813	-0.8971282221078327	-0.5891662225153365	0.7258248906883729	0.8275834301081235	2.1050000137588722	-0.1283406910040196	0.4083996702850368	2.813230507423643	2.9443807527590242	3.230300179908851	2.689583056335066	1.520290370917495	5.493523107010314	5.763607010594775	5.427261815673702	3.9924981493284806	2.5116729672914477	6.2828311761539775	6.823139650284214	7.124496441973313	4.460254181091235	8.448873498566106	9.175172782621049	9.547752356265336	7.201670151647853	8.09254644258098	8.657072045403737
336	-2.641437762267168	-3.292317858966749	-0.8266881683458575	-2.134667391155893	-0.5124348389085579	0.21499136035998526	0.30681800764821054	-0.9677602624301449	-0.4236680258544744	0.8946652985872872	1.0253043148857206	2.1035652107534615	-0.07617284338315966	0.6082249268434385	2.992954485012486	3.166128865831366	3.2759816563865343	2.5516569549987254	1.9963886687419519	5.748017773421	5.968602642248842	5.426088796267484	3.925900449377605	2.7137050560147644	6.494239790732527	7.028233033555466	7.0457100690338015	4.334828842662787	8.597113587608339	9.340685820838422	9.496389365062008	7.389321785390386	8.2365140706965	8.69160459231362
340	-2.506705754626987	-3.1235468308741785	-1.066866752791955	-2.0010492751144624	-0.4077721525864258	0.38130047821096913	0.2515605681743799	-0.968692061839566	-0.19058474850220294	1.0899345847268174	1.2187439172492003	2.0836663193547267	-0.09268706268512752	0.8178438523624804	3.1917889037609655	3.335423222703744	3.280813685716986	2.4508309302441313	2.350409978654408	5.93937872340783	6.1067919576958465	5.396889672958636	3.884850253787277	2.864557735840197	6.682723028476867	7.177209359168106	6.960105878423516	4.224424828354128	8.714637734345311	9.44723985194147	9.456665015186715	7.537291507764602	8.346570947554865	8.731932618029672
344	-2.336256498160357	-2.8541066574516663	-1.427015062543984	-1.7720817282758627	-0.20078690299361876	0.6034395679497282	0.2722309820931394	-0.8795294143405284	0.04449371609779104	1.3199876513533257	1.4580109082604047	2.1303961223220726	-0.15371926090053906	0.9751737689193011	3.4092364225143315	3.487252226608132	3.306317082640511	2.463763469197686	2.410298341387726	6.042593940737569	6.211498721652679	5.405525193871892	3.8982775112912185	2.8923373149326577	6.814636690100604	7.26419494702222	6.910148126321864	4.136347760247644	8.768501259599944	9.475643134035286	9.40378091345256	7.575736026710508	8.356342294576091	8.71217630094088
348	-2.1122245735245673	-2.535802119528501	-1.73994683780066	-1.497648354563833	0.09181094146436665	0.903657910926491	0.4237861324577986	-0.7240800839262681	0.2239981139011263	1.5800477226419276	1.7762346222854581	2.2968361319726527	-0.1996612841810386	1.0520502302310966	3.633995762233124	3.658160677256952	3.4021956834726597	2.5943005019491663	2.177089685665486	6.072374328540799	6.318881972571747	5.490977273429095	3.9542996783555866	2.784681313159785	6.868879777732208	7.297263127022959	6.904430848809443	4.049110879211792	8.738099076143987	9.419177985252064	9.300736403825027	7.467754345159404	8.226944902629839	8.575463273331946
352	-1.8262923909807909	-2.236841434553324	-1.850098366834688	-1.2491832940034029	0.4219704557732348	1.2799469200243652	0.7059466224966783	-0.5639503583974818	0.3297364107389983	1.8561483574734048	2.173969024891505	2.583292477761261	-0.1727892901111199	1.0730431052772769	3.8534612558349104	3.8748407266061276	3.588125696659848	2.7771916319347985	1.8343673898159942	6.081345542812582	6.454386217987689	5.651894555127311	4.017053593983891	2.6080293589549095	6.853064519746015	7.292839508717477	6.921906453776308	3.9358544250299636	8.625950791515026	9.286332106986395	9.120898223737083	7.22850320898367	7.971677283187659	8.309580781937806
356	-1.5036741457168323	-2.027296538002906	-1.6796886878520891	-1.0851305695793394	0.7312412839547271	1.6987945990587343	1.059708711809661	-0.4698322701512967	0.38837849995785406	2.1256997531627873	2.6116352015361377	2.934852354269287	-0.05587564767200929	1.1004220219485692	4.056176652204207	4.139644135513979	3.8422560594825854	2.9184102938402186	1.6473823744189453	6.129236205838643	6.617178423387225	5.8481297345329875	4.052286614677407	2.478296750487287	6.799146158218328	7.260655861642971	6.9267816368694675	3.7868373298404	8.454569795243618	9.095654464645543	8.863104797874277	6.919417840653929	7.653742770898325	7.959373454025608
360	-1.2129092185868686	-1.957156295603394	-1.259619828858645	-1.0245662901759751	0.9723677610642945	2.097865337797271	1.386759516075795	-0.487759857138352	0.4518295217073694	2.3596234262019475	3.0184736175621922	3.260476104133812	0.1109986078916953	1.196205851395764	4.230513085174694	4.423321235933018	4.104421128400761	2.947266571233184	1.8095499231428125	6.244614108531961	6.774560434403448	6.0171947327328485	4.045436372079956	2.4976301130178205	6.743534547946136	7.192450028380116	6.886674863594263	3.617362728522677	8.253823259495572	8.868125893137478	8.553670861582768	6.620892984840249	7.357892494698254	7.608874778610483
364	-1.0466004583637525	-2.0352971502416177	-0.7153817397175775	-1.0424363586809675	1.1239303322072096	2.403568261753839	1.5867587287895346	-0.6201406701643368	0.5654377923040963	2.529760592749321	3.319169274533111	3.4686853798074746	0.24667231676288578	1.3836219275827402	4.364798057980188	4.673676002146635	4.297384251235108	2.851326935244939	2.324563974233579	6.405251486819017	6.875015241431318	6.100552066659354	4.003827084923047	2.6947395733508555	6.706696493382161	7.0667762577928706	6.787042600662216	3.459020129053679	8.049683550538319	8.623851754349914	8.23740861720303	6.400521739058742	7.153366070806674	7.343977909619859
368	-1.07510995593429	-2.2200250569560107	-0.2192631507344463	-1.0874555083475783	1.193654653396529	2.560563796254314	1.5996507365847443	-0.831290600585214	0.74282496980042	2.6209368639577217	3.4685764225171005	3.508038750374621	0.2701036923264766	1.6327809054158935	4.452218998158641	4.840524184403607	4.361790646030994	2.6775865487207007	2.9979591293937715	6.551841719298033	6.878245336332831	6.07133005516697	3.945676793626991	3.0072383804689764	6.686673624322606	6.871966344649464	6.638986570762584	3.34219478717029	7.862783412155216	8.386754014775189	7.966084937010372	6.293959601724025	7.069855672152772	7.217580300228289
372	-1.2992383208850828	-2.4286665855124934	0.06895306689019552	-1.111655947739603	1.2114654748847642	2.5601818496915576	1.433665033535495	-1.0724990340811407	0.9607242917600428	2.6418545179423853	3.4764757068599494	3.3938021574165806	0.14396080338371103	1.878300304438961	4.497785080044331	4.904632555976368	4.288669098516634	2.502203935027757	3.545745125401492	6.627845747426455	6.786591512711695	5.950690254446166	3.885581245148957	3.316988936632732	6.6695203612738725	6.632759554329331	6.478181822633421	3.2802965558202204	7.714365939690579	8.192124346077128	7.7877864641023775	6.3036646683804305	7.096716862880852	7.233804684495188
376	-1.6303381878698757	-2.5698609287229064	0.051915060597715446	-1.093644139389693	1.2155981033151873	2.450510018837471	1.1627931565490928	-1.3103933301266335	1.1731426686231825	2.6266825132809837	3.4067931089218675	3.2048828520921644	-0.10437881920210602	2.0567536302136906	4.520826805144847	4.892794596716706	4.129896153513444	2.3876299797811398	3.755408039148267	6.620053274606773	6.657264215827522	5.8028759809851325	3.826802959317133	3.5183129221779046	6.648008806610167	6.420308573725582	6.354719145943181	3.2653748906662434	7.631732921405555	8.0881604944109	7.7388076586840455	6.412489398025109	7.203398686341975	7.35805986454036
380	-1.9180175017568977	-2.585383885531859	-0.2768786244554439	-1.0443980667448622	1.235703703621481	2.3179080427776055	0.8920615292914928	-1.541566010397776	1.3348480429326282	2.6223998003553954	3.3477301513073154	3.048436395577974	-0.39718875188682795	2.1426057761456163	4.548009860953902	4.866887557139781	3.9766747851106183	2.3515782296890566	3.6058871655023332	6.57203911075705	6.582417471479138	5.707761750115654	3.763316860234256	3.578726997876814	6.633142931403559	6.331138118018099	6.315281852036403	3.2751204884809937	7.643399696125855	8.12335012292313	7.834985236413632	6.59869526150762	7.36350725222192	7.54193351748799
384	-2.0210571238035713	-2.4799010691020107	-0.832472679897415	-0.9962529514908982	1.2787785497804278	2.244572633798331	0.7050538641294866	-1.7869892075244187	1.418682094806844	2.6648898057412826	3.365562668886194	3.005998842279357	-0.6485648138837715	2.159249538692096	4.597400176838725	4.889597880416183	3.91262315715954	2.3622829854451104	3.273426047643597	6.5586352182738015	6.641938669601567	5.720893845419413	3.6867153551481153	3.5533616453102406	6.6474380325332385	6.43875454230694	6.381885035614584	3.283890715891102	7.761280040219105	8.320610025379198	8.06080339303954	6.839755041019853	7.5641851234193584	7.744574527260794
388	-1.883174533857807	-2.3216590822731398	-1.4630244933383838	-0.9809265111952736	1.3260934319394115	2.2661426010137693	0.6224026664278519	-2.068658346675333	1.4195109569949977	2.7582695414521767	3.469434252562542	3.0902144830884613	-0.8081426600079757	2.159792179376761	4.664622295046692	4.987410055919963	3.9672400851222314	2.3613429009900866	3.0206048412354	6.63700245135231	6.8549642389795	5.842087254079494	3.593855610356929	3.544922581305668	6.704701406717276	6.744460088867871	6.536792738623138	3.2717180169472257	7.9610752858389375	8.651979424566985	8.362108209478526	7.105529290379355	7.796226958618421	7.938708762152732
392	-1.5686217506859121	-2.2093019429694123	-1.9946941086952659	-1.010299203229269	1.3441674675383102	2.3543293416663635	0.5954887255892785	-2.3842091500168276	1.3486123050972785	2.871293299101389	3.6083066372369474	3.236975661688262	-0.8815308190977434	2.1915979330043447	4.722568500039551	5.133781420143917	4.0969800845657875	2.2987720908300697	3.0362906379334684	6.805402738555315	7.159718972249375	6.010258659447137	3.4874870689079542	3.634165277842437	6.791514856357712	7.157922249841802	6.7213506528910605	3.2254452623948637	8.175970056872309	9.031343437281057	8.649497964001961	7.348634224457957	8.033871630412225	8.100805262140206
396	-1.2339973418551593	-2.219782823680255	-2.2871727885674846	-1.0702555152574593	1.30460977224939	2.4350559649977046	0.5399696217255444	-2.696339362012588	1.2267000644230217	2.954358570269233	3.702373733709656	3.3396892463288372	-0.9167790389756386	2.267562145230156	4.737627494294744	5.264301286757745	4.207284916745791	2.1594045107681206	3.321521512228588	6.997565251803061	7.437488060293193	6.130191310664112	3.3704867277879464	3.8242540262943936	6.865646344970597	7.525284748151361	6.852995855195407	3.1345848958029747	8.314395883549183	9.336259818347155	8.818524338392105	7.505341034059868	8.223275163869573	8.198444345755997
400	-1.0475803587213859	-2.3661074578628227	-2.2837588729419487	-1.129284855852443	1.2021230428862568	2.432569020805375	0.39141207834603853	-2.9441924020820096	1.0794266435073148	2.967478029388331	3.6908948328292133	3.3094162857424276	-0.9667109226615235	2.3604767262943973	4.693242538046942	5.316262708593108	4.206186760773222	1.9679605911159719	3.6913757231020474	7.117991906314686	7.571404914813484	6.120106204793578	3.2406480230528913	4.034283627814902	6.8750753229131	7.695883254648132	6.855988962029891	2.9882576390160436	8.297564485581425	9.45387551781827	8.783938385720637	7.513153057202987	8.293478944820256	8.188968637772108
404	-1.0990316840080487	-2.5876874858373227	-2.035732502565958	-1.1561603516952335	1.0609137985146875	2.315705055112269	0.15069782695869693	-3.0717699450185743	0.9363691187105717	2.904123537360786	3.5698718934527602	3.1286516110584337	-1.05156659814461	2.4240682063889714	4.606442916684059	5.270525442168056	4.060440530062094	1.7715123847104055	3.89254712075698	7.09872577782329	7.509808521383794	5.956145271522237	3.08960603887613	4.147708882350307	6.788217527417062	7.595120887653997	6.693544847754965	2.7767231394280465	8.09844014984149	9.33053681878885	8.514777162034969	7.33812854821495	8.187683084796838	8.034915903786054
408	-1.349242445400253	-2.781479590069114	-1.6855081277253972	-1.1359312505652768	0.9252476072793003	2.1193749851123496	-0.10917890789361932	-3.0582919043574126	0.8294804075279557	2.7970359254790567	3.3979418191950694	2.8675811218341503	-1.144870874375409	2.4262690482871014	4.525415885943808	5.170166002571586	3.8212613962970665	1.6114071566905601	3.7645165825212663	6.943525773637496	7.298716049840336	5.689505085885624	2.908713333415482	4.08684634130524	6.617046339494736	7.2647828872368	6.386832697955608	2.498908275017157	7.760829905942898	9.000323272869629	8.053709009817707	6.998047334168787	7.899114588821301	7.729954700027197
412	-1.651693339946086	-2.857866518434605	-1.4094759190259492	-1.0767240497107322	0.8367978909346212	1.9269376944528822	-0.2815038852736918	-2.934695713263213	0.7854021767813933	2.700669520235298	3.2656595624489717	2.650924675924246	-1.1917538612794407	2.372870439260543	4.50606726462425	5.101830469602026	3.6024060158376603	1.5025060138914734	3.346407643452378	6.731340868167352	7.062672597219735	5.425042615545028	2.699254267553324	3.8673825166335027	6.417085631381424	6.846811754106285	6.01073025139541	2.1721324865813223	7.385519009063318	8.575694062515934	7.509033184166514	6.566908342947738	7.489202957318387	7.317985039354674
416	-1.8364430619604117	-2.790654890644093	-1.340867396784008	-1.0043390963946464	0.8117125609884951	1.8241311265666917	-0.2881280772564027	-2.7752299238709037	0.8134247044053454	2.6608731679492994	3.2462484754618472	2.592454903733001	-1.146818754161751	2.3062517584747595	4.580302226900204	5.14933441769376	3.521338453939065	1.432367917259168	2.8629198002059044	6.576047880735942	6.942718011493539	5.272107111017823	2.4817480978296476	3.598814478371142	6.262485011501978	6.517538054223509	5.667592511172882	1.8381072236383391	7.088188153490764	8.20232580021397	7.02052400723826	6.154140456874399	7.073506814263915	6.890190107115661
420	-1.8094248725983895	-2.632663243322647	-1.5093198976557032	-0.9497635340553247	0.8299244621304112	1.8494310332334676	-0.13011638787320126	-2.667877905785618	0.8959585405617136	2.6884164742304675	3.354528657073232	2.7313938071908077	-1.0082374785716937	2.2792563380869835	4.73334406611342	5.343886838772387	3.6340258029740147	1.3781577313913969	2.5977144175747022	6.563209993958052	7.022313577088478	5.290985094063422	2.296154493256722	3.4279949578521025	6.207900031628805	6.404044135137495	5.4481358390585	1.5581672152279933	6.948472482304205	7.997619608714201	6.710814459070006	5.864619717096335	6.777830583626148	6.555963022845978
424	-1.6050181348332169	-2.4883289274333937	-1.8284972859947553	-0.9363161897861448	0.8428027608573571	1.9691948840968643	0.10387098017932127	-2.6768524579175006	0.990535912397056	2.751453869548608	3.53647326530222	3.006123773614491	-0.8257304409160245	2.3221201838039582	4.904688345923737	5.639080987044427	3.89985512702515	1.3282977309069297	2.728818886543012	6.700353605519757	7.280947666859073	5.462650762117557	2.1902825777067623	3.4583060654110724	6.258594497138021	6.525248511052187	5.396692262375638	1.3968574965495677	6.97560642388609	8.001942614379557	6.642922861493613	5.757493481404889	6.684769136717551	6.399685843522522
428	-1.3628047670289143	-2.4576883253989372	-2.1412384455979208	-0.9716441606785482	0.7963131050032051	2.091982120954215	0.27906346250649205	-2.8142170835014744	1.0453867885899002	2.7908933092225925	3.694474687785385	3.2812211430676417	-0.6763409955114889	2.4224100051755064	5.013865935064594	5.926044925986661	4.197556485068692	1.2945543494918794	3.2232415594737915	6.909305555065446	7.600686530950492	5.698050484576208	2.200466627287373	3.6907253172199	6.365707858226228	6.787243349105313	5.496366486977501	1.3989621365512732	7.108039361173799	8.165748575574874	6.801828367226448	5.823721394140511	6.7977275676762545	6.444645865381665
432	-1.2444146840148322	-2.582078688778119	-2.302300685791864	-1.0489964458683843	0.6560562832480971	2.1136925167123897	0.28350526022858447	-3.0353183669703467	1.0217510436010517	2.7488193442561872	3.7333357239879295	3.4130172643321783	-0.6244469269245522	2.529272549919132	4.996598231098181	6.080813869382529	4.383064735790515	1.3036133018005507	3.8506405256326817	7.063390713978176	7.821322898191291	5.880127415116264	2.3314387739446154	4.019186963424306	6.448341830185567	7.032869798070126	5.677943215339864	1.5672142466077397	7.244878273792181	8.37602136404545	7.103831273263281	5.991908535134336	7.039453011859658	6.641095144670835
436	-1.3393781151334099	-2.8220083642282634	-2.2561032715103075	-1.154551979964675	0.42091652644697725	1.9689872215149913	0.08593407996654331	-3.259905091638305	0.9108074284446035	2.5942995482748525	3.6027858166332103	3.3191761886718876	-0.6885437948009007	2.5796329909998703	4.8321719047616085	6.019995674193062	4.35866402479255	1.3719407285384408	4.305002201655328	7.04863260396905	7.815735797222731	5.916812404952842	2.5450916226025817	4.282997597371285	6.43036745355248	7.118446808962464	5.847870811956737	1.8508287621499215	7.2918724829630825	8.507784821964732	7.427313785874301	6.159050449080019	7.2859492117988385	6.885001642010352
440	-1.6155773360470969	-3.0778248232381507	-2.066878790405412	-1.2753740516887424	0.11997111856449935	1.6630810457202525	-0.24888510939226302	-3.4097587976198245	0.7350403051891845	2.33463525182656	3.3169946586786163	3.016837589276528	-0.8337283709457279	2.531477444933097	4.549101818043431	5.737641796884697	4.117983807657289	1.481973048283219	4.365137089198815	6.816295606569804	7.547876338975671	5.77896116705015	2.7643160750215054	4.3474631199746385	6.273410304443144	6.978963357471364	5.922894939727525	2.151990408232518	7.199569207134115	8.476321198997296	7.652399043789901	6.232839091777022	7.419847469670006	7.059576970396496
444	-1.9440300415548086	-3.241306773585286	-1.8832968425885774	-1.4035506213037874	-0.20324435778802005	1.2700692383171261	-0.5943036064402014	-3.445093861464938	0.53414726122465	2.0096471258923154	2.9457981512082045	2.612215035519049	-0.9931022499760258	2.386755222016625	4.209775914053955	5.307846055934914	3.746396532136717	1.5781298835964765	4.004446973227146	6.402138693858126	7.08780906795095	5.50820492307432	2.8958797381720047	4.169782151184958	5.991991027962497	6.653267843614711	5.85928915451824	2.3538639486011323	6.9789414229621425	8.269054391964442	7.6971916958069375	6.168063148184462	7.379273872818099	7.082126122713833
448	-2.181812042449828	-3.2495231546375396	-1.8531752777995147	-1.5356800517410667	-0.5079185353806844	0.9008692480230702	-0.825638053716856	-3.38237070183326	0.34295156511504177	1.6752688842438634	2.5857660705131944	2.2495729866452034	-1.1042807074322962	2.189859623148504	3.884151210515116	4.854372965954336	3.379278174451541	1.589180703919223	3.391131392500228	5.9059800952572905	6.579325182515998	5.194206224678859	2.8655769752632825	3.814505090619545	5.645108208708898	6.260546191621619	5.666519150732477	2.3617250859714214	6.690067751206127	7.945311526265701	7.5400876808532455	5.981171116033027	7.179682713501462	6.934391481058018
452	-2.2598764839336427	-3.112948886641292	-2.035086388218224	-1.6686726766418039	-0.7637721280841729	0.6587048752366493	-0.8786823727357639	-3.2853174126648437	0.1757102753256079	1.3869248593599846	2.3264772833260388	2.0467183538260634	-1.1414999933032923	2.004841561024077	3.627300253293119	4.503125656202722	3.1408560196732505	1.4665732346700613	2.7874445844845956	5.44661186750473	6.1779351078458165	4.934238898217293	2.6505343847112424	3.4147157582854097	5.310696111622299	5.9426016657519884	5.400673852636582	2.141513819056088	6.412301524185251	7.606850604879021	7.223013382795139	5.737778649148756	6.900422078830551	6.6644830535473325
456	-2.2191832009553285	-2.9049975798695655	-2.357939714200583	-1.794471020936315	-0.9468696689541409	0.6032360776929787	-0.7721827010686145	-3.233363620223993	0.026637697525123943	1.1903442114340619	2.225982183558402	2.0498437829716147	-1.1247640819762226	1.8866155099920028	3.471165171442449	4.340002048979072	3.095477811627419	1.2181700437307517	2.415474408726953	5.118835436294933	5.991123184336758	4.796857344914246	2.2946202697040774	3.1058597486281845	5.058243261917884	5.803549275050816	5.1436805595232205	1.7398669675768628	6.214304908321619	7.357182007334325	6.838540059943819	5.523368821504053	6.647744161988032	6.364629252577096
460	-2.1758174841306124	-2.7197818687435626	-2.6505193643407967	-1.8969912481097275	-1.029638407014976	0.7380732279262782	-0.5846701249619907	-3.2818763173213585	-0.11382427037826694	1.1211415500944995	2.3029317797691524	2.227627033331471	-1.1034991713319744	1.861970777578944	3.4302403840244122	4.391497600912046	3.232926122132446	0.9150028205658165	2.364298337689168	4.972178923451094	6.047337516775397	4.804826724319174	1.8978494357830369	2.9683556481757885	4.9316072339478145	5.874633297393318	4.976489531350366	1.2738026348378515	6.136157497172486	7.267118435631782	6.503917200833826	5.410844312358218	6.512279017218964	6.135423644787864
464	-2.237234825207848	-2.62435197167615	-2.7271268298914	-1.9548280189750562	-0.9775726770515196	1.0220324967329706	-0.4035622169319243	-3.4332356366261028	-0.23983727334981425	1.2055674760898407	2.5417849953373706	2.5004973348428567	-1.1264605493715367	1.926845545672292	3.510703077989354	4.6298866155079255	3.48810266567764	0.662483690496579	2.580118649644274	5.013006197670524	6.300639136619271	4.938666808057188	1.5800996978920405	3.005079023403505	4.943634497558806	6.1137623632568605	4.953066336524251	0.889321205754863	6.184615119578219	7.355996590162024	6.325180991415707	5.434566484081773	6.536729319281257	6.049855216964353
468	-2.4221594272495035	-2.630473607097706	-2.4839880403746513	-1.948803658333528	-0.760552702414048	1.39422726279156	-0.27609866787820475	-3.6325092223961786	-0.3225623361073003	1.4564250670855146	2.9049627707571046	2.786737911817923	-1.2131153314479814	2.058668846654778	3.7135889436422778	4.995925890706812	3.7813434505360335	0.5505895004676528	2.933892719490826	5.220664488009275	6.664049608571621	5.155759321547168	1.4341027700456204	3.160819760925337	5.081329809711159	6.435910208665439	5.085407244240659	0.7049294692361544	6.3405108291760754	7.594370345968881	6.362978919176721	5.582723126621532	6.707413656466287	6.131809219137811
472	-2.6390116148123557	-2.6958484581594573	-1.9564863393978102	-1.8710374784914166	-0.37657591605477614	1.7977377130896275	-0.1897669578767881	-3.790317048993602	-0.32094454684289114	1.8623627377219973	3.3443741713963546	3.0393049640214387	-1.3424520458660054	2.2327659073724515	4.027911652885921	5.424160466804579	4.055393685592414	0.6085576995743793	3.3104364788398275	5.561057553556115	7.050441247305548	5.411578641579998	1.4877507649052895	3.363512030692519	5.314579473428901	6.755282384983126	5.342715726714797	0.7631595711513628	6.570159895521316	7.922119120623572	6.610884172914835	5.807706341385535	6.968118173172574	6.353274806194631
476	-2.737043612245513	-2.750648730009015	-1.3087704148627866	-1.7312490896384156	0.1267042752881652	2.192087167927426	-0.0901206506003519	-3.821629037745113	-0.20672699756880852	2.3766288697320106	3.8088202380337997	3.2559049047282387	-1.4627573453211749	2.4298725066825444	4.419053066540718	5.858795151223589	4.290980328216609	0.7900681475719201	3.6588814166197565	5.988299831530166	7.400174122246532	5.672099099143682	1.6937888817938456	3.558307161884058	5.60196684376655	7.017171365187398	5.662923321731546	1.0125579808419745	6.833089811239318	8.27040860949032	6.994578343851618	6.0455484237623365	7.2449369247624915	6.647157652284923
480	-2.597739213106866	-2.732745878949479	-0.7603959421986846	-1.556761737707738	0.6507412774822499	2.5534551079177694	0.07824594507727785	-3.6821808722036313	0.012607431938706002	2.916449777869216	4.248746861221187	3.462265244325637	-1.5147445163630155	2.6323881082830582	4.824199664333738	6.257549746927036	4.497957218258008	1.0005261872779914	3.979610433067684	6.439487441017247	7.686762790346208	5.914711937276261	1.9533665130888536	3.7171168233483365	5.8938445896116605	7.206994515342906	5.971949085416663	1.330560323216891	7.085336667291909	8.578491189278893	7.395119171545184	6.235771640292567	7.470295887206211	6.929151994376911
484	-2.2115278188182845	-2.6133477621855006	-0.48606848594015345	-1.3855093682594324	1.0734302970487601	2.8667695449929376	0.3312522164564542	-3.3880164537721305	0.28743445800690276	3.379793873836836	4.6197986486144496	3.6806611921842745	-1.4579536878015646	2.8146805692180776	5.162859426814887	6.586799128114804	4.6904525638413395	1.1492719621252228	4.2679686438569835	6.834194166094928	7.903690795017023	6.120424255177297	2.1613070910245473	3.8244624041320026	6.135922416454086	7.337119083953582	6.202710612849183	1.5765376051199669	7.281623821947698	8.801053024959653	7.688468436856794	6.335213645198971	7.598041992077774	7.120465260648042
488	-1.6927347140490097	-2.403513663899363	-0.5389732108813499	-1.2537732092673883	1.2977971997873419	3.1181082646800236	0.6285027845726984	-3.0108504219332457	0.5428662286403808	3.6777224447856884	4.886862265646478	3.903281678835347	-1.2893997398247177	2.938538782330048	5.36197279530021	6.815944177585096	4.862636553885133	1.1961545914013867	4.466067779709371	7.089436513167788	8.044886568738907	6.26495884267249	2.2504563274785445	3.8581864736421942	6.2768730958772725	7.422697525357391	6.3075861771595925	1.6500735241237598	7.379531364882879	8.907153107089236	7.785598258388908	6.322893126736425	7.607339839802102	7.1653766451171705
492	-1.2228652207971447	-2.1428234523077863	-0.8335128405507642	-1.1834264963788956	1.299165007172194	3.293293706208548	0.8886014200663725	-2.6509239606685107	0.7116361242447039	3.7693781757554516	5.028662668883437	4.085487832244949	-1.0469040844234716	2.96222805228977	5.38470266890005	6.9175567452301605	4.97974966699277	1.1672223776911694	4.467827785655854	7.1479081927076615	8.092705706191417	6.316251261976583	2.2141160909064763	3.7853500747477193	6.2800216516249385	7.461212616202532	6.261935218259958	1.5271723231858865	7.347145062016648	8.875690437796115	7.656190852862359	6.197208388894569	7.497418384696327	7.039823514330647
496	-0.9553363299091746	-1.8813302469438233	-1.191067692610519	-1.174942490472276	1.1436866492960014	3.383177271884324	1.0275839541240448	-2.399360650680478	0.7634213547505554	3.681752434018067	5.041908251430562	4.163047303179502	-0.7968491295723168	2.8595867084784796	5.247382150753099	6.874905568885207	4.989859568395468	1.131053325658464	4.17790984052601	7.0053472342052885	8.021221140637035	6.241773589587717	2.0971152729493117	3.578536024595436	6.135261996991642	7.428074817976871	6.061833843185331	1.2588847843811308	7.17251155949735	8.69401834200235	7.327692490196864	5.970160469240759	7.2799024398109315	6.752220136760877
500	-0.9374473667318363	-1.6655156570346012	-1.4233717882459314	-1.209097024725949	0.9624125933190432	3.3911158952926255	1.000133750297781	-2.3063967169704873	0.7145736795503976	3.501140347224313	4.943278300202527	4.084681023775307	-0.6107458456832042	2.637922995582927	5.01373003647485	6.692465765268675	4.850576865347465	1.1512204379580109	3.5872266202003256	6.718934519016545	7.81271026546157	6.023613437703215	1.9630867193249935	3.2418425001311744	5.8647971005187385	7.290444832515027	5.72132013783777	0.9367518997383528	6.870391828357053	8.363004663333685	6.8642973726534455	5.662950978286652	6.97465608743219	6.339229090898061
504	-1.0944013567950077	-1.5297949275493823	-1.4172124826889723	-1.2574140993796559	0.8884817935446104	3.335627070588361	0.8219304660072531	-2.3669857919060155	0.6146414860465986	3.3361711417844973	4.766457068806917	3.842367877795902	-0.5404203520481979	2.344146961015802	4.767010676746193	6.401658518841028	4.55639408868542	1.2441334693014918	2.8151431012603667	6.3868145781436425	7.476655464369109	5.67389343736547	1.8582766009143816	2.827936642182656	5.518814549817553	7.03147886408316	5.2731823788068555	0.6457213743119404	6.483025534474219	7.907388667169552	6.340233309950702	5.305925355866521	6.611002428529771	5.859348282325708
508	-1.28224229488887	-1.492788907096854	-1.1835635870615329	-1.2973102298407564	0.9864775513538355	3.2440090097540004	0.5628478512858549	-2.528642648034736	0.5163888322190402	3.266540995933685	4.553163993783907	3.483408919122718	-0.599716125404655	2.049823517392442	4.571817863365717	6.055813297241059	4.151916970260825	1.3690323795086135	2.0798170514048504	6.104413970793891	7.0586657345894706	5.241800294993266	1.7935368969457537	2.428494685717395	5.160585867250314	6.671102983797954	4.772324073186636	0.4312619556029102	6.0730829085561	7.384389381838386	5.822329983316387	4.940647589607363	6.231703742506206	5.385775075666141
512	-1.375542279585256	-1.5565650423804758	-0.8469855167939097	-1.3245625462468655	1.2112479179318831	3.139093629540981	0.3150292030963819	-2.7167489460064687	0.4467477489159394	3.3027403271258597	4.340493668087937	3.097039214898013	-0.7591862063313776	1.8204494668775009	4.445073593361008	5.715093121404517	3.722841014999534	1.4557546340427736	1.6045020778200543	5.919894680335685	6.632978899421551	4.806502330088869	1.7524018243414798	2.1383359378232667	4.847046839874199	6.271004660986083	4.295271862629602	0.29529380723785326	5.70987270820969	6.88178108385198	5.3671488626394375	4.619142520686419	5.893525585553628	4.99649189641217
516	-1.3356724943770797	-1.7047196583623174	-0.5832061752853585	-1.3553496564978098	1.423386450988509	3.0280616206965543	0.15320397874775676	-2.862902872486831	0.39701086182494494	3.3799517069358025	4.150179852497877	2.7818043161730306	-0.9561117863357446	1.6868932204571905	4.352596748806892	5.428427205685408	3.3678905878866643	1.4520730935628718	1.5095709524188632	5.815254673580832	6.28056000077519	4.45624111957793	1.716765041785275	2.012109274552481	4.613861072335496	5.919082626657316	3.9294259448978788	0.21726764683704916	5.453002915919991	6.500321848670052	5.026513086979684	4.396401871071783	5.659069523828678	4.759601104163583
520	-1.219483968516863	-1.9011883687656346	-0.5344694243288476	-1.4145263397743064	1.4608436786008479	2.9025733397633817	0.1062068265975266	-2.9264917299770414	0.33805873904707273	3.3942806635036296	3.9864458937132676	2.60852026280804	-1.1170818777490974	1.6355324942303575	4.235218037402806	5.221797453094305	3.163572541832693	1.3610519136397852	1.753772850377142	5.726345524635385	6.063191398571308	4.260482300492096	1.6900598960168225	2.0402710386262766	4.4722165948488755	5.699646935377841	3.7508127594662652	0.18258610321676405	5.339498029579366	6.324447615868242	4.84969090190976	4.317004192896999	5.580935940957099	4.716714847100229
524	-1.1281163663992164	-2.0937914795464483	-0.7372887711983698	-1.5152668914685083	1.2344869344061082	2.7540500094498905	0.15324884614399817	-2.902615063014619	0.2507152849066318	3.267116061545026	3.8464872739952183	2.5975694590789744	-1.186074253902423	1.625447388359824	4.052958955068776	5.100489603516545	3.1389458100223115	1.2444328038267982	2.1617407744188384	5.592881188577087	6.007094844910448	4.2477550399346296	1.6997444586754766	2.1601762717067237	4.418202865889787	5.664154992108075	3.797466268488491	0.1967992181577623	5.377936349642231	6.392427905155837	4.873041140650855	4.39953755221621	5.682727799373195	4.868247973548699
