time	FP1	FPZ	FP2	F7	F3	FZ	F4	F8	FT7	FC3	FCZ	FC4	FT8	T7	C3	CZ	C4	T8	TP7	CP3	CPZ	CP4	TP8	P7	P3	PZ	P4	P8	PO3	POZ	PO4	O1	OZ	O2
-200	0.6276877506620975	-0.012874620002785428	0.643447993561302	0.6761867386911996	0.8208359459180059	0.571013806808756	0.9055005289104252	-0.09073323733548434	0.8072972873332608	0.9523264145649063	0.8101395348121992	0.6693019850045109	0.38838347694568026	0.5215764032546794	0.947168407433001	0.9278143024861378	0.6088528021699172	0.24016675292413955	0.3662163009934225	0.3367646328052991	0.5078209029727888	0.24676509139224445	0.2714207761587531	0.44671022779214803	0.332330017442884	0.3438996067901232	0.07746461014263172	0.9202461815488246	-0.34549736889393834	-0.18962135863113064	0.2875052683247171	-0.2737175517324068	-0.07661546747414419	0.18061758532222083
-196	0.35708084612337515	0.019454875911827242	0.6089062079315012	0.8023909310109618	0.5919328317002459	0.1650950308446192	0.35960075168418215	-0.2505802505842341	0.9403532123665895	0.8091821054055894	0.5383225069759798	0.3571321955247195	0.1811272944407307	0.6803123337735569	0.9297264194857048	0.7643422465100101	0.3714480986753734	0.12042739211910299	0.6591442210721795	0.2420470559446379	0.41408416524291386	0.08914275444889401	0.1702073808187418	0.6343154891211635	0.3061417035479741	0.35367238432282233	-0.017630843401145083	0.7186871152852514	-0.23089547397015317	-0.13138189878671605	0.15435238143574478	-0.12095808952310139	-0.054185915601537904	0.09877294277048923
-192	0.07836269567493687	0.007673601600525291	0.40891316429848035	0.8271399119474696	0.30653077286576313	-0.30032178683750926	-0.24473729667862176	-0.4660865056668116	0.8904044605662759	0.5611215219635839	0.26747772030055955	-0.010126611192289171	-0.1299577799138544	0.6781986934705132	0.7792377452249967	0.6071758254933955	0.08005601147466633	-0.0014745611660206288	0.739294586699287	0.11112269731122378	0.33604851280245324	-0.11936086386108785	-0.023381445497846567	0.700118361135966	0.19963158616685425	0.35419058710319123	-0.13940717244714113	0.4789160775967766	-0.12390288679311705	-0.053624890609296295	0.04323116679005605	0.08505045601114028	0.0019129018716646754	0.05102999122968026
-188	-0.1550904508489738	-0.07255128752749226	0.0914580223635426	0.773105559781342	0.09036845691037994	-0.6461001022238871	-0.7029103022948411	-0.692428646723618	0.7307888847020241	0.3425616017275834	0.12174237488765645	-0.27610406209854327	-0.4282515336191625	0.6062374099684211	0.6275795086274586	0.5668629989617223	-0.11552496225276873	-0.05138384537836686	0.7264027577180113	0.07681880871928205	0.3824283769012062	-0.23616170823553612	-0.15854756494070166	0.7703159432036072	0.17208187238638922	0.4403470445482495	-0.15538012942185084	0.3653942337347558	0.0756991801734867	0.12876781788740166	0.08417939373459195	0.406813769505502	0.1873062099257713	0.14513581954552407
-184	-0.3114706866029859	-0.19865879366309236	-0.26254707508557595	0.6759245378594946	0.020391676523461414	-0.7523447852213311	-0.8830580093023227	-0.8686346389774101	0.5544106946299107	0.24975831743601784	0.1567993458126921	-0.3460410824622067	-0.609374521624319	0.56240290261373	0.5710430130846221	0.6798118335726415	-0.12568831412053372	0.003296567118785542	0.7675342540436076	0.18829922330522217	0.5767492041331427	-0.17582951441718003	-0.12843695250508882	0.9377588010000014	0.30276879591794004	0.6302593334497943	0.001392734815575539	0.46901327253182823	0.38739520213547707	0.4166741360634775	0.32040652551818444	0.8136234858951695	0.5071300255369415	0.40512481229541075
-180	-0.37738585376826167	-0.3165833644026539	-0.5686631188340391	0.5658783302325189	0.0944275853633999	-0.6087416395076918	-0.778248963775314	-0.9414455866886301	0.43410387525630323	0.297747015201325	0.33691835318378677	-0.22553367855827539	-0.6331984980808929	0.5979095682307188	0.6244204028576942	0.8931675530771526	0.038758024475471504	0.13641510869393791	0.9431503987341916	0.38575458429217657	0.8439390041978416	0.05063389973969633	0.07377194594592681	1.1994681328053742	0.5461506233731469	0.8543103911765086	0.2983939342117614	0.7622292618580573	0.7252132874298767	0.7201068979202166	0.6896663886777661	1.1831688851048268	0.8669952728316467	0.7604302148693439
-176	-0.3553981474009695	-0.37289458419113053	-0.7566438298195469	0.46147733810261243	0.2410988503567838	-0.3116107575178544	-0.49607840055149277	-0.885681626944777	0.4007968594445519	0.4211080361701571	0.5571134076357822	-0.0070708794340782685	-0.5362692461779411	0.6962745768133952	0.7225669604178202	1.0945949526807492	0.2795942120645545	0.27828434039427763	1.2198424308496372	0.5373930917523437	1.0498931381421213	0.3458745470851247	0.35471409469693177	1.454698797367888	0.7607032637463705	0.9950458978325992	0.6213682874250314	1.115482089087365	0.9384793615488718	0.9054607130078157	1.0576113435746	1.3624427284174625	1.1215183706578182	1.0821475955344415
-172	-0.26455345683061715	-0.3443912258989894	-0.7804358581866018	0.37259030248032043	0.360552935882065	-0.012638453362265548	-0.1974668348810447	-0.7148716431688775	0.44284871108780133	0.5148881660813189	0.6971866470854455	0.18358986033340857	-0.40174046057360874	0.7906103710240728	0.7646777014499591	1.169440743354819	0.4663199174551627	0.35309079200289484	1.4703096114230179	0.5164391385391036	1.0715346309311098	0.5765803441749203	0.5717902765142846	1.5612089594524914	0.7929258922584611	0.9542601084458273	0.8318257310846564	1.3621358837069335	0.8967025257359217	0.8707441665599747	1.2838621107111965	1.2541378704832034	1.1534670562232126	1.2458325593011694
-168	-0.13756120170194672	-0.24751822587940242	-0.6251383408022011	0.3066512934571947	0.3750113537380171	0.15549242457232415	-0.017424432516809044	-0.4764388787638433	0.5219694958859806	0.4930531370112335	0.6809815151187607	0.2519320541220046	-0.3057422630220203	0.8057748058956069	0.674605248655367	1.0564713451415042	0.503120778720892	0.3174636355967968	1.5452771147814117	0.27526423265577843	0.860437391016081	0.6376689060324052	0.6058191045724436	1.4166235888000782	0.5677257761926678	0.7090303283909923	0.8336691239289707	1.3771614993611363	0.5688344821873357	0.6053172930693465	1.2857292858087161	0.87634151952741	0.9367867088508138	1.1870819300244517
-164	-0.011214029015600186	-0.12147025733320203	-0.31050366084859143	0.27231463721187044	0.2656519108264095	0.14096593821221046	-0.005745233022072383	-0.2317555093874459	0.5964094981394439	0.33448347364853714	0.5124743567879443	0.17886719062468245	-0.27053633263948645	0.7024479490664858	0.44511470086250626	0.7766770104826215	0.3749333014558808	0.1815451826041959	1.35917925491496	-0.12276599525212223	0.46945202232091215	0.500651239084793	0.41912281407395774	1.019819972324494	0.1362866457836101	0.3281756929218175	0.6169185026805591	1.131359693531836	0.051787771153828675	0.2015195185818646	1.0698188516309373	0.36047077087944956	0.5492350445231964	0.9240356064354975
-160	0.0858326477625529	0.00019354940692456406	0.11007735105379222	0.2758437090108217	0.07812231759374522	-0.008510098771126618	-0.1142610308623365	-0.031416740189149216	0.6388447268569207	0.09287930256520399	0.2713925831618455	0.024083578898302208	-0.25524151260783545	0.4992698716432886	0.143495335812674	0.42317891014068243	0.15080757401061254	0.003059737143763568	0.940526661882448	-0.5300809727636945	0.03070032030043504	0.22446475866389468	0.07209406029857462	0.47825413821589474	-0.34350293788014447	-0.057951371970490974	0.2596347921492032	0.6992136222352047	-0.46837213517192045	-0.18699927580827536	0.721656320657241	-0.11085113855031271	0.13210727241063996	0.5428154454831604
-156	0.14139980042043512	0.11000834377647774	0.5570082650426639	0.3141920558626251	-0.10117071096387927	-0.17510190561908268	-0.23074740113174377	0.10411622348963043	0.6432408078165859	-0.13068668511297235	0.07482532392922157	-0.10794788571760061	-0.1878131176259838	0.2644159489154675	-0.11999960213404948	0.12229282378076743	-0.05201186226587658	-0.13955675030282733	0.42024949086897995	-0.7828999141953953	-0.2998333565771305	-0.07144802045664646	-0.30471557301835633	-0.04030544673161064	-0.6805774552328484	-0.31481662313132713	-0.10701818737190252	0.22364780250350458	-0.800474343663048	-0.4152723838335113	0.3654229035688204	-0.3893660595123218	-0.17690207019488285	0.15939944942284195
-152	0.1597378994961833	0.226620807671589	0.9411389803966796	0.37147647048621485	-0.1844284827821198	-0.2302864039090536	-0.2372927212684548	0.1906913812114369	0.6223704799197545	-0.23652018546947143	0.025572623992966687	-0.11844348132508539	-0.015067267193602006	0.08222689458829167	-0.24227535663471245	-0.014256459624834013	-0.12171081422832757	-0.18009291543791012	-0.0328516065244948	-0.7744278292177008	-0.40317317741645753	-0.25638562376141044	-0.5662278518685994	-0.38361906908455556	-0.7381742577989173	-0.35819670467539794	-0.35139146358463885	-0.1421775069223397	-0.8327961543037944	-0.40843719140882817	0.11528991133669042	-0.42367538702808555	-0.30166760010849497	-0.12346250532688653
-148	0.15237511655960287	0.37268230224929894	1.1872770756309536	0.42208400262124524	-0.1219333630701958	-0.0968694162903289	-0.06479640288682748	0.26939040354425037	0.5965913519101945	-0.17328691438793206	0.1694806362879915	0.04225597147405772	0.25787976319054523	0.013537560555432475	-0.17214374200750987	0.07221744936352875	0.0015969329938952015	-0.090338274608458	-0.2918282441877498	-0.4983814644151544	-0.2391043895406676	-0.23952583908164912	-0.6114874466716272	-0.47843530653323213	-0.4923384177175363	-0.1823770399257422	-0.3891822387882986	-0.29100286887130644	-0.5763317928068344	-0.18621340347005716	0.038097813629283765	-0.26856538585567474	-0.2492031597759815	-0.2474601262520543
-144	0.1292397525623805	0.5476262555601257	1.2522461382720982	0.44109859951232494	0.07684950511126387	0.2152415806581206	0.27869650651185884	0.3825610568401412	0.5790271148367726	0.03965314095141628	0.4789684998817242	0.3557835212307918	0.5626059160333224	0.06910242122846437	0.07051213812906854	0.37072002794128023	0.3047349147255371	0.1121087220460924	-0.32564359821118466	-0.044774461424554914	0.1454618867539446	-0.003232680020142725	-0.4215534914817613	-0.3519105604346771	-0.035814016966997125	0.14634077214009997	-0.20907969720028155	-0.19540819476382862	-0.14859023652708264	0.15676963289734658	0.13847658003177368	-0.04223299760884511	-0.09016506351117803	-0.2099533373777099
-140	0.09644218509881874	0.7147233468130507	1.1336719961154145	0.4158956696023539	0.34771397622057154	0.6145551785211818	0.7139950376603791	0.5472710118781612	0.5657215104125108	0.3227191559273084	0.8664258100569004	0.7458061557059792	0.8008671382711262	0.2071617091432191	0.4057592739351205	0.8069782236705837	0.7104476672355279	0.373504786740478	-0.19895556518867974	0.4438776064633164	0.6389269812665032	0.3919824351904542	-0.06501951797281964	-0.10384915742880797	0.4691636848525392	0.521687685126194	0.12913805213748925	0.08885028935888076	0.287790923584082	0.49839267008834387	0.3654321720910596	0.13903602922622302	0.08379625507894306	-0.056877791737958656
-136	0.06086938067803803	0.8131718615028466	0.8687341787339337	0.35104030282083126	0.5972416981876968	0.9697631573034755	1.1247097225403249	0.7404104452513098	0.5340872989521573	0.5719316587313349	1.2190942733503054	1.1096308203338274	0.8966049529326707	0.3561280956813684	0.7264706474082391	1.2681604591776583	1.1094462843540687	0.6256110652387212	-0.02202959166865717	0.8323622920955698	1.1063395710669295	0.8316023924812469	0.3308242253057251	0.15015125236748655	0.8631120302343342	0.8387780168337051	0.5212422000122675	0.44916260129059504	0.5986675008917691	0.7402631621744417	0.6356028898404169	0.21324670260949202	0.20291785844592597	0.13953207397995263
-132	0.03674824154039641	0.7911570648245724	0.5251396881196454	0.26523512534886984	0.7404130678556733	1.1683227986402343	1.4025803768985832	0.9046791173028493	0.4530251908785449	0.7036823612566675	1.4412323200077837	1.3571971620626033	0.8367787578436966	0.4488755453220815	0.9387723779818479	1.638560529386592	1.4010776245983	0.8110374787834734	0.11559575021884139	1.0421634886178746	1.4346797430055895	1.1910909384219226	0.6307945831585259	0.3319155863488071	1.0521427366395544	1.0283635828757385	0.8584218003534453	0.7601765971064649	0.7285087090218983	0.8402276017909828	0.8637487866528621	0.1876755203038672	0.24227504371032818	0.30933153551204273
-128	0.04704041767164727	0.6406378729858163	0.18786428821339426	0.1820634896926929	0.7354476433305511	1.1655553549903	1.4872736893297116	0.9750583743273072	0.30301549954204254	0.6888678652537262	1.4881894550897288	1.4425212108431524	0.6775614602148283	0.45254450922196743	0.9945055817290744	1.8355537606626082	1.5270140132497627	0.9020827389829886	0.1890738899702509	1.0714874240525667	1.5665824373747157	1.3819204533972778	0.7447431664737387	0.4239127327229819	1.035112497577327	1.072585580025136	1.06432032316429	0.9290025210767353	0.7064984422966157	0.8146545866425358	0.9887691711257292	0.11557621479656557	0.21774643604615984	0.40848493472917274
-124	0.1115340438649414	0.4107429374814979	-0.059130687117297576	0.11932812601002762	0.599540053284433	1.0012949679843635	1.3853121960950132	0.9131664014649232	0.09502346789687623	0.5612204060690166	1.3797094787095616	1.3761274779861834	0.5128476010725854	0.37937453293384926	0.9043100453433319	1.8341683103029471	1.486387725892007	0.9056368447326824	0.23194527567477044	0.982468304537786	1.5126913747742663	1.3815742696212963	0.6628551466418813	0.4539997566204844	0.8880913235176726	1.0007683013444577	1.117192861597389	0.9262096262435462	0.6136756523850967	0.7173817139633214	0.9897785161778073	0.05528481290687465	0.16519117313639917	0.4307385970207812
-120	0.22694046738071236	0.1890704179997015	-0.15430846771381737	0.08140464851569112	0.3979453732456965	0.7762930969665925	1.1601246566092358	0.7304619532262565	-0.12352365969227168	0.396369992685938	1.1863068312257494	1.21314894846755	0.42256453526621124	0.27263775399038204	0.7268157583006173	1.6699247318067945	1.3268182244180504	0.8530969002165902	0.28817665504177203	0.8643465616338053	1.3381384577345012	1.2341039149597486	0.45695713047051595	0.4564739156165419	0.7171936613095299	0.8684093930253726	1.0482890579459758	0.7900841216166795	0.531768141834447	0.6076005681909926	0.8867525435947526	0.03592141708603062	0.11581123591032157	0.40227761763096836
-116	0.3554791203106924	0.06009916946019503	-0.07949926684096684	0.06042574330809487	0.21350146776178	0.6020612105427773	0.9016746855858865	0.48842990275090287	-0.2813335650016761	0.27511906554379445	0.9963920687314527	1.0251291964398128	0.4327152956527992	0.17966896250185432	0.5418676124243352	1.4199295008095538	1.1186777325042845	0.7817451338104324	0.3635392477870619	0.7925594429033072	1.1307492227615876	1.0233995888620873	0.24718877610739942	0.4401112187717911	0.6069337710315739	0.7311419230121373	0.9199604964871375	0.6039760693559969	0.5038027750646902	0.5247649537188885	0.7278019767505809	0.0493898129706339	0.08279021808464163	0.36352944282302113
-112	0.43560388574293357	0.06577557308756424	0.12681786683965912	0.04496731225223879	0.11181224854372812	0.5498153553432644	0.6902292949416037	0.27462959220213473	-0.3121182910668355	0.24904297229355207	0.878744659589397	0.8694920517903393	0.5090470897220123	0.1278289553275925	0.41886484517202116	1.16974568071672	0.9252070165163108	0.7169806939142851	0.41036885873183204	0.7999231795142016	0.9641612147784039	0.8327826240494646	0.14693102203465921	0.3829619874822106	0.5869643077336032	0.6237615331160105	0.7944358567207437	0.45620137337899447	0.5225221501509427	0.4787061202360854	0.5687007293647973	0.06598827971248877	0.06174000709562255	0.34549197467359977
-108	0.4128507663316907	0.1890546972746817	0.3767777671837984	0.028337450626472888	0.11653768241784873	0.6220002158673446	0.5687879905645282	0.16544380742264184	-0.18935117077704594	0.32228463806799285	0.8551675059662148	0.7690609674110299	0.5839237556019977	0.11403919727620376	0.3908699443008527	0.9791194175795358	0.7801514248224518	0.6642841679967634	0.35659652858347546	0.8687380530358343	0.8700828530278614	0.7093887907237665	0.21022963470786865	0.2541471117278776	0.6280401929257645	0.550717531244307	0.7062231880477379	0.39935400981211683	0.5451415167396473	0.45305490379389046	0.449965148028147	0.05698560908950453	0.03793801730233469	0.350043534348769
-104	0.2762010686576703	0.3690649261693359	0.5635826573447907	0.014159290084256837	0.20857836253434148	0.761097429261275	0.5365441427989512	0.19399508784906142	0.052893556520909886	0.45905956510037016	0.8977791644317813	0.7121553403040314	0.5997700676080406	0.11453358800104503	0.44740751272729246	0.864518699847482	0.6840080005542347	0.6132700427784242	0.16400086838323985	0.9479836201575358	0.8345766046433849	0.6526380164835035	0.4073215116707392	0.04908980044249503	0.6685457212735101	0.494549541416864	0.6535649283120654	0.4287864257000264	0.5260038362574172	0.4222189773389983	0.3844212283919175	0.012660779026967864	-0.0013865837792316992	0.34884515316626297
-100	0.0779948381600537	0.5393329249116612	0.6070868357589706	0.015932466794557943	0.348800896717629	0.8910460449610184	0.5656120166803349	0.3400175264833809	0.32897856748491494	0.6117129310422432	0.9533734893570319	0.6728981716333098	0.5443352447118063	0.1081471663963234	0.5486766086077057	0.8072798827770303	0.6197280272095986	0.5523017034891476	-0.12457781998652714	0.9866880749586506	0.8195480683615957	0.6313647015843631	0.6412851794264428	-0.1871239538236695	0.6559230072627158	0.43712130078579436	0.6125442370208267	0.49128046507776657	0.44792556649604975	0.37223470117048824	0.36055371074244513	-0.0526544487637068	-0.056736308938070586	0.3019210688597624
-96	-0.07938665131552866	0.6623992903197901	0.4929524945687843	0.049554664516505226	0.5068982230739953	0.9646142100775532	0.6272247417826512	0.5437667356113739	0.5374873863001404	0.7504996638423226	0.978984949501262	0.6370577200064215	0.4562638688488837	0.09586793905134128	0.6515586359739911	0.7788642029171323	0.5753492698448376	0.48362266895261513	-0.3864749660271132	0.9657515859062856	0.7955704907358234	0.6159446819966775	0.7982555011622414	-0.3675156524439231	0.5804880246765289	0.3807746758384105	0.5633940682491976	0.5183528052594307	0.33616870556833933	0.3146300903959735	0.3576439610034689	-0.10865323963151113	-0.11225365819007843	0.1861333544323259
-92	-0.09110999829415836	0.7378017287700117	0.28469762134198334	0.12358663944989848	0.6761032325840801	0.9874705051286418	0.7087740880237499	0.7346456032324784	0.608366428269778	0.8763138629723041	0.9672284101861568	0.6155093296723372	0.39835759896792233	0.10364046666681503	0.7330214958757391	0.7652107457868397	0.5575135932197939	0.42660403143940784	-0.4775621878964442	0.9108999944577059	0.7653934936272596	0.6035034045241214	0.805001554840888	-0.40173953670161705	0.4841366398032157	0.3557526460248761	0.5115733133751496	0.46555864693401344	0.24962480303205806	0.28690457271618736	0.36302047876256904	-0.12195266752447369	-0.13773442770038785	0.018016381143740115
-88	0.08960513002899112	0.7835776190047805	0.09454256272288135	0.23196352959718683	0.864868757925364	1.0054504845983223	0.8117508271703443	0.8591192939048459	0.5371836410311318	1.008774516419764	0.9452326869941626	0.6349437816801548	0.41707646741469556	0.16467682975676973	0.7965201119339873	0.7721953968579197	0.5850607141982177	0.40662044184066115	-0.31707796374375136	0.8771167375354015	0.760410485731973	0.617794094910099	0.6628259999706597	-0.24590936241052588	0.43705689796727715	0.4039803733162903	0.48704787965830754	0.3349706522113788	0.25188592012706496	0.3348259917388742	0.3782762875543131	-0.06780234707164771	-0.0992490199682695	-0.1461815532331457
-84	0.4137138713881816	0.8059384206451022	0.024267485304002058	0.3524264982385503	1.070860502400402	1.0615206930062582	0.9311256385182743	0.8925217367526417	0.3852356960583945	1.156301853121573	0.9449917650205888	0.7089331132156091	0.5110438453169466	0.2904429428397001	0.8564583041502117	0.8059067109741618	0.6642087085166682	0.43392893562432916	0.05357827232661904	0.9096716023366312	0.808745978220869	0.6814646107634456	0.43810996302618765	0.06455025060568778	0.4926834690052698	0.5444083200061164	0.5189692960987861	0.16703303116111448	0.37487447167163596	0.48158755776886475	0.4090179492637309	0.06088574587827786	0.023499248490012257	-0.2369570726134108
-80	0.7467179279548064	0.7807174305278098	0.10851529958268795	0.4511536646419676	1.255604979206001	1.1500494451097099	1.0320377323797068	0.8342884757912681	0.24305915771152992	1.2880418268108733	0.9636939739691893	0.8080863336188052	0.6272956117051102	0.44923648124760757	0.9104536152741101	0.8419064262114878	0.7619008998708188	0.48699095722269076	0.4770419883604804	1.002252576204907	0.8947826005279089	0.7793513516776517	0.21796156410977227	0.4186119724672	0.6445962770400008	0.7397866230406656	0.6005578025914033	0.007950543405904037	0.5916390404068897	0.6983093601716002	0.4437504697563315	0.24600869355079327	0.2182922655793124	-0.21343010610100285
-76	0.9269818044146618	0.6648894531629292	0.2897021167116572	0.49312415594530407	1.3436263765744054	1.2017130821405266	1.0460399362856998	0.6955484730325747	0.17778059795317044	1.3308548893706273	0.9433706975007252	0.8539718367950392	0.6875616890714161	0.5696313962859706	0.9203860140451147	0.8102958777950504	0.8000862578218954	0.5142961131462598	0.7538812737504719	1.080317732944457	0.940743563184238	0.8416846373288385	0.058176033051953104	0.6732253415276559	0.8126467445837012	0.8901058412967051	0.6701201779612769	-0.12510229615574284	0.8151077011509742	0.8959973431853645	0.43978351243564334	0.4427230346946097	0.4315930296014792	-0.09564786380222498
-72	0.8448029735216795	0.4318323720519705	0.44501221067607377	0.45320764069574176	1.25281154793101	1.1132465572860633	0.8962711669227713	0.48958229895008076	0.19319266032079865	1.1988288133871277	0.7891489843471594	0.7480069976041092	0.6279000028016067	0.5706521258251721	0.8186332562758927	0.6154444202143406	0.682445285981459	0.4567632067592288	0.7457575779206099	1.0257509920925396	0.8301243165038386	0.7652749995937452	-0.04553525138325689	0.7154961210306126	0.8704457261043378	0.8656673409540485	0.6270842536352703	-0.25737020308364694	0.9269878840884136	0.9508112644985413	0.3313008836487904	0.5868360385383704	0.5794122204456941	0.03522348395037589
-68	0.5011952506762846	0.10588799390284742	0.45153742914638506	0.3237835160663753	0.9417793726985296	0.8088186958873114	0.5423781858101921	0.23203287960120791	0.22476419749732904	0.8426039793675331	0.42257892978788814	0.4251234222646029	0.43040916214993935	0.40342503684232006	0.5418004975944876	0.18802225542281142	0.345270901046686	0.27809056569460205	0.44720286017997285	0.7366524320123543	0.468322871933138	0.4674218881249879	-0.14657272361465776	0.5119540082403689	0.7049330455148318	0.5698670730508174	0.38097667597904433	-0.43907311447868147	0.8268665650472198	0.7575029711671702	0.06069665759378593	0.6126565321713001	0.5774013981546283	0.072133965608151
-64	0.011733191058218528	-0.23001821281056387	0.253620832518162	0.11749081283946498	0.4471583653127603	0.2988501481617204	0.021772937794192624	-0.05135055245905357	0.1765059228255446	0.2919702224512463	-0.15703910549569577	-0.09504676586234398	0.13213132288474613	0.08310086259126548	0.07709988932217193	-0.45647966746474816	-0.19255463730357253	-0.011697859473794545	-0.015499634629098195	0.19451148758893042	-0.14891195259644557	-0.05415355400479687	-0.30400961560741896	0.12259932576458984	0.281210988050005	0.00254996446248815	-0.08871834702742296	-0.7050569039663624	0.48261281726105776	0.2900221936532929	-0.3790406873193051	0.48034179089388196	0.38154604934682373	-0.061269093150182925
-60	-0.4475646901751683	-0.46607535959826674	-0.10389225903745236	-0.136226355685572	-0.11671833664512624	-0.3031850449536781	-0.5433480725875286	-0.31915029802807	-0.02089126402825591	-0.33728760395723806	-0.8437018373168791	-0.6939944607379142	-0.19295389901559246	-0.309246002847006	-0.50764036050422	-1.1927025288032909	-0.8137724379020871	-0.35394453913017965	-0.45713439468363043	-0.5011943566066152	-0.9028221345995605	-0.6942067724820681	-0.5342960344176337	-0.3278813353843374	-0.3238121560981176	-0.7146907430724408	-0.6978331190610473	-1.0370378468080006	-0.04413269449058829	-0.3644267311432044	-0.9172525978771835	0.2001836145830478	0.018788233351955445	-0.3631646325955944
-56	-0.725785611227565	-0.524529694186554	-0.4965397405008895	-0.39980754155306775	-0.6032326802282351	-0.823954282110847	-0.9885303353147171	-0.5216266499700981	-0.36351132301105515	-0.8840298630329317	-1.4547755681501648	-1.1954423158981191	-0.46855717779115846	-0.6596170647179889	-1.074537751345891	-1.8206115915108805	-1.3404549326432036	-0.6649984700579482	-0.7368544917576327	-1.1584762305574896	-1.5841747482357558	-1.2711466518733658	-0.7905617336340589	-0.7070319634706532	-0.9423813200045965	-1.374626871453107	-1.276294347401751	-1.3557666505916057	-0.6140633805983817	-1.0237985823532063	-1.417029615639263	-0.16143241483938583	-0.41255256429463233	-0.7438564877802987
-52	-0.7698597888582929	-0.41100752249898787	-0.7829036692880067	-0.638301549730454	-0.9029935575575018	-1.114871260689249	-1.1830238073998096	-0.6215061529680488	-0.7667856793117634	-1.213212010181563	-1.812662000847968	-1.4463424646100551	-0.6475024206979773	-0.8730264284026622	-1.4688779078591279	-2.152472967435401	-1.6124408204376453	-0.8739942290174367	-0.8288136103685368	-1.5733633001658232	-1.9829264829162603	-1.6065036017865586	-0.9836218928298563	-0.9301375127196827	-1.3858238423644735	-1.7708642438047544	-1.6378402668609446	-1.5525144299410567	-1.0639145347436836	-1.4807612858579948	-1.7265756086626662	-0.5016050922127254	-0.7769213895255836	-1.062136170566655
-48	-0.6434314234700963	-0.2229188526009032	-0.8774838425416464	-0.8274635055631382	-0.9985112522664465	-1.131798264506986	-1.0995160313502705	-0.6161803587615243	-1.1030497523115026	-1.2814265457225338	-1.8367142630934552	-1.3956699336100613	-0.7256592493809603	-0.9168080068329263	-1.591178770816339	-2.1087839550182395	-1.5673123558527922	-0.953287837482706	-0.8181802609767433	-1.627398248378397	-1.9914741465833392	-1.6128201443960382	-1.032119390742843	-0.9875289176803742	-1.5302828511702817	-1.793734665156619	-1.6681742626034504	-1.5451512297719638	-1.27428435957571	-1.5937522609526638	-1.748591895457056	-0.7210243326102831	-0.9577295756001537	-1.1909196346732707
-44	-0.4833015489296985	-0.10596954795785545	-0.793059049034553	-0.957400438752535	-0.9714834069519949	-0.9637744998440776	-0.8378788211648938	-0.5457996712255955	-1.264384743359249	-1.160005924157143	-1.5940140445518565	-1.1274067135003123	-0.7337099295211567	-0.833209214491045	-1.4500924312219863	-1.7698230698724466	-1.2784981695321123	-0.9277071333351022	-0.8311189392086943	-1.3509111370311717	-1.666072960461844	-1.3424099649869004	-0.9116314626565427	-0.9344397759687082	-1.3753231729116149	-1.4859244785939825	-1.385866161662157	-1.3280051913111106	-1.2197847335536405	-1.3554099763981702	-1.4928894005276916	-0.7673589567837658	-0.9095553136749681	-1.0799003812227934
-40	-0.41720771684215957	-0.1772055621441517	-0.6281457527513952	-1.0298353407608165	-0.9535530781512868	-0.7886380533334347	-0.5830594286502919	-0.4778072225904972	-1.2157132594886024	-0.9979746912555331	-1.2736295429498607	-0.8235746005245864	-0.714220700844929	-0.7122163754601273	-1.163218018455979	-1.3466625179623086	-0.9251770353800643	-0.857817051629081	-0.942067561155291	-0.9130867100550597	-1.2068874805497039	-0.9653735136454299	-0.6731224639110333	-0.851171968218429	-1.042153713456156	-1.024062750138184	-0.9391339993607871	-0.9852672790447269	-0.9748271679108073	-0.8989997483444101	-1.0793471309113851	-0.6575621945945452	-0.6772418601103496	-0.7800483087872507
-36	-0.4886719870150469	-0.4581561076994682	-0.5079511987259389	-1.0522545549528708	-1.0472534868502628	-0.775895593591589	-0.512020407814481	-0.4724780607215515	-1.0107542250863355	-0.942862567905298	-1.0918296547980215	-0.6719673855028473	-0.6983995419989177	-0.6415010078446296	-0.9019786096688289	-1.0803354951285553	-0.7047679406492209	-0.8062766770033485	-1.118312475242023	-0.5407791720088398	-0.8621949531721355	-0.6847242695686923	-0.4176268269008396	-0.7981307486410415	-0.7119053584244746	-0.6331721528279687	-0.5363740311431917	-0.6557332856788748	-0.6730480177098968	-0.4366911042632141	-0.6853396279197997	-0.46747493625870407	-0.3721699407241033	-0.4168904711211435
-32	-0.6345396621895979	-0.8566835501022492	-0.513144014970305	-1.0331494782112505	-1.2640689579520263	-0.9916638706919376	-0.6999436003179258	-0.5483144507869647	-0.7630534152792858	-1.0631953451016396	-1.17926883399773	-0.7690461854591629	-0.6949212533571868	-0.6622693521945078	-0.8086663464156502	-1.122535702732276	-0.734822688631659	-0.8087360242452166	-1.2414891688473526	-0.4085969616587452	-0.8071554878836981	-0.6349781139554587	-0.24385902224007383	-0.7913839797066594	-0.5372915850425475	-0.4793834674176028	-0.3467391422577313	-0.46784517050879165	-0.4427707780149543	-0.16106177825794704	-0.4648163902944995	-0.29446136877102186	-0.1190454584334746	-0.1291848715858421
-28	-0.7248584013757801	-1.2091139524450225	-0.6393293126177212	-0.9796591376366143	-1.5156700572847512	-1.3589603866598972	-1.0771493884547756	-0.6672968847593291	-0.5899041876204374	-1.3151984181577148	-1.5122330150571008	-1.071095225490935	-0.6929048282295264	-0.7550213913928571	-0.9294027066607469	-1.4622340165413683	-0.9967631076442427	-0.8624931552091939	-1.1911209791628137	-0.5588680491642501	-1.0613563033963826	-0.8186605552031309	-0.19935053536628666	-0.8082393387415574	-0.5737864360627726	-0.597192405146592	-0.42256659162645077	-0.4795802521518319	-0.35217249304548126	-0.16030000109731846	-0.48035067198593107	-0.2120164031397894	-0.0014953960161153924	-0.006174639317450057
-24	-0.644093154234722	-1.362565156357522	-0.8035206178405376	-0.8975447989691162	-1.6645966726237744	-1.696161265859206	-1.461346264964325	-0.7500782590048245	-0.5596704468901906	-1.5711283644109677	-1.926232809925548	-1.4198147022640064	-0.6723691804122638	-0.8611350037767709	-1.1977980106629844	-1.9375973890976	-1.3506371940844757	-0.9338084435728413	-0.9362215972151251	-0.8923603273749975	-1.4880257807355888	-1.1135712833899798	-0.2606616311644787	-0.8149096349168856	-0.7646296005017468	-0.8873295165547218	-0.6830666047970291	-0.6536038501450054	-0.39067366620610294	-0.38992622396250665	-0.6827142817426513	-0.241070255028525	-0.03432608387148393	-0.0559305882531923
-20	-0.3688074341045563	-1.2522915570113025	-0.8940889216737643	-0.794758079429586	-1.606337662455923	-1.8149515344572997	-1.6523774820570907	-0.7185043674448315	-0.6684214455894671	-1.6938486056477597	-2.206642383726249	-1.6302822787132176	-0.6192849858861017	-0.9249019599451205	-1.4779366217492207	-2.327298396910391	-1.6140845973271107	-0.978763756665059	-0.5751387462400224	-1.2328621117936334	-1.8744146776558634	-1.3465496267653891	-0.3529636850982322	-0.7965749482070422	-0.9846377943928433	-1.1832714050935815	-0.9667385792166294	-0.8810971953080973	-0.4928210067227418	-0.7127991896752696	-0.9480704641247543	-0.3513105204772382	-0.1732818926966224	-0.2174947554342312
-16	0.0069452617142087125	-0.9319674945189566	-0.8349103906532843	-0.6860232931936474	-1.335519429649683	-1.6245332915298565	-1.5393611153838116	-0.5427365885383217	-0.8555292465544433	-1.6162466962062345	-2.207022661358956	-1.5924470384446676	-0.534548162064397	-0.9308175421102083	-1.6426737267028673	-2.4706156191437647	-1.6615320402157405	-0.9641342734790335	-0.29518619105198296	-1.428400393694356	-2.0482897706769543	-1.390962120359008	-0.3949284543556847	-0.7723655085136791	-1.1166084976614865	-1.3470653261506838	-1.1216645212464385	-1.0403505537469635	-0.5880244359429018	-0.9817607974060885	-1.149733063656041	-0.4900531458402952	-0.3525018981140008	-0.40569287436100837
-12	0.3135153941345209	-0.5435730801209876	-0.6281266792651152	-0.5939363822246674	-0.9575855111740953	-1.1849937409046627	-1.1632095545964423	-0.2662864022684416	-1.0444430086469094	-1.3800579274620388	-1.9292336653638333	-1.3303986754206683	-0.4342733908656165	-0.9122948027465733	-1.6422238308452384	-2.3494150579263295	-1.4893770180292354	-0.8791529514050775	-0.27312052180952145	-1.4302489721427527	-1.9660085390045063	-1.2335354058593164	-0.3419132820079983	-0.786113498610347	-1.1157126398527741	-1.3399063314940758	-1.0831377478909505	-1.0576655838012088	-0.6437767131764084	-1.1154721947163573	-1.2220247953079335	-0.6173201783806864	-0.5219416009122961	-0.5582510218830932
-8	0.39548650284098535	-0.24528193411888183	-0.35447031170041593	-0.5436165915115637	-0.6368864758624142	-0.6796289069182877	-0.699213085793403	0.006021520107682827	-1.1810796231014347	-1.111379501397833	-1.5198509654773205	-0.986346838368173	-0.342950730650017	-0.925651905583791	-1.5235378703752385	-2.0867249912982984	-1.2114183872155104	-0.7362578492649374	-0.5726640806044857	-1.305172916931806	-1.7241915420869594	-0.973739979192849	-0.20286720939915598	-0.8776910878910071	-1.0252497170312442	-1.228384253261543	-0.896172700049851	-0.9368870234677176	-0.6760131103614072	-1.1240248651735847	-1.1796387404222721	-0.7225056868431459	-0.6602390987892943	-0.6558533294331493
-4	0.19945770451732225	-0.13664591277908672	-0.13055235114514896	-0.5512676225095502	-0.5091170059701573	-0.321333020114234	-0.3673272123599415	0.15488995572561678	-1.2483866183233465	-0.9476286148941498	-1.1867749661046334	-0.739600000898345	-0.28294676470844915	-1.0066221927023586	-1.3924140895020705	-1.8673171949925085	-0.9896908973502087	-0.5630975351421886	-1.100168106162467	-1.1791702479155204	-1.4935752115687457	-0.7595839481249594	-0.024568926480966785	-1.053044912540597	-0.9390459633006761	-1.1286977501028879	-0.6752294880985237	-0.7443703990262546	-0.7240047436554622	-1.0763133737092667	-1.0863813134421485	-0.8153699019826792	-0.7610120158055276	-0.708898959754239
0	-0.18828411352780977	-0.21918903235885523	-0.05000797646532906	-0.6121904238503333	-0.6079577788262297	-0.24447899995113975	-0.3179454497416222	0.10644993159120986	-1.2538732258610688	-0.9589858626949128	-1.0854153605713572	-0.7080030423408821	-0.26665708355336387	-1.137573477733982	-1.3438039984153876	-1.8306869222196958	-0.942781684402542	-0.39331254263758125	-1.6437936979753691	-1.151206728889747	-1.4185272419401085	-0.7012057286678581	0.1411785777819098	-1.2714395490970527	-0.9371150708380525	-1.128661510478956	-0.531084536165244	-0.564369677072418	-0.8110126832513095	-1.038402793169911	-1.000527021743016	-0.9024555064304727	-0.8110842088248593	-0.7284905892099324
4	-0.5754138812796109	-0.40837299720656717	-0.13667978311839482	-0.6939015967015886	-0.8455743172277704	-0.4388203609831495	-0.5533532486296202	-0.12442916600283264	-1.204769250689024	-1.1086152763987083	-1.2375951974140078	-0.8857080318023459	-0.2908533506202649	-1.2475824324580673	-1.4016728365795246	-1.9970350215082642	-1.0822969647738716	-0.25744950706332037	-1.9767470309894182	-1.229991075271341	-1.5392253360033559	-0.8114390352743114	0.26564121179269934	-1.4585443698297975	-1.0334850523604886	-1.2349426715189102	-0.5090765940211016	-0.45274516825809713	-0.918427286213451	-1.02591144779587	-0.9349575019119202	-0.9685067509994272	-0.7832209448113451	-0.7072939854884243
8	-0.7549426536573075	-0.5825182780817424	-0.3316404215068962	-0.7414632420893195	-1.056934115602372	-0.7580473403865294	-0.9250326729307828	-0.43154430280449835	-1.0918875905125969	-1.2729780641841106	-1.5255933961497727	-1.1488361329637253	-0.33547660623727726	-1.2467627493851856	-1.5032696685984077	-2.264339441304577	-1.3101670708956374	-0.1744648511773317	-1.9681889961141745	-1.3304501738336243	-1.7768683388671103	-1.004510638561877	0.3507414749350043	-1.5396279057731526	-1.1661699980856721	-1.3741149867650682	-0.5731219038798495	-0.4154811192989877	-0.9910568569910776	-1.001222250317921	-0.858660516955168	-0.9794306730337671	-0.6543326957394787	-0.6271604879757455
12	-0.6072453245090282	-0.6409120543510909	-0.5223847614450823	-0.6979313475153891	-1.0851503583213549	-0.9966442559828607	-1.2080459564226333	-0.6610470993518295	-0.8960036612776947	-1.310748693017887	-1.7610515311601567	-1.323638912673758	-0.3689106395467243	-1.077180621288559	-1.5364181956601015	-2.472934001401095	-1.475354667753359	-0.14582824670213157	-1.6418484407933909	-1.3291208710491995	-1.9850076386879836	-1.1498215169486643	0.41389396682191576	-1.4754422865809576	-1.2331650225976172	-1.4427467548184132	-0.6400518401198643	-0.42146921051426167	-0.9699830984421414	-0.9130523181751111	-0.7360785584939057	-0.9054983235385741	-0.43637162336802465	-0.48682528611295584
16	-0.16147878725290402	-0.5424190745964048	-0.600110529338138	-0.5320748077310421	-0.8620691873719769	-0.9940751169855935	-1.215964552670341	-0.6847980601187379	-0.6127970799233255	-1.1412351102625793	-1.7875965788531465	-1.2791149583946906	-0.36011585502303056	-0.7509306054229606	-1.406920429492301	-2.496149533645338	-1.456718321937069	-0.15540802439553528	-1.1535227269612922	-1.1432939738972125	-2.0327410646615234	-1.1466109723705884	0.4642875778873874	-1.282007929426205	-1.1517351836689915	-1.372088190429243	-0.6381225569826454	-0.43650206813278625	-0.830508945275603	-0.7460985164878644	-0.5716832265725382	-0.7472095470636726	-0.19208003532074674	-0.3246467701344778
20	0.4147252728004993	-0.3119469873181835	-0.5170046674073047	-0.2624461346199037	-0.44419336206821686	-0.7150850277966346	-0.9000174976513803	-0.46889579177727253	-0.278476475966226	-0.7906398157185175	-1.5627222021702283	-0.9969462131125304	-0.2953471533947925	-0.3534024646896385	-1.0984271737022628	-2.307117217914713	-1.2286606996033131	-0.17881029799138798	-0.7039282304157453	-0.7873069624096715	-1.8736526918789789	-0.9786735152330969	0.48729345079416214	-1.0252119276865521	-0.9075712538693389	-1.1687597006853347	-0.5532599077561376	-0.45503607277425534	-0.6011925324520139	-0.5438366518595189	-0.42511457097487615	-0.5451940880362065	-0.016312742564619682	-0.21373419409671796
24	0.8905535317824828	-0.02302924351540316	-0.31788077870220416	0.03582271924511236	0.011305346125133255	-0.2691959135888393	-0.3828893890250575	-0.10367198262266045	0.024655913871861397	-0.3836386194079925	-1.178658482436771	-0.5851067289838682	-0.19339936922835782	-0.009180734842188286	-0.6919221860582402	-1.9891167828884244	-0.8772881008886981	-0.20097207972330716	-0.4405086029375053	-0.37385669256234344	-1.5657626350925447	-0.721387146082115	0.4480871248853056	-0.7928104380618226	-0.5670969471918751	-0.9094219184802975	-0.43517422566215497	-0.5064507114021515	-0.3512036195471035	-0.38558861515921855	-0.3802952160770478	-0.36245846656840086	0.016503779175932785	-0.22186179403080283
28	1.0756770345232514	0.22848200740348507	-0.12719763783288668	0.25051432784727895	0.31664445916339445	0.13741852308387587	0.08960662014510674	0.22381842079874337	0.1924773151783329	-0.08690324403756367	-0.8163338879001978	-0.23107668699097406	-0.11032938929358863	0.17190372900476655	-0.3346233955517941	-1.6906465249292206	-0.561743615639534	-0.23282980860100402	-0.3984524597598429	-0.061708394282229614	-1.2380695311759327	-0.5009140955675889	0.3135300568770986	-0.6578712446769254	-0.24842448469860176	-0.696936605601244	-0.3624797752288543	-0.631311653450647	-0.15454404017053616	-0.33271092092435944	-0.4848787474311181	-0.2470781200846533	-0.09076701826782552	-0.3576137116463218
32	0.9024419165714983	0.3508742740832286	-0.09401183551656063	0.27640002896142823	0.3363841465563361	0.294692783803778	0.25848108464784353	0.3108014456531375	0.14477722310229948	-0.0331791489478698	-0.6595019085445735	-0.11862891137451347	-0.12417822299838122	0.14073298835985518	-0.174168049849422	-1.554030176053868	-0.4419826854037238	-0.31290122787630587	-0.5063998090356419	0.02021452220641048	-1.0271186802681027	-0.4311808038792534	0.07793357203595988	-0.6503325684340568	-0.06791521591682555	-0.6075642093577714	-0.3918541361928991	-0.8441772439624073	-0.05422839508670402	-0.38327687881976397	-0.7026957255741915	-0.20050203749579518	-0.23977416693231762	-0.5427686558371299
36	0.44823259002051263	0.2799119942273722	-0.317039876375836	0.06644865108641038	0.04573376465218013	0.08346641042616942	-0.02575190731341782	0.03938413773964351	-0.13056512144025983	-0.26293048196212565	-0.8121762255190322	-0.3463751068906847	-0.3006256215134847	-0.0752025244721497	-0.2913157932555872	-1.6548830228985432	-0.6076432451165441	-0.48672899480956433	-0.646596072471811	-0.16840192633073117	-1.0177705262237113	-0.5618305192113972	-0.2223905915367538	-0.7491160016220001	-0.09014460421691053	-0.660345612289239	-0.5234991298809895	-1.1069598169988963	-0.048243593302755274	-0.47081097841603764	-0.9174666977606761	-0.1755353356936338	-0.281047879939989	-0.638715027150217
40	-0.10814584019298049	-0.0017719882262835752	-0.7851462344373741	-0.33711868439437104	-0.4624713051563773	-0.4712986636183586	-0.7258493881973137	-0.5522384629612007	-0.5640643224780046	-0.7120031100416594	-1.2588655916855616	-0.8843737818324174	-0.6544968469307757	-0.39418721099512943	-0.6662493331300464	-1.9807057330668256	-1.0407597992369582	-0.7718907575192417	-0.7302530985514908	-0.5682805762248364	-1.217772123123236	-0.862620887962625	-0.5172535167986136	-0.8990352131079619	-0.3070400349494383	-0.8256261923925755	-0.705795226699331	-1.3359099592812653	-0.10626199069612695	-0.5153957592349446	-0.9974554751962056	-0.1118521166004016	-0.1081887257347881	-0.5259463177753542
44	-0.5715839848392378	-0.45215597634598	-1.3647724355572715	-0.8121508935450666	-1.0223655674871344	-1.2110441892565553	-1.623712297154793	-1.2668139902555817	-1.031970617549859	-1.2474287716842243	-1.8805696916784096	-1.5858690698638633	-1.1263371677571632	-0.7266410570872216	-1.1926226585794935	-2.45086931563527	-1.6261216360998207	-1.1291366787059056	-0.7470707874509858	-1.0579189035408645	-1.5717190464392006	-1.246782538127201	-0.7303782683052031	-1.0422441933066968	-0.6519932134379514	-1.061102029982413	-0.8741127230509511	-1.4423208200279236	-0.20199090191388064	-0.49474042529127527	-0.8864256717236297	0.012321077256089384	0.2514632337897074	-0.19544398735292587
48	-0.8175116160733412	-0.9706252192786855	-1.8454662514823081	-1.2086840837479875	-1.4710584841780852	-1.913327212271364	-2.4102449356261424	-1.8236722900123692	-1.4131506645763636	-1.7318220094825503	-2.513422482820478	-2.2480447235570207	-1.5912753303406313	-1.0193250153555289	-1.7304568247020615	-2.9610624238594854	-2.202058786554594	-1.4634007178552562	-0.7648718337775025	-1.5161402187215525	-2.0004467913665938	-1.6171563822925	-0.8132942894429062	-1.1490099401074516	-1.0381748650088654	-1.348919388226386	-0.9976213549221967	-1.3854488099404936	-0.3375158003391845	-0.4850650119455709	-0.6628254039242135	0.14624133669170447	0.6108033641652673	0.20659600146108414
52	-0.8429551103290184	-1.4226908647857364	-2.032254690761384	-1.4252638780849043	-1.72410881084022	-2.3919789730715513	-2.822416298416076	-1.985733265631647	-1.6490397411673854	-2.087268824075856	-3.02289151382179	-2.697297089442421	-1.905048127132965	-1.2765256134228957	-2.1728031580426417	-3.430531016271603	-2.62965463928056	-1.6631264644594566	-0.8872100092422488	-1.8780847740439974	-2.4439845023439366	-1.911721463145169	-0.7692507485995156	-1.2340228526430588	-1.4010192120465679	-1.7100728707053692	-1.1044050427209837	-1.2072924345052853	-0.5423200116770382	-0.6366556866784265	-0.5221167193582041	0.1772571350629134	0.6928589326531652	0.4202840317605401
56	-0.7629674057770921	-1.689986224676066	-1.8469849778273508	-1.4725807868018053	-1.8189945175022069	-2.5858077937644315	-2.7687287260723763	-1.6809296565531797	-1.7752255156519585	-2.3320262373220384	-3.3635868941261675	-2.866375439082678	-1.971897120265579	-1.5508248766845192	-2.495875113861485	-3.834908714148963	-2.8529415058585386	-1.664397473901438	-1.1975587576194602	-2.1604561751178823	-2.8881654666460714	-2.1285521930359566	-0.6548206193603782	-1.3505368198629273	-1.724544520792428	-2.186475748263859	-1.26721787132756	-1.024050829209259	-0.8452124574302526	-1.0864047976721307	-0.6769314987257877	-0.009441043226426395	0.27710694004667963	0.1970268482955848
60	-0.7589651327044638	-1.7295411781513337	-1.389969226188846	-1.4877248964895222	-1.9073070239549594	-2.595973485114498	-2.3853797852372605	-1.057450053406245	-1.9086160611602117	-2.575610154324846	-3.6014001278549705	-2.8314657139816073	-1.8020603611271149	-1.9116095256225634	-2.770712368645493	-4.214882840005417	-2.92558144784433	-1.5042507610489337	-1.7176138119247335	-2.4479367671197245	-3.3650431548036432	-2.321647161344215	-0.5579374418477215	-1.5637800654030312	-2.0408990331620447	-2.803068392352254	-1.5566455086507194	-0.9733607148391008	-1.2370848624467292	-1.8534796191149694	-1.222844359171526	-0.4496556211086099	-0.6501311643398693	-0.5487654791328415
64	-1.0049978469270409	-1.6141631562487264	-0.9274801588483707	-1.6834778743201837	-2.195586437404065	-2.651098244649394	-1.992924685214931	-0.44037219770828123	-2.1946198884868275	-2.9739532395618022	-3.888873090462301	-2.7903311182144908	-1.5277029237323374	-2.4085400043712917	-3.1300756852278115	-4.65844916121218	-2.9912516995248417	-1.325729962816489	-2.397262328771103	-2.8495471405564397	-3.928031196213656	-2.57119201964667	-0.5605116472397819	-1.9144349049870732	-2.404085868487762	-3.5319082647796884	-1.9872271964445256	-1.1407550544547702	-1.648106570851138	-2.78019308341953	-2.0443649240376933	-1.0410459015311577	-1.8251577569657111	-1.6420495468643552
68	-1.6025313098501766	-1.5250016412379368	-0.7977907637481011	-2.250056737940979	-2.8561072277438564	-3.0105855388925327	-1.9656273076974855	-0.2014636541286899	-2.739664070841802	-3.662234058670618	-4.40166996798231	-2.9849481507278903	-1.361359115978182	-3.0484638137145015	-3.704834690276929	-5.262351976459932	-3.2232675470988483	-1.3222818341249383	-3.1374668995798785	-3.44587062919369	-4.6140031698082815	-2.9417748376960233	-0.702977059496821	-2.3912522732442847	-2.8519544529435503	-4.28046702257909	-2.4883902010080683	-1.5035402736850048	-1.9580926845704514	-3.5633535295165806	-2.823211901212529	-1.5481769999517025	-2.770087235132667	-2.667393677652685
72	-2.5456263954741565	-1.688126917391637	-1.2725074259101523	-3.2528695978053603	-3.9423811336163905	-3.8439671896204772	-2.5665435726216628	-0.5977542385268264	-3.559796085906788	-4.689326751313664	-5.257393823701454	-3.5953507332626997	-1.510123845102404	-3.7919952773676604	-4.555241573276953	-6.082820400139181	-3.7454404736369336	-1.6430365997793437	-3.828274240365054	-4.246267308004792	-5.408011422808486	-3.4457993420387183	-0.9660020446229994	-2.9241983816704535	-3.3731501017283656	-4.912006842609361	-2.9190821573944303	-1.9243295144133856	-2.0377585836460477	-3.8715038201814473	-3.158837072026534	-1.6792820649664582	-2.975514404413818	-3.1148798387085606
76	-3.7275009061163087	-2.2788989486378126	-2.433932298237236	-4.578188884620383	-5.3476919992852405	-5.139995085136774	-3.822379102593073	-1.6553765493560375	-4.569874751950945	-5.980446323554389	-6.44887350361562	-4.649214732829733	-2.0834701008646217	-4.567880618960374	-5.62701653013519	-7.093128186437276	-4.5677451972077865	-2.3084170760046927	-4.3851723560244515	-5.171768175419103	-6.226901515498067	-4.027531613671792	-1.2782354322586056	-3.4031114492326764	-3.894960393608553	-5.289932237620768	-3.1221568505615256	-2.203130001227793	-1.8013496353446075	-3.494802942989215	-2.7500119139858423	-1.204853770075102	-2.122765774135771	-2.5927653247222073
80	-4.979590403382333	-3.337234727063184	-4.122382153593451	-5.960790142268567	-6.828728181764245	-6.691005213056787	-5.497459397741343	-3.1545100132453445	-5.615296349653306	-7.3458227925802895	-7.823465327537688	-5.990708812847326	-3.0384209079323625	-5.295637117367106	-6.753856641883698	-8.169577577945576	-5.568254456766704	-3.1858129420908727	-4.772051322332832	-6.0706448401723625	-6.93379209675167	-4.576957691081011	-1.5480136832254303	-3.71770738616728	-4.301260937321512	-5.329212652102893	-2.994803182670172	-2.167116398108269	-1.246904131602236	-2.454578631879567	-1.5506023129414899	-0.06685274077464491	-0.2425934219195921	-1.010977861712968
84	-6.124904617104462	-4.73397492167213	-5.98099277893631	-7.084703904384571	-8.087811449611978	-8.164359072099376	-7.182696801170854	-4.72264813184477	-6.5275859667957965	-8.534625031857905	-9.123019195411414	-7.329240780445641	-4.189591874035335	-5.903735622759295	-7.707287292094925	-9.118575073108182	-6.533981783582628	-4.044910420695786	-5.001330363044241	-6.761442167377242	-7.381958466012005	-4.970579611626518	-1.7057360367624612	-3.798862447684185	-4.474019039302332	-5.032934176135836	-2.5424587662402103	-1.7566527083868386	-0.46443277480169365	-1.015902993498324	0.17920115544851578	1.5746591051399685	2.2671754302958296	1.351314422056704
88	-7.024292928127181	-6.2056665263854205	-7.5835909651977556	-7.711115817628472	-8.880185104837988	-9.231401420174397	-8.460481622316095	-5.989550575392975	-7.178635579104691	-9.31612584623002	-10.073761914568637	-8.351452806368222	-5.2804512844281515	-6.337124808524224	-8.275905588236206	-9.741136526309315	-7.245705586259574	-4.666100490233389	-5.116320120291762	-7.089881879072426	-7.4726533701104145	-5.123746382174868	-1.7369866327300088	-3.6430878547242065	-4.342375267509457	-4.499132145012854	-1.890128369327616	-1.0652582618521074	0.38999500772240375	0.4051176895403781	1.9549770305866183	3.3804695520883037	4.775439250333312	3.9281077285773542
92	-7.60030553806205	-7.44533203152583	-8.589322068462971	-7.772188643859776	-9.099303222570901	-9.695530866939595	-9.070167518603935	-6.728546602427336	-7.5103087235614865	-9.55662343473415	-10.490267727115695	-8.847358681275848	-6.082757457634457	-6.557043059006581	-8.341216066281762	-9.910434697878948	-7.5685086059218705	-4.944640147122917	-5.163083063441519	-6.979604703447528	-7.200523835122427	-5.030570971185748	-1.689452286269516	-3.3083474552550136	-3.916644086485936	-3.8929953476845593	-1.2433158127865274	-0.31149482648405896	1.143353816960416	1.3977955544466745	3.248695365332989	4.943456160462088	6.644516451272304	6.0650186385569285
96	-7.836243132833796	-8.20635888888787	-8.858071304844993	-7.384970646332769	-8.802044846246211	-9.560118651094955	-8.998471237351845	-6.920886499097486	-7.531126480161759	-9.260992980463456	-10.347009632689788	-8.791815735554264	-6.478243334626674	-6.539375765502602	-7.917911509550211	-9.626718496813035	-7.5049300004305355	-4.932572829190738	-5.1615309584954865	-6.457355006127166	-6.662905676231979	-4.771285045021535	-1.6501058298411464	-2.8829820083309112	-3.289911738672531	-3.392712346094259	-0.814574120372292	0.24529388485012912	1.6574634271736446	1.7057064728587272	3.6851930525243954	5.926036819754992	7.450208168293304	7.246145706955485
100	-7.755644778697688	-8.373975732641924	-8.478860833695473	-6.7790236301929605	-8.16346071089559	-9.004410720979427	-8.45446965944065	-6.719108087741693	-7.288733940795714	-8.560024239862626	-9.780611967188653	-8.339661577149945	-6.485422594862454	-6.274737342251073	-7.14018247708996	-9.017984367490568	-7.182039719568508	-4.794138896282194	-5.0866007676446285	-5.640777096811874	-6.0220489349911	-4.478278625625807	-1.7004710392934543	-2.44361852982594	-2.603241198642902	-3.1259782235377176	-0.7440006714156463	0.40880685941479183	1.8652470064753963	1.3057709899359722	3.169501535042822	6.166080459285659	7.105063897314124	7.255093079369418
104	-7.397068005005839	-7.9812540806488315	-7.704830150224908	-6.176355346344678	-7.387052517360227	-8.283725717610993	-7.748852233396234	-6.340153678145483	-6.838042718789069	-7.650349597689119	-9.019867874260715	-7.737758616938647	-6.228075965415757	-5.773375019755905	-6.201359733183404	-8.281947115015386	-6.779584390689592	-4.703705775782976	-4.873916613671106	-4.694304454395579	-5.435238347635985	-4.27485607975268	-1.8728412342470553	-2.025973553310812	-1.9899215648001498	-3.1217951695779416	-1.0474423143644345	0.1208839115428657	1.7813198521462765	0.39123973151610564	1.895662898999617	5.711206898574973	5.845924839519023	6.212574466278869
108	-6.799868089674025	-7.173169117936852	-6.833929044635636	-5.687321648543725	-6.617888433913996	-7.607654075488565	-7.142532330599652	-5.952561840287388	-6.223433002018055	-6.715802175732218	-8.27766416367122	-7.200436097085539	-5.8655862660135725	-5.072761522837039	-5.276447759657986	-7.596341113938758	-6.437363131482816	-4.745629298626348	-4.451703537191926	-3.771830549253899	-4.986608969496205	-4.216105450475962	-2.1310939735013408	-1.623616929723393	-1.5250921210884774	-3.298190585392352	-1.613445754746021	-0.5250645266627734	1.4880161247831596	-0.721475480165449	0.2459132665147488	4.777445304252807	4.111012925259118	4.492478359324086
112	-6.004766449072821	-6.145748122911212	-6.090254768253956	-5.27579401591574	-5.901760086417847	-7.0580930531639146	-6.741316778328932	-5.615915761120248	-5.480670915117714	-5.866139873952848	-7.659072379802105	-6.8131217784528175	-5.520331845651125	-4.240602005742484	-4.463930118734543	-7.042889577250151	-6.190573199854924	-4.872474181271183	-3.7846820258907634	-2.9712378903712704	-4.655841815637707	-4.261872280804749	-2.3858468472325414	-1.2127507894414555	-1.2048063247779806	-3.4932460696716126	-2.2479762974249913	-1.33326184412987	1.1058078976368755	-1.712232108561551	-1.3620686496677967	3.658344736399554	2.373574250904274	2.5689818794239785
116	-5.066246496760959	-5.091130243798964	-5.5595826962295165	-4.808346259374985	-5.206878172126113	-6.58571432358263	-6.484494192917777	-5.295484529476867	-4.651725280461333	-5.120567785686311	-7.132833462826287	-6.513333781010247	-5.2378635274250795	-3.367952099879917	-3.7719528579846693	-6.585141642157074	-5.9667987672839145	-4.942461954989745	-2.912585966386051	-2.3200995863511737	-4.341033924586818	-4.297004688858137	-2.5357489521854957	-0.7873091677815225	-0.9641283726192156	-3.528501978548664	-2.7464168002406466	-2.0892796463669217	0.7597271780859931	-2.3496475160403665	-2.607594245049148	2.6280808382438843	1.0050020192521647	0.8664205052435288
120	-4.066993703110734	-4.164510716414332	-5.200613008720301	-4.15848540209849	-4.489015091052801	-6.079546436219224	-6.22210214951287	-4.93064974493656	-3.799426546040915	-4.440186489338923	-6.580267412738229	-6.155287250236982	-4.993196474820149	-2.553981536139097	-3.1521210590887785	-6.11236093885244	-5.644474015290089	-4.812030303249961	-1.96105169754821	-1.7958081915338302	-3.925355901344312	-4.1907353295378185	-2.5159084733384933	-0.3828679909576371	-0.7245573383157796	-3.2804710782196818	-2.963720791009756	-2.6391034059650784	0.5501493797717424	-2.528747552209276	-3.3312475597199014	1.875316853556906	0.20924183673482244	-0.33551621352363054
124	-3.121402494179153	-3.471450320062335	-4.909627425195935	-3.3047394669065793	-3.7551422024332397	-5.462125287570544	-5.827598080226915	-4.504546154093423	-3.007593147313784	-3.7846743964962513	-5.890109047323729	-5.616105542308734	-4.729363906363948	-1.8847881507970925	-2.5561642582252606	-5.521268353827471	-5.135946737673851	-4.424807060514227	-1.113175270131092	-1.3631718124305143	-3.3492605601627043	-3.863214483044173	-2.3276212156656797	-0.07214786094092919	-0.4432158160940461	-2.7278222968848835	-2.8535568642096463	-2.9278509542930675	0.5347397313922215	-2.255478614834639	-3.5217807204021816	1.483405586312134	0.02957479648275727	-0.9242818928270876
128	-2.355087512745992	-3.0631966513543065	-4.597304809407325	-2.3656482636806326	-3.0833661478396386	-4.751374232693875	-5.2778110370898474	-4.068363656262793	-2.362558597321856	-3.1567447105816213	-5.041814314510633	-4.878781783183969	-4.398484695773556	-1.4132863247475298	-1.9793983647916231	-4.785399901705868	-4.444154251322313	-3.843409528565367	-0.5461848364391616	-1.004487750378341	-2.644962780950285	-3.3218843853050646	-2.032478327388017	0.06799746287582734	-0.1351599242851044	-1.9503425310484537	-2.4623923239527348	-2.98645304879538	0.7252822500037077	-1.6007635552998911	-3.253241769206398	1.4499293529142925	0.39802253145816346	-0.9225223041131159
132	-1.8676474047237306	-2.9296591207924085	-4.236597050460848	-1.553736205946578	-2.587936871670433	-4.056165684949596	-4.65970610395803	-3.7094933893008113	-1.9251236866983679	-2.60982965764116	-4.130101193490954	-4.046076287544649	-3.9866657156426446	-1.1490887374476457	-1.4682636223916234	-3.973791589240822	-3.6624042895356665	-3.2123224654156664	-0.3593428125845679	-0.7260550838259142	-1.9158483695297082	-2.6508877210445787	-1.7174557404071882	-0.0019501391749021546	0.1409576531666076	-1.083376643306607	-1.888864274024411	-2.885751240120184	1.0953389378549574	-0.6566866619696501	-2.619005196634718	1.7198959545581318	1.187609431129382	-0.43820556887616596
136	-1.696957226283527	-2.9952449722961316	-3.861939658904935	-1.0745499106933944	-2.351742738508221	-3.512640467358242	-4.1082968608128505	-3.488181343808545	-1.7074881748958548	-2.216275209553369	-3.3175229942485713	-3.281332484543801	-3.5147533328009057	-1.0620447370418005	-1.090111014474907	-3.2104437270170894	-2.920843832270964	-2.6803073815385385	-0.5327054844758182	-0.5410372601200657	-1.2749834028478708	-1.9622430751849727	-1.4521505796008842	-0.26041346722658293	0.3230864397474871	-0.25266021426306473	-1.2321410148029612	-2.6883673600032965	1.59381007745795	0.4858187126768528	-1.6961580472083964	2.211318248887783	2.245724672369641	0.37750649356898247
140	-1.8004779770216128	-3.1324376980850075	-3.5313668161879157	-1.025260565076566	-2.369087213256911	-3.202509395143201	-3.7200908566965407	-3.3887352857863067	-1.6688544708079098	-2.0167264887437044	-2.743628971802251	-2.7147021225100496	-3.0222392005910153	-1.0984094115181646	-0.8853858686981483	-2.6009900504247083	-2.314127916215494	-2.32908629783056	-0.9370664930526831	-0.44302251823152755	-0.7801885585160531	-1.3381451334546992	-1.2603257862695825	-0.6319462641019683	0.38794162771507584	0.4769993412372513	-0.5547323212923067	-2.42327546461546	2.1607229655072233	1.7385625795338913	-0.5471914992822315	2.82743071795908	3.410473814936745	1.3587478364971648
144	-2.0662934727951954	-3.199137918024638	-3.285497895528768	-1.347767349655076	-2.5365056927536536	-3.104126445562492	-3.496379128211676	-3.319402447902884	-1.7340550378887776	-1.9845328280889014	-2.4456756053212345	-2.3725800454319304	-2.5511615211926033	-1.2021914690182862	-0.8339247086451224	-2.173910373921194	-1.8552776528247243	-2.1484281962511553	-1.391421314541198	-0.3923602392304092	-0.4069128324248686	-0.7982406000010852	-1.1203224630680642	-1.0222727034508088	0.36917728092445384	1.112165090613989	0.12447413770720213	-2.092291349850529	2.7402949264005123	3.00868224338037	0.7570319156606996	3.4612541111342203	4.523292053246533	2.3463733137018314
148	-2.352531904003055	-3.091818801703185	-3.127210132332825	-1.8585545969769122	-2.69730519567409	-3.102321378504672	-3.3470196639433865	-3.16214298403601	-1.825191135566701	-2.026437992701729	-2.335333103005828	-2.169515365845132	-2.1382093375580835	-1.3301483359132438	-0.8545917847037828	-1.8694775057322934	-1.4805383644870975	-2.063881868873672	-1.742059822452613	-0.32441446103205224	-0.07255085539381874	-0.3068205110432848	-0.9893507932479789	-1.3584585155521556	0.34456464561252553	1.7007967190716848	0.8110665658500504	-1.6947165684827876	3.292544833453481	4.1996002091235916	2.120489115129678	4.00859211863294	5.4518957000414385	3.2126459994266905
152	-2.5378596718609527	-2.7921006609041146	-3.0298945827280592	-2.3366260469570315	-2.7149000099302043	-3.0488312167439693	-3.148213140168591	-2.841843836285117	-1.8894313526133724	-2.020784611368346	-2.244487279947228	-1.9634101341267283	-1.8148909761383607	-1.4552622996781719	-0.8382986762816316	-1.58039688665014	-1.0977807017266612	-1.9910324761666687	-1.9197653483558783	-0.1743738944896341	0.30603456419926084	0.19016648780970885	-0.8339459278986088	-1.6078807074959724	0.4028126587234438	2.2846701087489745	1.5082257947989686	-1.24836539906986	3.804143180779373	5.227671133194222	3.430086365622701	4.396671760902644	6.122601970473313	3.888050546366477
156	-2.560589545460792	-2.3796617924691046	-2.963553898004806	-2.621304982242925	-2.533686631481474	-2.8367164063359045	-2.814965241000806	-2.3708131253466695	-1.9116696071043453	-1.8723030043060924	-2.0131335207657153	-1.6374382931375941	-1.6059379537090683	-1.5587887724621416	-0.6946198326693187	-1.2159126966295175	-0.6446717961247406	-1.8773170662212286	-1.9443942259334668	0.09817225461254003	0.7607929091318864	0.7259393912106973	-0.6459863765619428	-1.765063162161991	0.6119235738563477	2.8672513889400855	2.2028598729783524	-0.7894257883167974	4.297293652175279	6.048884376512703	4.588098991254299	4.619767654199245	6.546902640025835	4.379683006673076
160	-2.432852500495211	-1.99828147383666	-2.915148966104922	-2.6692695550283205	-2.193158621019203	-2.4460987982980713	-2.3450534284512576	-1.842070813296606	-1.9055833768416965	-1.5510584076821596	-1.5679296215525276	-1.1593025893505693	-1.5199577770004882	-1.6171681840121357	-0.3838247647131561	-0.747283516427652	-0.11994189738747199	-1.7087352232706972	-1.8794915628664344	0.5035162555379783	1.261548277530839	1.2971082893047672	-0.435607551428578	-1.8165168716344389	1.0082762215906997	3.419301978061428	2.8733134197170167	-0.3512273719979865	4.833957659914571	6.68151806098113	5.550604806237535	4.762414920227035	6.824212533887463	4.766950595264412
164	-2.2258427086899797	-1.7880594685233036	-2.8876779006530398	-2.547678225760724	-1.7920989944988226	-1.9407477329846046	-1.8138664915065479	-1.3781907523645192	-1.8908719968739562	-1.0966283055274832	-0.9499798989153131	-0.5869832024059494	-1.5354857405995894	-1.5960603912111186	0.07985476384267093	-0.20982778019380754	0.4278788555786453	-1.4892860613415377	-1.7674722626884405	1.035615918405829	1.7503868297252905	1.877688045529374	-0.21153198129176165	-1.7117079453167197	1.6060317714197079	3.9153664013237566	3.510669699388364	0.06065095945781007	5.506964669628966	7.207603913229551	6.347058757015988	4.987351404949652	7.110025864769858	5.168424593274224
168	-2.0356185384854353	-1.8182196571220832	-2.881149523136563	-2.3756992756944406	-1.4283773863015308	-1.4260576927420188	-1.3308117356079188	-1.0687562200265646	-1.8722020340380978	-0.5892927631758751	-0.28318563032178345	-0.025891670891837495	-1.594680424478763	-1.4578556977658015	0.6498869641108411	0.33258277093841593	0.9402041411503826	-1.2189047305803984	-1.5841916759548293	1.692162271042032	2.194398874464558	2.4478788314051494	0.033855687741394476	-1.3652270997864704	2.4124414859898593	4.372499454902883	4.135490407039359	0.47736015795348813	6.413015826246435	7.745788077825357	7.06628702286979	5.480841145982763	7.55715177535362	5.690993771489776
172	-1.947408790440016	-2.0566999860335278	-2.876342050919697	-2.2546653690633764	-1.1529724568821151	-0.9986736749230494	-0.9889242028063986	-0.934885857129081	-1.8341021491474134	-0.1087424752350952	0.29201936648073956	0.428598104825334	-1.6176962811635123	-1.1809674471602505	1.2752056089630326	0.8304562547697546	1.3839794362412003	-0.8943153597186944	-1.2444204060607162	2.481693499975171	2.6158745222804396	3.010592453031309	0.3204482487694219	-0.6972265821973442	3.430183640402729	4.857433306827956	4.791436660113479	0.948546586026018	7.610866050578111	8.40174672866556	7.810984114953233	6.372713072899704	8.253219583654811	6.382290347198033
176	-2.010529751469921	-2.393242829956178	-2.8393058705169887	-2.2256030980185875	-0.9619144773039129	-0.7138144951918102	-0.8332894423427101	-0.9386958456181494	-1.7543433860354913	0.2964655451442119	0.6821525675717062	0.7298700791051311	-1.5367220601383993	-0.7804635147417077	1.9165701817761156	1.2702091900227053	1.7601745084191458	-0.5317038284228967	-0.6601756198427687	3.408527604080452	3.076961271146825	3.582623711123812	0.6591470224904769	0.30755612176492303	4.64090918322912	5.45086573178232	5.5164127210577485	1.5069884023765554	9.080347038231555	9.217099166487362	8.642768838042388	7.667131404592549	9.182607627572981	7.210318070327191
180	-2.228471273517938	-2.7031710079609157	-2.751886599268585	-2.270926946628521	-0.8232201317030021	-0.5805098399764617	-0.8569990970908934	-1.0252118084772628	-1.6266267258583722	0.6148365124438113	0.8697842933629352	0.8835965968711533	-1.3359782662040054	-0.31639626542317634	2.5447463925009144	1.6625505643830907	2.0836763329350236	-0.18868447792575524	0.18427436007228096	4.444585788949398	3.627520075222496	4.167109002082821	1.029700991891832	1.5593196114271712	5.981462463535954	6.187217219943964	6.308111174869449	2.137943977680213	10.703671428359128	10.141447995330363	9.545275664071882	9.220302558508083	10.23065945903335	8.079518297777447
184	-2.5638441974758903	-2.9143075869413972	-2.645285361286995	-2.349428170948147	-0.7146278601723617	-0.5761343226191922	-1.0159387562850988	-1.1648489207422057	-1.4764597378647046	0.8565812089274283	0.9008789635801441	0.9243236756829697	-1.0726673575975614	0.12093811451657147	3.1286046425984693	2.011268610644691	2.354499810949991	0.04136811186359603	1.1899061172960688	5.51013897458311	4.252094734900479	4.729724395254639	1.377578374245643	2.871898167035043	7.334629040319732	7.00899694580496	7.107277852234071	2.774674170164421	12.285265891529072	11.04336354328518	10.424545261766491	10.78213975091492	11.228503198884642	8.873928047663846
188	-2.950722686947114	-3.038079492527951	-2.608352654547355	-2.43440198283688	-0.6427422745689432	-0.6621716005773229	-1.2449417082826055	-1.3654662336207055	-1.356789466293369	1.033810732138719	0.8480387308644317	0.8901032186923417	-0.8591892101529909	0.4449273634644502	3.6293008235853095	2.2913906516397216	2.5474791462476767	0.07288061063962543	2.161794180180422	6.483795149645616	4.856917845861241	5.20218132612967	1.6380054909358448	4.024003972384312	8.551079728471635	7.771964530395986	7.815411547955971	3.3273606216346225	13.610036815613546	11.75971886526806	11.149236650928032	12.086603134157112	12.017483680901446	9.50489041789699
192	-3.309083453406842	-3.148728839553886	-2.7526237895133057	-2.52918552713798	-0.6308728440569185	-0.7899944762311637	-1.4659895859898942	-1.6460787016317096	-1.3231118884059847	1.1518907517914625	0.7756016234842991	0.8148042539051888	-0.8084987977596095	0.6108748301341724	4.009942044624404	2.4577939448292128	2.632642500906317	-0.11134315999053014	2.8881883548296075	7.245268326586606	5.313166604932712	5.518178449050116	1.7765887930838193	4.845859038516115	9.499553656435854	8.307886102681831	8.342210748591263	3.7308087254744122	14.519809686241395	12.16464611796886	11.613260239844376	12.951058355058068	12.506010023967352	9.941410993271932
196	-3.562508574074378	-3.3245966350540765	-3.1421565930189654	-2.6513543062027023	-0.6868711096587921	-0.9013152695787984	-1.5961174924606691	-1.994389290542654	-1.4002522194795346	1.2162005870630557	0.7227718215813961	0.7363636475091466	-0.9673643087759016	0.6394234879562286	4.256816853266242	2.479633325038356	2.6112327509756303	-0.4239904571795728	3.239336959289722	7.7306742472971095	5.532952771522581	5.660573945059011	1.8210558845319145	5.286512838367926	10.121520970539367	8.514659860094348	8.656902291375845	3.983470191435014	14.974132500035747	12.227392165784076	11.790636032853575	13.338664021193717	12.695465055837657	10.21184823318973
200	-3.6565635111995833	-3.5879084973348343	-3.7302436734433684	-2.8007001806120173	-0.7781000117683965	-0.9361335015503695	-1.5670981367600103	-2.3434467256507485	-1.5607484539681193	1.2446334330606055	0.7044855934476327	0.7034643870712742	-1.2751234737627395	0.6084255560772459	4.396225918160851	2.374500268663166	2.5373723442864997	-0.6946784836396296	3.2300274290550477	7.9674153126783995	5.530124173507261	5.686489090867605	1.8585361195370784	5.425375447880613	10.458211872399264	8.422034242347248	8.812371231718187	4.152836789136677	15.06528755199066	12.03118702711929	11.755565613630596	13.356679882659462	12.667615858520275	10.380151722449863
204	-3.5763220696754887	-3.881041755414324	-4.347717274179319	-2.9388585016438165	-0.8364272692543435	-0.8547006227848679	-1.3567633594590234	-2.589249604363652	-1.727629657198213	1.2717505661327053	0.7189813834157646	0.7646231632001274	-1.5770920475242678	0.6176745875976261	4.4918818360406805	2.214712137352725	2.5033876832700077	-0.7486577611141239	3.0136649532524333	8.06551835884795	5.424524293555369	5.70845364083046	1.9933125922421497	5.423440919534667	10.631887409070151	8.191215494455887	8.924530006764602	4.341644752984934	14.977930984828403	11.743013352309749	11.657241791857356	13.195942845406591	12.544353453435974	10.513697597662008
208	-3.356657496560655	-4.095650662572074	-4.765989291555901	-2.9988596363647644	-0.7940642217615075	-0.6662430746423609	-1.0173172925059837	-2.645673983569949	-1.806281323640872	1.336081620657785	0.7506024222496559	0.9386209821845006	-1.695243592750561	0.7415980081908164	4.617988097929324	2.094451660590314	2.5899360114511523	-0.5048767911561863	2.807024471825298	8.164449671159208	5.380692945246843	5.835604176092931	2.2851471843245523	5.440249906156047	10.786593409961293	8.041485766135189	9.113718009826988	4.631767738092288	14.908979378252	11.545515031275182	11.658646554121876	13.042807546110604	12.438845603055382	10.659031841069488
212	-3.077321521618938	-4.136492241906215	-4.811622607480727	-2.9215187952666963	-0.6280712469456141	-0.4436976302388715	-0.6759951693633751	-2.503864997264164	-1.7303339199248449	1.4567086659846398	0.7671894411744525	1.1860953539466201	-1.5224909743970465	0.9923135017137045	4.8207731125235425	2.0751051850379625	2.81031035667418	-0.034424479963888775	2.7843403745925306	8.362593629704351	5.514501557732495	6.107789977865446	2.704468481865111	5.561110005643385	11.018676729993015	8.140161493730295	9.439003920565778	5.036045061748099	14.9850568393026	11.561335534470102	11.865778893076456	13.008340802728386	12.419220893021922	10.832391711542442
216	-2.8398020195788463	-3.9801862139347604	-4.469946849981559	-2.695747130263595	-0.38302960895153754	-0.3047524980957015	-0.4925183641396589	-2.254692310362747	-1.4949538669989197	1.6157848794196807	0.7220687251934007	1.4090751373954913	-1.0906661721349435	1.314777251738795	5.091827856559654	2.1444611495235004	3.08802818472362	0.4615040409834044	2.9990303440669703	8.668276764918904	5.824116215306506	6.464296801458761	3.1338775078805665	5.7720446440878765	11.334416360848682	8.515912034468627	9.862641309632917	5.485335813024638	15.215477905005022	11.804251641034531	12.280164687623495	13.102415051758449	12.494960753365365	11.022713633364171
220	-2.7304022243228276	-3.6953935529869226	-3.9152398010585734	-2.375089639389217	-0.15523105820564395	-0.36036705879780223	-0.5843421206026198	-2.0534174390447455	-1.1617544860118592	1.7599040225418379	0.5679573998416801	1.4900195560982918	-0.5702457413581195	1.6154752928954992	5.3683333261374235	2.217896932724323	3.288145057005849	0.7500197272438028	3.3728060637195907	8.998573280503443	6.187351211185081	6.769845945432196	3.4212706002640996	5.98972462095528	11.655152291435385	9.043070770320297	10.265328381370136	5.858625874032854	15.500195464100631	12.178513496168714	12.796235052226304	13.255518879802075	12.625903097700295	11.200173349713003
224	-2.7837464739134883	-3.4105815801342265	-3.4371390255932983	-2.0568168111369927	-0.044223464913771444	-0.6534572227192281	-0.9559681987468432	-2.0400958009710792	-0.831881878659893	1.82347833649876	0.2819019846951415	1.3557863201243319	-0.19461843322254865	1.808715577327353	5.561899647975376	2.1855153982296627	3.2902159607786965	0.6906387788501768	3.753798952161973	9.226124740195043	6.429471953371636	6.8871178453131146	3.4582776936002313	6.12168548945756	11.864725082959488	9.506648993332004	10.505051586331298	6.039708599100567	15.685439070200319	12.52554604228961	13.244612660347189	13.367716755495366	12.74459644914623	11.323540658971844
228	-2.9655718728532268	-3.245522490890316	-3.294618359830692	-1.8338186694575773	-0.09898097043081072	-1.121686694174239	-1.4756894074375724	-2.258561843891796	-0.6000886544335607	1.7629864171339702	-0.11060483725756146	1.0301372978904864	-0.14406827055796972	1.8546315384769902	5.600817189381025	1.9796236703483052	3.061611406225863	0.3169660262211458	4.003634442711619	9.246850944061173	6.422986014362133	6.75492904864979	3.240957490367784	6.116098388489	11.870101898741812	9.712525343215047	10.487949344858364	5.971196636382918	15.635992010693814	12.694303480523207	13.461548771249673	13.352539982462394	12.779481855552293	11.346194238626563
232	-3.185294143264058	-3.244306079302811	-3.572899332562548	-1.743763561614571	-0.28941932247523433	-1.609136100521062	-1.9196568679026609	-2.6190848284399366	-0.5109808432075781	1.5839637477937836	-0.5281152115839651	0.6415742619528736	-0.4448218632434641	1.7721298888287196	5.464499936612399	1.6244434077257621	2.688657276994752	-0.1696766461618405	4.065230359304151	9.033167816243736	6.163456901247849	6.428724272709461	2.880265705466065	5.975881561450436	11.643786400961153	9.58555695974655	10.215808842615765	5.680779442749696	15.291234931486116	12.604422537451795	13.355542149202861	13.159151997721159	12.674330679365138	11.225831957131131
236	-3.333435765433371	-3.347927561890313	-4.124763001518348	-1.7463478997962176	-0.5204448686811202	-1.929194803135538	-2.0711343236130517	-2.932184688794455	-0.5393678532334114	1.3435806002073334	-0.8548997022979151	0.37212917114717986	-0.9422661638311812	1.6229257542643227	5.192173467878571	1.2356976239477293	2.341694110680198	-0.4982974516685556	3.9766335386965377	8.644805886377089	5.776688561159892	6.056519493070574	2.5503718788606125	5.736610398114108	11.228873224518473	9.203822112687876	9.78399369630609	5.265307413159014	14.682583771828964	12.27461144209308	12.940906491985555	12.77316567057068	12.401963202635807	10.93927762130676
240	-3.3261468326514807	-3.422447911204731	-4.638296592445921	-1.743770714171926	-0.6808946711515422	-1.9495551536929587	-1.8267818643224505	-2.9996747894846547	-0.6046487673752335	1.1256574363898608	-0.9860976313489964	0.3696815064156582	-1.3666309083766761	1.4780720435018084	4.862999426961609	0.9678925847412121	2.1903953496943926	-0.4650901544272617	3.8304495714752846	8.19552800970379	5.453679071008616	5.802583679807892	2.4024069248579676	5.4307126861789055	10.710546466488744	8.7533263939156	9.332621550839251	4.843356597116182	13.911089862033636	11.806293457740802	12.32437893616909	12.208163230590925	11.971876114183098	10.498087856490482
244	-3.1362943570108173	-3.328413239658698	-4.79926251153415	-1.6322295624531131	-0.6980462056655813	-1.6536511141034358	-1.2503260342501517	-2.7141108444353708	-0.6114698036968182	1.0025762294252203	-0.8737381078594836	0.6723975522231053	-1.4594048224796026	1.3865698540965987	4.561769950793429	0.9391138529909039	2.3176333845751738	-0.036164466200359534	3.7093417550848855	7.799596766806935	5.352385984258741	5.763223156683391	2.4902110036920697	5.06774805696835	10.17672536187948	8.432123162915037	8.97990701315555	4.502409923630066	13.103301015196154	11.334906549446076	11.654475182672448	11.50263497309487	11.431901902899918	9.954700444837501
248	-2.797974341004031	-2.996105901783094	-4.4608931428816145	-1.3585190738710944	-0.5688968882502579	-1.1471803159360456	-0.5435564504251372	-2.116505379101528	-0.4948267626190144	1.0036213372640734	-0.5509819374478631	1.1860917776679427	-1.1019700737787672	1.3610559667556197	4.347703922738923	1.1727509468987076	2.6778922013383375	0.6363978369857792	3.639576187481486	7.5262756157636055	5.520027146707802	5.919851764991555	2.74560903809669	4.643599021631752	9.689341520641745	8.354930856591373	8.770919777660243	4.264843929967167	12.366417853604457	10.971825571969214	11.056873293617281	10.721825572600403	10.8592309677613	9.389931655064673
252	-2.383298867884116	-2.467020028561412	-3.727082481511042	-0.9493181681506874	-0.3530300548700221	-0.6055273398370047	0.053004864469456604	-1.3790708745470504	-0.24956759747437932	1.106059190818614	-0.11982490837123447	1.7297840074735356	-0.3779873242371716	1.3850727046329103	4.239957321906221	1.5877029855696825	3.123727075319524	1.2931933370365143	3.588094463826064	7.3830466084042765	5.876685127679886	6.154934867577959	3.017662279139558	4.168202866520977	9.27662370246989	8.506091096383072	8.66703794198502	4.088688363242728	11.759931534640081	10.762609454638547	10.586624118779156	9.955093358654867	10.340110752702323	8.883809067231184
256	-1.9692406604639363	-1.8824726295627041	-2.898463241888627	-0.4992078828128787	-0.13690552080875049	-0.19176118027432582	0.3755234768446342	-0.7228012066711962	0.06687473488851149	1.250105735483618	0.2910958819192436	2.1240544265525614	0.4634014952403936	1.4309980833163984	4.220747937036507	2.0391709753050793	3.4829606921951393	1.6944963889255433	3.495247593638117	7.328119259452379	6.263200267237477	6.318541987678807	3.1528694550066887	3.6852211859166584	8.940326668101672	8.759077050029012	8.576910950940597	3.899433126141206	11.288361520877068	10.676710101828078	10.217496846151542	9.298064208397204	9.941611264877873	8.482045152229913
260	-1.6138364035868928	-1.4245252573287124	-2.3099765719266587	-0.12617114154431774	0.007415081355625929	0.011086113722944855	0.407381295129298	-0.3150726250799911	0.3589214077470698	1.367261287098229	0.5775575623235456	2.2738070430567965	1.1238951654668807	1.4744909964527442	4.248822201491993	2.3857266842689775	3.6424655822343226	1.7298676923945888	3.31937765237072	7.2983012015137465	6.522961600047219	6.306909545233811	3.0734484118112118	3.2632126725778305	8.665702797945423	8.94642255431675	8.409593560921138	3.635829916357521	10.911822291481059	10.62985989747859	9.872084592690129	8.819725014353429	9.686443304401504	8.1778020652295
264	-1.3480780090628608	-1.2382227151126188	-2.1558575575757817	0.08125439265717233	0.047654159246769315	0.021074615365702692	0.2698088877541618	-0.1997424359046954	0.5315884934355475	1.4074223006000426	0.6958707553460616	2.2025554124536084	1.3951114380899259	1.4983066282590705	4.275040138895282	2.5479085381075546	3.59407948540214	1.4593754969944472	3.0594072264676337	7.235917549937851	6.5730099512087	6.110992893049009	2.814988129184342	2.9593884870198393	8.426798799219984	8.942152000738666	8.123285273069778	3.2892103112145854	10.56887242509839	10.528624508024713	9.47768590441587	8.531680085576278	9.546133017280168	7.924415091534523
268	-1.186811086519276	-1.3718298638994386	-2.3969161449951213	0.0979030725868334	-0.009891857368111417	-0.07545135151171693	0.14076462352498983	-0.2937963299486195	0.5264750705778217	1.3514293398115407	0.6668272001596849	2.02221416916503	1.2497228352465475	1.4867315254822036	4.2537212264430035	2.5292696888961905	3.4208094987332816	1.068945405168604	2.743625395523573	7.103186589427017	6.429159148196645	5.811109528175039	2.5052289899517604	2.7787728239474077	8.187272051167504	8.715368248869833	7.745632152075018	2.9164857790745695	10.203152630794692	10.315546963396665	9.017374015929608	8.379651048484527	9.457671141587983	7.673136214910641
272	-1.1447962493603387	-1.7611578658461673	-2.8016722131565603	-0.03876663362132952	-0.14164879882335565	-0.1886495645051662	0.14768049083617277	-0.44957339650134986	0.34082329187174265	1.2055512636265027	0.5477161989688646	1.857861991006371	0.8395628311894812	1.4204574787516413	4.149503697409252	2.3935117661127254	3.2357065595949086	0.7704775313951854	2.4017665325561177	6.8837394540557755	6.178582652705022	5.524417863249451	2.2975561560797213	2.6607003144798873	7.9052495756832535	8.333041170062168	7.357944946785524	2.619900458396984	9.787433599556683	9.995353673494627	8.54887483345767	8.269005754574428	9.358205771660888	7.414178352710443
276	-1.240667101588686	-2.2637348117895018	-3.0951225679454546	-0.258245437685319	-0.3295043102528289	-0.2826510362641427	0.2929742626899528	-0.5453321323931577	0.024767612975888465	0.9871413682810231	0.3912490894453117	1.7715678170299067	0.4058627774005117	1.2807028261274982	3.944207419927698	2.21672629750389	3.1113157193785694	0.702136455193676	2.04489778956064	6.580521090105752	5.922871097869674	5.337779508465541	2.2961552085124577	2.508814566953816	7.5493717003000205	7.91842649367977	7.054344159435587	2.5032868322113027	9.338745093609436	9.632635092257082	8.181150415745948	8.11607835627889	9.221084571445562	7.195328217459763
280	-1.4876457415214603	-2.722657435218846	-3.124112121323801	-0.49561774605550923	-0.570161281576686	-0.3936260630683083	0.4524475026628404	-0.5518464432135026	-0.3397869161133272	0.7123897057666965	0.21479681079992957	1.7285474495161472	0.15209943017705152	1.0624846193191322	3.6440694240118896	2.0436124750039486	3.0404853744035907	0.8753247834993985	1.6685864883256762	6.215736850304087	5.725767121163945	5.263577924790577	2.510293954233406	2.2503371181892944	7.120833378933245	7.589974861055661	6.896650773755844	2.623144619994628	8.916727043527468	9.321516013452738	8.01864621998924	7.896161536308005	9.070483184801867	7.100001317218263
284	-1.8767316294017227	-3.0316185874691897	-2.942758552750913	-0.7191296797715914	-0.8699863531082136	-0.6034474357628187	0.44244432337634365	-0.5424147234573472	-0.6715127808782931	0.3907887329725513	-0.006772700214422897	1.6200983483418958	0.14458508753035113	0.7861191014469417	3.281310550034579	1.8676288080746075	2.9458424970638055	1.1850593060137502	1.2783001629026682	5.829385265891347	5.589044079974713	5.237502561697231	2.855015509072907	1.8885456275942463	6.665309412340412	7.408365230929465	6.88388012101709	2.9545836374073366	8.599984147293474	9.138584113890184	8.09947297912355	7.656514625291962	8.962840057632235	7.191855412445338
288	-2.364897483576937	-3.172151557542845	-2.7708971430438303	-0.9330705976770296	-1.2302032678062058	-0.9848205422332632	0.11975385963484157	-0.6429193599681238	-0.9199238992353378	0.02906133227163604	-0.3207151285657299	1.3295294012834586	0.28973057792946555	0.4981901037035862	2.906905166916141	1.643424268387984	2.7297737529499027	1.4721147976901279	0.9152611470956209	5.472647653114045	5.463670239959221	5.156609999035255	3.194676152746596	1.5142575464164303	6.262919886989161	7.354501228837675	6.950619203185016	3.3909168157795784	8.448284127840054	9.10180947866809	8.362379052983702	7.485392074759649	8.945956207577206	7.46016738915439
292	-2.881246321079434	-3.2084216990528343	-2.853221886106854	-1.1594847411445428	-1.633285041500131	-1.5482709368716312	-0.5376812802091051	-0.9525454020292582	-1.0799312564287091	-0.3595883539181002	-0.7591650466825357	0.8051997998889104	0.39680269260359247	0.2561146312446233	2.5747206146084642	1.3229293789841432	2.3362140596533845	1.6015400846100645	0.6555858833927174	5.193904863595635	5.285464750296842	4.93633364384799	3.4060621175601877	1.2648369041933736	5.995928749204997	7.345662575295537	6.996150952795401	3.7816445732006785	8.469058969096197	9.15725610328396	8.664121605932813	7.455198745978458	9.020808197134317	7.802485446304036
296	-3.3505866442963192	-3.2460734762252286	-3.3035404598753044	-1.4132442438684247	-2.04203748187438	-2.220340246316787	-1.4091078007407456	-1.4804815016561255	-1.1864639490689806	-0.7492921333468667	-1.305616733115683	0.1014788073719454	0.28753912376286406	0.10270192448197073	2.321993583538775	0.8938662387214457	1.790568347224855	1.5182270965391595	0.5800086245198108	5.020540224751112	5.013484465338995	4.556675899445207	3.4301509770574747	1.2522895304533852	5.90832565723257	7.278899174432604	6.93131158986096	3.9946570295567945	8.606349923339415	9.201894736899286	8.842030502883539	7.573614578199018	9.130649543597716	8.06262777200222
300	-3.7194919492273497	-3.3754846964490337	-4.028239240012779	-1.6849079089540242	-2.4094352661335576	-2.8630244659618658	-2.275262350059958	-2.132439369539814	-1.2914677825746235	-1.1014742823447772	-1.8822764110725991	-0.6317952855371334	-0.10723382952557485	0.04694567236372569	2.1575851385955898	0.4016613354078692	1.1990328996903232	1.2623958555774053	0.728302357742207	4.947427260305577	4.654189098051548	4.077319611745552	3.292597523959329	1.5020726881250503	5.981319412388855	7.082596760987791	6.7235998937606265	3.9767210383148472	8.763335205841013	9.135267234626097	8.793306328507043	7.7754950327064085	9.188676810907266	8.109639147310775
304	-3.9710290331717473	-3.6264662651055275	-4.771766650550104	-1.9420845459542517	-2.693430893773471	-3.324614039610307	-2.9059810565058766	-2.752896301948531	-1.433980818942718	-1.3722206319495995	-2.367486947758022	-1.206011411483007	-0.7119379025604398	0.060450542565549124	2.0638172574388984	-0.05739413187318304	0.7086403948058562	0.9444727277751951	1.0642884942840602	4.938516604352733	4.262369621959499	3.616339674402335	3.0873408239618056	1.9362139652958559	6.139152034518442	6.753287298318241	6.418844683653594	3.7819313907506134	8.848631836485035	8.914390541458172	8.529122331066134	7.959961871077344	9.128658271630087	7.912994841624392
308	-4.119431008428783	-3.954263200313076	-5.255985723576836	-2.146400446241016	-2.8687982486773906	-3.497888079395	-3.1504032532306887	-3.1979367652261566	-1.6186466176174117	-1.5242085418365579	-2.6376662187738824	-1.469831462963837	-1.3452736105332592	0.09320773905824836	2.0109898993264252	-0.3690613796929807	0.448223083079695	0.6951326114270268	1.4792125187720613	4.942817198671709	3.9217436214614643	3.303738347295459	2.934266321403335	2.4106583534412604	6.284423812258355	6.362492545276583	6.127872451569625	3.551633825871854	8.82273290313978	8.583935715937509	8.174434641226771	8.04967401379518	8.948954559620416	7.569480876884992
312	-4.187944878495059	-4.261146534651796	-5.33211945141196	-2.2741014900012435	-2.9303510115072147	-3.359649172883668	-2.991920702056112	-3.400280467031572	-1.8136950685486066	-1.5375218352599762	-2.6157562666655036	-1.3703193629953543	-1.8100628807144543	0.09945075188800248	1.977114910856043	-0.44523337370995447	0.47715893267323445	0.613714693427326	1.8345138980324822	4.918092715244143	3.7157921697261926	3.2304079451063332	2.9290714189964073	2.783750765447901	6.344333632663738	6.031168922455867	5.981473907627723	3.4508592995302156	8.717153527185639	8.263409593699885	7.910866717392704	8.03299997208923	8.720586754716033	7.260674935129251
316	-4.184200276301144	-4.442574012984018	-5.056035505880978	-2.327008479918936	-2.8870532439773706	-2.974494211316418	-2.546351187952795	-3.3926973257238133	-1.9685107419858596	-1.414235945945694	-2.303654903317742	-0.9724523996596619	-1.9846169898471118	0.0581477096698854	1.9619481514033685	-0.25934782558765657	0.7635676245484649	0.7333983760437023	2.019175762800631	4.849459635888616	3.7001831438104014	3.4128820809981693	3.103976957113773	2.975116960643459	6.301624759022788	5.881060108595354	6.070782169273579	3.588244667530519	8.611288048937299	8.092421511245846	7.887357215041171	7.960465411115136	8.54936597572938	7.157970410394658
320	-4.09021042744787	-4.43479060007032	-4.6478204609826665	-2.326970571364954	-2.7513389517937714	-2.4624535975274093	-2.0063846060641266	-3.279906264607216	-2.04111432513843	-1.175008293999942	-1.7817964508846973	-0.4285837699083017	-1.8689529848595945	-0.02053813631117567	1.988017196404384	0.14361372553806023	1.2011066644861128	1.0136660311855512	1.9917539307852086	4.754217135823904	3.886751403532233	3.7887730502792385	3.4155096921518133	2.9856519623716213	6.195365413282767	5.984421714932291	6.402385218668295	3.960507859721138	8.580171563420157	8.161847093956306	8.1458844932886	7.900608996471337	8.514775254686342	7.328375321005687
324	-3.878873815280027	-4.243118752257126	-4.364068973967137	-2.2991704882747426	-2.532434695525773	-1.9493099401849718	-1.5620911081929398	-3.181113950327224	-2.0214185663685766	-0.8520289041942012	-1.1774250239209032	0.08424592741915449	-1.5709735115442323	-0.1067280990170937	2.0867900795702288	0.6646978242304602	1.6525453287363545	1.3583378757514348	1.7859314635009051	4.6702365757332	4.240991104862595	4.241539467593144	3.761243810694202	2.8737499641342494	6.092050060150058	6.33217237781163	6.889150602113403	4.449940193385342	8.642787911528668	8.464753129568495	8.599672295792798	7.884020308616491	8.620666482141159	7.695206145885193
328	-3.545648327458621	-3.9413308997781	-4.358910549602719	-2.254884475737018	-2.236999506070869	-1.5216152629582176	-1.3306488957188036	-3.1756753841330694	-1.936077589868954	-0.4810313272252252	-0.6157370194148043	0.43158590684644654	-1.2465332715033797	-0.16972099201744142	2.278944009749149	1.1882910698453124	2.0011105486891365	1.6508034426018363	1.4848092756930504	4.636161315656879	4.693112838340238	4.644574153617816	4.019780148847612	2.7123012474245587	6.0475354041955525	6.835371953872716	7.383943062259435	4.879175173838494	8.745715119215578	8.895444847536277	9.076282478305293	7.878773192540871	8.791961647724305	8.080550173385193
332	-3.1320426385004336	-3.6413698104475385	-4.61396359232425	-2.18338488981219	-1.8761274767238048	-1.2039540975691339	-1.3213281598109397	-3.277208081554336	-1.8311847402116028	-0.09487213170417359	-0.17486016408164523	0.5676311836216481	-1.0254186365941111	-0.18906192433784244	2.560816043110367	1.6242204863548648	2.191082710456207	1.7955818130935448	1.186994311196853	4.676474559421064	5.1604461539633135	4.909007060054679	4.100927819388584	2.558623069025327	6.083905204671354	7.361712437162974	7.7443208498932705	5.098355280401816	8.796752907477835	9.300962424637444	9.40552899847012	7.817651252082396	8.922971702935529	8.30774305153473
336	-2.7264361312694865	-3.448230019446522	-4.968831526608959	-2.0607707448428303	-1.4759401045728648	-0.9681988334052949	-1.450503226432741	-3.4463577183495646	-1.745052929287097	0.2770910852112094	0.13239709999512855	0.539037405083611	-0.9633982157225606	-0.1557976599574483	2.9009845183562604	1.9335449885188418	2.238617176125989	1.7509584382672432	0.9781041716676399	4.794812190347876	5.570312485936313	5.012255179148251	3.983929624035783	2.4485011038950333	6.188593848816221	7.787251929649382	7.893820265867139	5.057890879258862	8.72632692041199	9.554578757004938	9.501796698422378	7.65619228337383	8.945311523740942	8.302498796482054
340	-2.4383592544028168	-3.4214763554973446	-5.228166090163187	-1.871565098805636	-1.0852731438892822	-0.7676259855916854	-1.59735524251095	-3.6300029662989908	-1.691491241952845	0.6051424726466617	0.3427711716580845	0.4469001877945676	-1.0405763361408027	-0.06970337760731438	3.2467739500088606	2.1271097606360336	2.2092511598121916	1.5396413764228378	0.9146152711664653	4.97454403574981	5.874908909270064	4.9949383609546665	3.7256092931144926	2.406832212093499	6.330114348642021	8.03966615554408	7.848323802206371	4.826506125662144	8.53797719707161	9.61244676070405	9.396402335285154	7.420931320527865	8.872780777464104	8.132206896277234
344	-2.3535165727322584	-3.5548262506379635	-5.276639925032257	-1.629258390127851	-0.7701285462009065	-0.5730361327962343	-1.6691445070086546	-3.798761835044058	-1.6603407817882672	0.8581588842660048	0.5067304359993762	0.38949471613774467	-1.195684191546007	0.06318954362412645	3.5387830644907248	2.2428231182693006	2.1765611116769525	1.2349534003549427	1.0167260144313046	5.184136854434506	6.055744155853294	4.930101859043168	3.4332015427693774	2.4557475981699506	6.476353628973486	8.11478040553754	7.695134143474486	4.545372951475697	8.313351610175356	9.52295777777569	9.204593635207901	7.209071617998795	8.791825272297404	7.958104113513675
348	-2.493138783836045	-3.782294025408511	-5.133767115029206	-1.3821039164934332	-0.5935953244481237	-0.39184009929909	-1.645125027317711	-3.9608693022861434	-1.633883472132165	1.0092234586030788	0.6539476497352019	0.413626818804707	-1.3715523446740652	0.22783315124209835	3.7276313210787477	2.3162681997946852	2.182117456648886	0.9273701286743931	1.2616648642157255	5.3834457261542	6.118622764398154	4.8801183577350375	3.212213984962449	2.6055936747569577	6.60292385341589	8.061239222201039	7.536735515639541	4.343957890033537	8.164786318192048	9.384841895250865	9.047750450179088	7.133428555598223	8.801146485042425	7.928509692201676
352	-2.799109451856268	-4.00757836283716	-4.922994601218094	-1.1985740631360007	-0.5894103631397201	-0.2621756189402736	-1.5796025951558688	-4.147907246607619	-1.6063170392488826	1.046292898397488	0.7786207179438396	0.4975801395728172	-1.5471552571335423	0.3955818702723852	3.787765493366499	2.361118787526297	2.216396564609825	0.6849586350313573	1.5791957338516591	5.530134663924715	6.084195598499967	4.863443839191932	3.113249055631623	2.833603374956435	6.690248472488629	7.945398310628274	7.430883865668753	4.264497746191186	8.162708261861846	9.280888534002091	8.976389862285524	7.243472557853347	8.937036491718379	8.07707403051067
356	-3.1549684921717995	-4.142727841408293	-4.780155646653191	-1.136948344221156	-0.7410126309759553	-0.22640037479460495	-1.5633912047014984	-4.38410471762993	-1.5888043601930613	0.9825791691767883	0.8510788061588803	0.5723842964026163	-1.7395499900767475	0.5270455466315266	3.7256195451133682	2.3687047898569977	2.22982167634656	0.5257781730728673	1.8608791781172835	5.588499055104263	5.979269966288072	4.848158347287165	3.104908935337128	3.071948758952449	6.71834276410471	7.815751532848911	7.360057812228187	4.238112915782947	8.28340051466992	9.226286864828424	8.93745420106791	7.475766639908462	9.13287541944659	8.28828523450622
360	-3.433162680541082	-4.140726079023211	-4.765649783500118	-1.2131688564188545	-0.9796713565887624	-0.30155214591185653	-1.6667154985309005	-4.661000240002125	-1.5952902992025648	0.8584756829521861	0.8452852347013396	0.5672504291517841	-1.9799689004499725	0.5871571287589648	3.579919329187891	2.324013227317245	2.1664977018970624	0.4154227365495776	1.9929999062764474	5.541765199021083	5.831908211289031	4.774989116057104	3.0885887068016724	3.225655785999679	6.669826013891509	7.685348491338548	7.2470936592236	4.126567353320433	8.413722970700752	9.162381149047388	8.805047012986678	7.673275451360484	9.243327117470947	8.355069139366904
364	-3.5435225874127183	-4.0109681981862675	-4.831511485299164	-1.3854784930535167	-1.2078626125357672	-0.4646822202394489	-1.8943226289605812	-4.933125006618543	-1.6183661181598068	0.7303950172103427	0.7635443787370612	0.4543244231197563	-2.281687969169101	0.567935346123169	3.413374892199928	2.2266294899990284	2.0029249140715186	0.29185426161512856	1.9092301082091374	5.4040918213779525	5.671120629297519	4.598021972491452	2.9530010148832564	3.2198800959355256	6.543895228076641	7.540201168096611	7.008714658208016	3.8082144164258325	8.414618470881596	8.99997995011659	8.457859017952599	7.668743591020363	9.124196983189202	8.097911814271535
368	-3.4650163563029444	-3.81099723807408	-4.864101874468591	-1.565451141219735	-1.3409072126866173	-0.6626923663574107	-2.178429598076654	-5.137844549558707	-1.6160739619461115	0.6488358362028809	0.6409687979727738	0.2672055356908799	-2.6186361246752003	0.5040676581054032	3.2952318108331715	2.1007792896636936	1.768764849011776	0.10523161265507683	1.6379384953152865	5.223891721887846	5.526483044976415	4.318997849050413	2.640902512558436	3.0512201709005358	6.370814307340533	7.3640899472277725	6.614908201682751	3.258868447658989	8.207670191069617	8.684856392867767	7.85921380919792	7.386027794309836	8.722810723216277	7.477324466900379
372	-3.247293464091411	-3.6202919391781228	-4.771615970008492	-1.6539583164418326	-1.347265836175202	-0.8403017499688962	-2.413587325678128	-5.227570043716938	-1.524538393939912	0.6357751472633828	0.5272598253289531	0.08344393202456526	-2.9293234274338813	0.4665495145462578	3.2782852566919973	1.9874733636268265	1.5372098645500094	-0.14767174385457404	1.310664650468966	5.07242773682714	5.424111352577408	3.9952421087484327	2.1920559350936424	2.8070146966635794	6.21201656680518	7.1625938234689235	6.119688495444048	2.5815176898629097	7.83211896826291	8.245593050165766	7.095210534301891	6.897504312266872	8.124723413935287	6.634438497959126
376	-2.9829125329046606	-3.5066714198269255	-4.557185161528881	-1.5861861665732677	-1.2646501032371191	-0.9676359271414573	-2.5132315095391	-5.195224272009052	-1.295729037828147	0.6747339350831122	0.4597225773648553	-0.017141547010774107	-3.142665378265484	0.5299185501070915	3.378756037764627	1.925312752631118	1.3906953299696667	-0.41340500011973536	1.112313983016262	5.018347250666073	5.380679593806447	3.71693991676309	1.7374117330554737	2.6297569208507365	6.1382365071770035	6.971346360725458	5.645470604948217	1.9669619748999263	7.4342961123642395	7.7936668199224926	6.348929866020054	6.39740751558638	7.525074939802281	5.833501324230565
380	-2.766602747607895	-3.4966850192478907	-4.331353176625419	-1.36288332595053	-1.17866182029687	-1.049744484158427	-2.455073588848532	-5.078911291650859	-0.9383013820800219	0.7226539831989727	0.4466308046031853	0.006923071091279375	-3.2109532275193433	0.7289840560627819	3.570199718998197	1.9342924307624383	1.381680008260861	-0.6029776915585298	1.1899881332870728	5.0993599762916135	5.4005803925538105	3.5672516732750497	1.4427750074199654	2.6407620840157002	6.19490717277489	6.845050794485486	5.330184923066014	1.6057556827058053	7.193439465480889	7.475298385820289	5.825133785799543	6.102843746035893	7.1374249278110335	5.3372759684277495
384	-2.657667153324215	-3.5652851968395844	-4.252133835547353	-1.052333352293065	-1.1733357876717672	-1.1131715746431252	-2.290847295699321	-4.94347809497131	-0.5329490886584002	0.7380825858554843	0.47101184606842356	0.14142745697554107	-3.1330037037903655	1.0319207880669528	3.796257963132655	2.012565607711729	1.509813662531776	-0.6353675110987931	1.5684671362377551	5.306274400665445	5.47870586919372	3.586567392830774	1.4292286598360635	2.866667025004183	6.37503050148272	6.834051591784985	5.265456186351997	1.598113055962711	7.225153904792908	7.4015960506487035	5.663746342664527	6.137701019049693	7.0891933262177185	5.282384859099784
388	-2.661715739205717	-3.650056352936593	-4.426714409142224	-0.7603318076010681	-1.2802051273448802	-1.180638906359078	-2.1180612987448164	-4.85176943507712	-0.2060146624608963	0.709323404428613	0.5102958666315487	0.3291229597365188	-2.9566559716916556	1.3488098348895654	3.997724761406349	2.1462368910961653	1.7259908870988958	-0.4823413777094359	2.1247239059209884	5.588360295491577	5.607188687472848	3.7580768967159917	1.7097908215270041	3.2162070193151604	6.6182856392657765	6.960710031101434	5.456615434221417	1.9071103286276974	7.518259506317292	7.594843368428624	5.8830695003749485	6.467167837981052	7.360801201355949	5.619554505465309
392	-2.736940615419601	-3.6834068205342763	-4.833281027988789	-0.5827099666188561	-1.4556119405235415	-1.2512154547572445	-2.02906131232096	-4.840113150774274	-0.0701595543043705	0.6649463159939014	0.5568920359856454	0.5034989105863924	-2.759126894660461	1.576580997301254	4.1409163370488535	2.323950284812521	1.9603276203253068	-0.1894171531186457	2.6451134614918965	5.87812088435961	5.781943783467181	4.021129121164764	2.1770298426022827	3.5272006899472133	6.8406438654805	7.208491784015884	5.824167713719462	2.3790004193323466	7.941688040709663	7.980041006921425	6.378576739419324	6.920952779462309	7.80207488951186	6.148504718515825
396	-2.8191444802633256	-3.629152288810904	-5.313042150434735	-0.5642124996245421	-1.604022737267981	-1.3007203307690365	-2.0657992310819657	-4.907345759399694	-0.1654948140972796	0.65654206110179	0.6228314622412835	0.6227176173700499	-2.614334338263332	1.6561362701564264	4.230223645020396	2.543095582263383	2.156941408433641	0.13934205437288844	2.9385647699551045	6.12086389903605	6.002087101087642	4.302425373658904	2.6503746442636475	3.659062137902259	6.977684003379135	7.526948432992132	6.242614730332663	2.8172933984198547	8.315743425354864	8.423573472690041	6.972731572666541	7.289981346798424	8.214034059766929	6.623594744171807
400	-2.854409687464939	-3.5056574256125668	-5.641331658425464	-0.6828815919801133	-1.635994668644779	-1.3012342420149923	-2.203074449699002	-5.0196852557286125	-0.435253112409316	0.72306597050262	0.7255836110869313	0.6853391510826428	-2.5613088543121254	1.6058406789290405	4.298224438305741	2.8031020093718224	2.2967722357936147	0.3881119777894138	2.9393439218696416	6.2933535416974795	6.261976703092617	4.54731272503037	2.960108749545487	3.5755140691129537	7.0161785902265255	7.849629382342235	6.594945890942135	3.0716838759117358	8.506630876044794	8.796672798835457	7.489301662609885	7.440282802870365	8.449812867765395	6.871219617661604
404	-2.824965946694551	-3.380672923135764	-5.64177082544706	-0.8660460688659951	-1.5266282519897505	-1.2439687220637488	-2.364598506679499	-5.1258611549661595	-0.7529699783388017	0.8593957402466161	0.8673239328421084	0.7233281117296803	-2.5886125499219013	1.5091004333541944	4.379413593679372	3.092414132893699	2.3988699852459257	0.485376446213736	2.73496722484536	6.4026913481230885	6.542080385857102	4.736650454960053	3.0258352680105247	3.36473702534885	6.99449060581473	8.117044428358971	6.816692335084428	3.098492852971125	8.48962400200326	9.0295409928276	7.817756156256936	7.377321701497344	8.479747750807492	6.85908315834166
408	-2.7561154295954324	-3.338080874598279	-5.280573831577501	-1.0290819380527578	-1.3376774754129723	-1.1465971440930356	-2.457511180395112	-5.1739797461532655	-0.9878044103478305	1.0109279130207725	1.0263360712841778	0.7818368653585102	-2.6414546899862414	1.4611203633611967	4.483388889437367	3.3824176702932243	2.504118913050266	0.44094121344819287	2.5037674840655577	6.468703730463747	6.807927114464468	4.885138976161083	2.889297716475366	3.182804576467365	6.971359712165855	8.295935609853116	6.911656839086609	2.9665079041924165	8.347261407758198	9.130142188862669	7.942392329190551	7.225718003149638	8.38811395434695	6.6883172820027825
412	-2.7020242145983326	-3.430620184819962	-4.6887130618926065	-1.114339229631327	-1.1841443747187579	-1.0369453403995428	-2.4069080292014617	-5.1254606117542805	-1.069078085107539	1.1037039728909055	1.1715456217751028	0.899944601171004	-2.648118489255306	1.5064139328116606	4.587504852156678	3.6383902934720287	2.653450482344871	0.34243732604354044	2.398215764666523	6.505211813715079	7.023232919127172	5.026679026310321	2.685790770425451	3.1542985359662157	6.984920960910912	8.389776208676249	6.9374680343949775	2.810570232924744	8.210440614951782	9.164031005610605	7.929775694853508	7.143120270814232	8.31019494819602	6.521786673292373
416	-2.7134554317630752	-3.642439117772109	-4.103933323989151	-1.110755798396478	-1.161758181499826	-0.9241091585669646	-2.177879804834634	-4.965962874272452	-1.0129499409850278	1.0948865386022544	1.2925350633412769	1.1010979386186155	-2.554831975208605	1.6076215465011434	4.655376422572476	3.8443579576706384	2.871946566006478	0.30982485335328075	2.4484224257641283	6.514049036745746	7.173255425462269	5.196385847323502	2.5696160728427873	3.2937195217897486	7.0301103414425725	8.437999704037896	6.972071153204097	2.75979923505183	8.181753137912395	9.211796737301531	7.88654706871143	7.224361878275132	8.350553491490121	6.493982298667747
420	-2.802102081853595	-3.8831043145369244	-3.760250320477594	-1.046377894620723	-1.2777167526410798	-0.7785577158344711	-1.7802476837987637	-4.712287890934648	-0.895539281491422	1.0136138175168599	1.4243645632068036	1.3943649495206436	-2.351199144149242	1.6703894096162903	4.671634662277522	4.027105321253435	3.165727368945173	0.4316470314095094	2.553971760977378	6.4971351459498266	7.285803776465953	5.418835149435211	2.6345384054425462	3.4998176009507973	7.070631009370053	8.50496289966961	7.079277974375076	2.8776779102150303	8.287528017100906	9.329872107791994	7.91031597047637	7.453355770366656	8.529507615488988	6.650388224023593
424	-2.9245636389327148	-4.021446694711325	-3.7817206287272196	-0.9606903767172512	-1.4284379446204696	-0.5405071364107719	-1.2640638319525885	-4.414231289209141	-0.7913771847771722	0.9634878611080764	1.644210692069165	1.7770444109873322	-2.0775711483953843	1.6109346110679739	4.669659125936074	4.258475769735443	3.5261452109001956	0.7142012101261366	2.5674862796810505	6.476428492407135	7.432340603183386	5.702451691535311	2.8699099945089346	3.6268315223677887	7.077144128097505	8.65945337016579	7.28567407675925	3.1390221039674313	8.48262117151557	9.533016180765433	8.052574137384049	7.728419761218817	8.784534432166886	6.940926534294693
428	-2.993674509119555	-3.946852197218994	-4.134783734372686	-0.8755939580745246	-1.4442669116749267	-0.15745985468210297	-0.7117447239072104	-4.146749485990425	-0.7203696947983678	1.077195403240426	2.0329763837985024	2.2308866921367176	-1.8097881033027337	1.4223831856101827	4.728612411004517	4.625463950876758	3.932875861728768	1.0714745494493279	2.4143795906144825	6.501446707523414	7.699783305755228	6.036665424364598	3.17290877494816	3.586157789712912	7.061853867821168	8.947401024162914	7.5735029983042805	3.4493706139260643	8.694808938008656	9.79935357480735	8.304202058806855	7.93647811793229	9.016987777832439	7.260051708965054
432	-2.9170384333395316	-3.6275467781032877	-4.65451763885272	-0.7835395316368652	-1.1813986271594672	0.37055045272732234	-0.22465813103221902	-3.9878935713219175	-0.6387193782892746	1.4433199130811263	2.62019347482996	2.714923374950897	-1.628169413270554	1.1963386505439884	4.934930788932099	5.178956972398024	4.353626240228854	1.3650271858083984	2.16681432176931	6.632651312294692	8.142186144298913	6.391095622139181	3.408429614044689	3.410523644419651	7.081344109776354	9.366452193454032	7.889199236978659	3.6931238081196063	8.873674370296321	10.087586377424358	8.605076768130226	8.02386281848681	9.150927520536266	7.503773193487655
436	-2.6477308206466654	-3.1366062085114947	-5.128085600303561	-0.6590718610336048	-0.610628603347227	0.968971249994989	0.10002785150784137	-3.9871055979199763	-0.48049887893479093	2.045211309991367	3.3459069644375288	3.164491407034231	-1.5843453367286724	1.0787693234863913	5.326425062083075	5.8892226070488665	4.743731009904334	1.474914189429581	2.010612244298082	6.905199033469368	8.737647034519151	6.718866808140252	3.4830419929304073	3.2355997480717407	7.201017361579921	9.855340932759258	8.164069155107923	3.787027349447464	9.011508918898517	10.35469243296336	8.872792221555873	8.020868281140856	9.170824981423529	7.614312629548902
440	-2.221349472159576	-2.628027194063722	-5.388195024237912	-0.48479756590513895	0.1498756106884187	1.509852405550782	0.20293995686792066	-4.136970986411842	-0.22159947398980862	2.7490227153036475	4.067129124863322	3.505721321791605	-1.6782536464281002	1.1817222803797804	5.850756630430896	6.6362232994377734	5.052222239136455	1.3649241889824866	2.1209413951730918	7.292157631582969	9.376737570930505	6.9675640883961405	3.3934681329881027	3.2085130133683997	7.440410118391284	10.306426975931899	8.34017560760519	3.7159399892448626	9.125576949921559	10.565088245420442	9.03808209998377	8.006928423693141	9.118466354236386	7.5941104697183155
444	-1.754991169313275	-2.2704312744038204	-5.372099386003403	-0.273941814207808	0.8798044301708277	1.8690640879171752	0.09432821697022961	-4.364124287077349	0.07997606674506318	3.352630368351218	4.611567008773172	3.6837434675671177	-1.8570972634158334	1.505919691098431	6.36690567316461	7.246345024887111	5.236722932945538	1.1050996752494424	2.531131976412851	7.692641715654851	9.894794439129374	7.0969595729937645	3.2244245924603065	3.38372611145203	7.736537436979572	10.600512477813915	8.391979196341586	3.535748234405003	9.220195746984915	10.691347095199326	9.071984268172102	8.044020632461796	9.056395507835482	7.489729862376871
448	-1.4032238686419538	-2.1710665171168504	-5.124637113984143	-0.07404679041287282	1.357602116018185	1.987237925280558	-0.13699479366523742	-4.551267612410521	0.2989283494554683	3.6728029158369275	4.852126586107712	3.68959712050644	-2.0375132509287717	1.9223136853321714	6.695893747590343	7.560824375136828	5.280493246097968	0.838483748703192	3.080611936420811	7.958661536150208	10.136921857036127	7.0956649601125115	3.098258010671303	3.673220863605037	7.954425314847427	10.65146157436497	8.334667184767534	3.3441324149577563	9.260436988338395	10.712955447805903	8.993759132566378	8.125498751152568	9.02451799021577	7.361185055267334
452	-1.291337844449341	-2.3277134836555593	-4.756178367050642	0.05020157235107075	1.4629608355779244	1.8970494222428813	-0.3528021267089764	-4.587880599836392	0.3060765854737214	3.6258006004343564	4.761277663607592	3.5665728955820613	-2.1413588469800633	2.2279829922691707	6.698166353480602	7.5017680932424735	5.199607835993346	0.7062580567648434	3.481209746154638	7.952912310548268	10.024385426961368	6.985300523287884	3.103438131126364	3.884879817691011	7.945659140553153	10.440070125924072	8.212820032365208	3.2322378076963174	9.179502464006601	10.617088291065523	8.854302383956071	8.173276880609576	9.015140510686225	7.253062706754916
456	-1.4557976685961926	-2.6332151823318735	-4.38552378500916	0.04753626125970126	1.226420161011863	1.6989966588040126	-0.42824736129403873	-4.427613724020325	0.04566059995090307	3.2604906476671003	4.415533054647749	3.3875019464797282	-2.1296150630589077	2.25094484714589	6.339848502365003	7.102255326459399	5.033141123461974	0.769675431692468	3.4753188999170694	7.611899356697329	9.58875081502413	6.80680654714552	3.2409706033896013	3.8313147924966597	7.626084308443742	10.02045056674181	8.072500208500733	3.238441697527456	8.917213417427607	10.401618931257968	8.702212311708225	8.084154108617794	8.978514648657113	7.178135853764156
460	-1.8223606302027537	-2.9294290468641564	-4.098458279752485	-0.09157139039761916	0.8017297366881377	1.498116489442717	-0.3214996150959606	-4.120991219606483	-0.4200130988483976	2.7279510429172733	3.947552671002626	3.211383096216378	-2.0192055651229435	1.9448120544922873	5.712855801463877	6.484852297622683	4.818510997050738	0.9730282401313831	2.99150776107815	6.981070500868143	8.954893089573686	6.593176348252512	3.418333521795563	3.442765704045889	7.028003198045792	9.493794417253618	7.929321745880046	3.325428239055883	8.46405313262202	10.077043507883106	8.550172784199022	7.794523219456463	8.852443672718088	7.115612965738418
464	-2.2371489945195884	-3.082659713591544	-3.935914268093167	-0.32577517546419416	0.3793545951802222	1.3395197357690387	-0.11086864741467128	-3.8021159076063906	-0.9294090843577217	2.2050147000908322	3.473662606052233	3.043871871892599	-1.8753448677398799	1.4179222547971657	4.9957423084013675	5.800487503665724	4.565363872445732	1.169024583726048	2.1981065217788056	6.200624927124468	8.280364969328463	6.343214019019104	3.4928605468301788	2.814082853841779	6.293238623942643	8.960955597187773	7.749538878902313	3.3911254320357656	7.8792013923078565	9.663053488176377	8.359362581128526	7.320760708445567	8.595673539394202	7.020229798712391
468	-2.537840598374673	-3.043614618246398	-3.9054443737609166	-0.5792519435562977	0.09052877105267919	1.183157083385191	0.02879796728671576	-3.631441822420236	-1.2970869508419915	1.8127086116800646	3.038953773455309	2.8278338837753227	-1.7838888123296097	0.8788815714581003	4.373592365666725	5.160573469484232	4.245621193657057	1.1952547996861291	1.4186629021112747	5.446660504894744	7.682367782270146	6.014266475751716	3.3419306193853124	2.1564381068144285	5.606484875829117	8.476740815695456	7.458392601256039	3.311013690218375	7.26667545391293	9.1797885663008	8.053084353142038	6.750313264970036	8.206293085360203	6.838201028725193
472	-2.626839631124215	-2.862918608113012	-3.998644341863622	-0.7753730992768072	-0.046456873299608306	0.9344233846914364	-0.0929009837546863	-3.71879743590818	-1.4032931292390078	1.5714681108853297	2.610371106232933	2.474423163842404	-1.8150584651897568	0.5290365205759323	3.9580252070632214	4.598104942156771	3.809905042565973	0.9612952446509047	0.9568243002575907	4.856659876959304	7.1909799394250875	5.543952927897395	2.925194494491425	1.6822621779884142	5.104934202656934	8.030749300708194	6.977628213431767	2.9951407833773276	6.723123056603627	8.641407944796311	7.557981472006798	6.1926746212058195	7.7203092380154175	6.52796839019571
476	-2.509693139415587	-2.6563849382090443	-4.199343670733126	-0.869024453353257	-0.11235564173703164	0.5123902546343785	-0.5816430434800703	-4.064932336081027	-1.247434374520819	1.413287278421844	2.1184966510691567	1.9205070685535905	-1.9928271720163246	0.4624781894928315	3.747910251691611	4.075853814324937	3.2241876043932782	0.49818527572737153	0.9344572401295833	4.477337825915047	6.752680761454538	4.892933833166549	2.3066303671774167	1.4934840164624696	4.815263259174416	7.566278915375742	6.2760691484305715	2.4337763724868973	6.290414317461736	8.058851221718786	6.853629094939902	5.723830685469371	7.19645212263881	6.081050857449557
480	-2.280767435037514	-2.540451997064979	-4.479931343211966	-0.8612406828116907	-0.22050459627269378	-0.086074024221542	-1.3910821641132824	-4.553580749459124	-0.9381114220776023	1.2381094662878314	1.5200961789853071	1.1804276674985275	-2.2827837409558853	0.6282537563674555	3.6481685546320333	3.5323083311544106	2.5065090592997246	-0.05560082183151473	1.2384953467571331	4.259103287434054	6.279643042922281	4.085651864226957	1.6268162686282794	1.5373150071431279	4.651949393925123	7.026274186514513	5.406193719566005	1.7102279619906833	5.941487774153238	7.450459461475043	6.003021225078204	5.357098089044207	6.696796400328543	5.534950242373251
484	-2.0684764332999377	-2.5746807987058546	-4.793971526440086	-0.7925582508104146	-0.4419342864322884	-0.7678629736587139	-2.329887622672897	-5.002220618016359	-0.6314350350650205	0.9782156919577331	0.8406144359345984	0.35871511607202305	-2.606817477320396	0.8701289870228011	3.53176497521401	2.9344334528268634	1.738729472538841	-0.526054082972836	1.6025114018988718	4.095952023655297	5.713574871896632	3.221674195738735	1.0401973698102776	1.6492427545869779	4.475131023552454	6.398345454274198	4.501282203753763	0.9713451837811097	5.606286511571805	6.851675493107677	5.142584787736436	5.053340899106775	6.270791514776904	4.969028937191957
488	-1.9667816112452914	-2.738875620602704	-5.081058966205983	-0.718667326543236	-0.763164160708999	-1.3819032872596257	-3.1434874455241504	-5.246515260801674	-0.45391893272237305	0.6366040094515367	0.17296791032989955	-0.38601174853141074	-2.8767249511567674	1.0178116534285027	3.311354390367051	2.3083524645699196	1.0436731550569343	-0.7936615327824216	1.7676497653201333	3.8889582058948253	5.069595324114565	2.44724940635791	0.6494705064588469	1.653661723730179	4.17508934874236	5.734928593461371	3.72988580715704	0.3679459979781149	5.22253225915324	6.315754397658989	4.433151710761714	4.7600283502562535	5.947339042906775	4.481005180489528
492	-1.992330665326599	-2.951043836772353	-5.283632265102494	-0.6817913038206346	-1.096662041756341	-1.7914318993161806	-3.6288752464226874	-5.216167436781615	-0.4528336513530428	0.28168904710221904	-0.364438711676774	-0.9082116461711889	-3.031451456045662	0.9751262044128904	2.982428304771728	1.732751484310831	0.5371292815952339	-0.8507965781665814	1.6235930878655431	3.597679605937484	4.435960758453596	1.8974862050786927	0.46901836872894365	1.4587501250630426	3.733843078722977	5.135810362246948	3.2261900820340963	-0.007329280469688381	4.7774472116014355	5.898687347778145	3.9925339121152557	4.448955524656139	5.731317982508573	4.149076451316581
496	-2.090224737612094	-3.1107392232557576	-5.369580732140133	-0.6927814466151528	-1.3326854672163473	-1.9380197476094119	-3.7209451104633047	-4.962593542921095	-0.5961416348664996	0.0056099719226283176	-0.6844167692070724	-1.1373579473390185	-3.0618626994076013	0.7576104383414289	2.616524212906851	1.301115747981478	0.27933746505783275	-0.7956032136857225	1.2492616145064401	3.2522785581492597	3.9303281207989214	1.6373751122142919	0.4330693174395488	1.0922418805202474	3.229197732401869	4.700123298222441	3.029701702098053	-0.15554060002634224	4.313495148258641	5.631900773134333	3.84135912879027	4.127037514757234	5.60082577244985	3.994350423264844
500	-2.1760194246666016	-3.1438782135743115	-5.345604883049055	-0.7311590295451447	-1.397649284648765	-1.8594524813435418	-3.504591456148095	-4.624889838939731	-0.8106867054498559	-0.12618774143784578	-0.7676880340267399	-1.1002880307074523	-3.0104122085859633	0.4670635151991807	2.313977474092461	1.0766874524589327	0.2533798211376212	-0.7659973482819544	0.8403077700380033	2.9253580496362757	3.6393976119661895	1.6349036652295648	0.4411241997071913	0.6669158918708867	2.783940546636387	4.475491512443146	3.0682506483813414	-0.16201959509474692	3.8982894322201433	5.499657617035109	3.892505635924321	3.819615354431105	5.509834275639787	3.965513457776737
504	-2.186867946825491	-3.0278155727235427	-5.247610078914144	-0.7614462952462646	-1.2881083455942746	-1.6560423332364975	-3.152865640309433	-4.355065334768677	-1.028322336461658	-0.10700868043108486	-0.6620966775390295	-0.8957861639294584	-2.947065822790087	0.22471107485780709	2.144669527361109	1.0639077398141963	0.3799783279838995	-0.8549010732047414	0.5767741188745958	2.6828229359602878	3.574582806145334	1.7794990494622749	0.41231265560001706	0.3050050131726549	2.492359631921508	4.4319491274517615	3.193454495950364	-0.14883883259865197	3.5791771321530215	5.4360766273579895	3.990309943615011	3.542859545345911	5.399054036814255	3.9564757247215523
508	-2.112891430288631	-2.789473765006206	-5.117790209246791	-0.7549661378872897	-1.0667134496459798	-1.4308811390036444	-2.830600731378811	-4.242351521271514	-1.2119652002252994	0.011057137483754	-0.4508505452217277	-0.6400148852401969	-2.9328048155171325	0.10504183146659113	2.109737629332238	1.2084611623770904	0.5583839402406067	-1.0560854646722024	0.5178380595484501	2.543505423799824	3.6663005259455073	1.9351810168045063	0.31980264106116724	0.07225531321402673	2.3680262505825875	4.474921692040532	3.2506191648429024	-0.21471376662880592	3.3532509719110526	5.348401532974855	3.9801876444462314	3.28893303040779	5.2154679166722975	3.851867189219062
512	-1.993455404970671	-2.484729522153785	-4.980402457060702	-0.7047678810445762	-0.8277755954823942	-1.2421165673366745	-2.619258635583663	-4.27693461292004	-1.3513123954987867	0.1458751406562902	-0.21222555583777816	-0.41512453451251924	-2.9886541291120885	0.106780491499719	2.145067924805782	1.4226719105087458	0.7103002053447259	-1.270761129031932	0.5848540052906586	2.4720771250299673	3.7988893889835555	2.0010185191178356	0.19106802296082165	-0.041582763090051454	2.3431065023392295	4.491881359203523	3.148715011276333	-0.3913089921131598	3.1736378589612118	5.159977423037983	3.776700487138332	3.037098400077425	4.937068926744083	3.582542171969965
516	-1.8830238533161954	-2.1748416368888135	-4.831984030921751	-0.6283010824552877	-0.6556177122729471	-1.0948365899100587	-2.5032863553741453	-4.369978893690985	-1.4423484765830294	0.223847478062998	0.004341132462240254	-0.24959693786069592	-3.086419574574483	0.16902306633236727	2.160663599281177	1.6196088750002362	0.8023471812018071	-1.371593829506724	0.6303373559296083	2.4061820446299302	3.8648683927232246	1.9464111278982843	0.07751575837830046	-0.09499810612058833	2.3147079886169837	4.406433571180733	2.8934302256965	-0.6378855093109722	2.9845497532832175	4.849412905847229	3.3955609712701724	2.7783679892011155	4.587248790603368	3.161006442672302
520	-1.8125832035077738	-1.912028307855698	-4.653437602692118	-0.5558454380306767	-0.5944452866804748	-0.9685702299459527	-2.4157075820967253	-4.413449276271662	-1.4721161089923096	0.2106932545349223	0.1785668577215787	-0.133781328459575	-3.164964191075396	0.21676410679925798	2.0940475410997568	1.7415412620443762	0.840617833399342	-1.283525940515512	0.5428163395528298	2.3017327727378776	3.8121786021305453	1.8080381109365464	0.016654875087411772	-0.1445787992403432	2.2103767339212883	4.214286316722011	2.5710883075650224	-0.872197148981996	2.7637238432725124	4.4666795617818	2.937838546964995	2.5355565483926465	4.231172550962824	2.680007927803943
524	-1.771305914221425	-1.734101529511585	-4.43611096215805	-0.5112484084572992	-0.6385134442420956	-0.8538727738756726	-2.304371351146133	-4.343751896381714	-1.4223295414300203	0.1231675889958631	0.3056450776489594	-0.05117503913237496	-3.1624445835378117	0.20368730970455	1.9482223938391459	1.7737308695833445	0.8477793910556688	-1.0314978335086944	0.31502172271348144	2.168349975833426	3.6625029948271655	1.6568298298012818	0.011232019373728612	-0.21074427611072122	2.0326127954662905	3.9827227491914177	2.2966146411132264	-1.0172799799984484	2.5424640114489376	4.11444806013814	2.5370178158602705	2.358805412059115	3.9513440032379266	2.2732338847940836
