time	FP1	FPZ	FP2	F7	F3	FZ	F4	F8	FT7	FC3	FCZ	FC4	FT8	T7	C3	CZ	C4	T8	TP7	CP3	CPZ	CP4	TP8	P7	P3	PZ	P4	P8	PO3	POZ	PO4	O1	OZ	O2
-200	1.2302770583562515	0.4465285826376536	0.7626461367425639	0.3950607170621074	0.8504177310453455	0.46442127110528103	0.5469398484726252	0.37422487045219144	0.2247041905213529	0.39628276128852946	1.1439735860552258	0.3977158655615683	-0.11139745982178342	-0.2328314477287312	0.15435494443546366	0.9040365196291483	0.21016004628526908	-0.13985748553728228	-0.09625660603777911	0.20833127148004896	0.2546624832876268	-0.24213385520837294	-0.3611645391405611	-0.987050173174747	-0.5897855743776338	-0.5733108506033104	-0.8154956677828377	-0.5779392704677235	-0.9025933719734901	-0.8630909897947817	-1.0163309548467307	-1.4412810766070867	-1.1304526300499342	-0.9484703516855427
-196	1.1077117891954842	0.45637708787134873	1.0994008751768554	0.3106397680545924	0.4400961089943787	0.087445810216423	0.0029118219316995077	0.04430918384332263	0.1653170879481693	0.11027343543344699	0.7747849802482932	0.041937082900024195	-0.4239124943044034	-0.1134822067733452	-0.10082128618534635	0.601424990566051	-0.11421816767227061	-0.7314621191630624	0.26095327669062834	0.06975509953768765	0.0029970521497309013	-0.4952276038541169	-1.0756084891819326	-0.7313418369902093	-0.6520960314499292	-0.7620701770615534	-1.027707216529129	-1.07128989426028	-0.9161054468867326	-1.03197049834057	-1.1955856054637974	-1.3190592494086482	-1.0962123843172906	-0.9604454612324874
-192	0.8515331127602113	0.6670669300403662	1.425206061579618	0.44829407221144324	0.28954309151979796	0.03138534716788333	-0.13534548844498287	0.02445747138345365	0.18573826504542973	0.03145498029396638	0.6477389915324935	-0.06441735459991599	-0.39084249636200297	0.06676336361002987	-0.21434193795447462	0.43751984724207876	-0.24302463172113095	-1.1076576681781647	0.4550765145256333	0.03193584821505836	-0.16584640699476075	-0.604806660078845	-1.5803016384280295	-0.5528790340769845	-0.6739791018635825	-0.8371339419210164	-1.1881062954469752	-1.489345904404741	-0.8964074231403838	-1.130540368086822	-1.4376808368624534	-1.1151516409375646	-1.003205058426013	-0.9968997810943676
-188	0.6233835800644439	0.9816569065105072	1.643848891876292	0.7672466616332925	0.4673888075472211	0.33998864803306017	0.19002059054082823	0.30210313124676913	0.32653221405557503	0.21399895792814178	0.8210630992186715	0.13666927779977966	-0.027147613397244846	0.2616109245370972	-0.13179950382811928	0.4619266677161173	-0.12622982231695096	-1.1385625572068878	0.34508547099725795	0.08850432910031666	-0.21793903355410407	-0.539569734164756	-1.6859531360021667	-0.5419806824351887	-0.6761255843258144	-0.7826464156418056	-1.236765858388697	-1.655475135438247	-0.8892299510439422	-1.142274853683416	-1.630718584711872	-0.9327394342714936	-0.887061891700356	-1.0235470507528892
-184	0.5595588073908082	1.2311646907240055	1.6783057408875022	1.129804489144283	0.879798827334233	0.8594246484992593	0.8000142554111884	0.72033041533756	0.5788410291362537	0.5767253622752927	1.176637884983987	0.5344203101016767	0.46687504531287677	0.41761788620414586	0.10906343879581973	0.6131917818800318	0.15713353415394277	-0.8592540004016982	-0.03743514036621495	0.18865671706252118	-0.17701196625841	-0.34886222989694804	-1.3769639695688494	-0.6891924721483534	-0.6801655275338457	-0.6296157821017792	-1.1555690736205544	-1.5066981277572322	-0.9235327816534418	-1.073091385039423	-1.6804605679999818	-0.8400593378792066	-0.7762722353409738	-1.0080287431062172
-180	0.70054280581034	1.2604422537451794	1.4958915672681588	1.362737890617645	1.3161305155903589	1.3204203810733024	1.379464384410864	1.0572168800364725	0.8686296321872615	0.946584103101743	1.4891988001418068	0.9120118594985389	0.8156508186727963	0.49635103219600707	0.40126478570717966	0.7628776411822871	0.4473274338872389	-0.43642648944340184	-0.4933160232963516	0.27009832790846033	-0.10204207871423131	-0.13208433952362053	-0.8047829846090485	-0.8858590103671807	-0.6895504576439707	-0.43981525190890614	-0.9749876832187822	-1.1147847147452536	-0.9891118978323223	-0.9467816924986746	-1.5537501534334202	-0.8376994111845728	-0.6848484260434459	-0.9394198036317636
-176	0.9739595627036471	1.0093930934216813	1.1268106670540634	1.3411637510770829	1.5564489325327466	1.4844500981045408	1.6450086790514031	1.1375608415493217	1.0743255588110263	1.1509931058434113	1.5581392010450195	1.0676823827490023	0.8229044655050686	0.48432010289937116	0.6240182503204099	0.7969874123478466	0.5936043843541067	-0.07181995343910585	-0.7722536305957182	0.29455411359805816	-0.04956459986570614	0.0153053439767176	-0.20090028592885648	-0.9907006000301546	-0.6875148994253856	-0.2783419184809853	-0.7576315979902708	-0.6395316703862227	-1.0424659225847013	-0.7966490367803111	-1.2901902166217332	-0.870126602837016	-0.6155284627632618	-0.83358740596119
-172	1.2348324029263542	0.5476610646725866	0.6636931879453074	1.052583930219068	1.4841282330235663	1.2739710775635615	1.4905652962244773	0.9183077789009781	1.07614600386716	1.1079394789379513	1.3268212046502816	0.9280731058530992	0.4830717432223472	0.39008164307336607	0.701452849524473	0.6877849084655364	0.537420211865648	0.10348918262817645	-0.7257401924883609	0.2676411264337987	-0.04045454029955926	0.05227234201346798	0.24162727533370587	-0.9183115339935896	-0.6499620659630685	-0.18459248496180522	-0.5649299011272475	-0.241767212138124	-1.0329648230222026	-0.6528598649707974	-0.9749164556684554	-0.8661177732534789	-0.5648402557417316	-0.7200735193192267
-168	1.3368945088011794	0.04280517239492187	0.2361813181636177	0.604785679243937	1.142732021307689	0.8147559741430427	1.03494357801446	0.5047801720272493	0.8156619051366966	0.864176092350178	0.9200218296664565	0.5909860715250239	-0.014202341401482318	0.23258005023886452	0.6343857629971763	0.5143303858169191	0.344561158740815	0.08619646706276272	-0.403484164649788	0.23289331734985186	-0.04823508473973507	0.013600571046704148	0.4531214225772919	-0.6945165378201837	-0.5625253901584343	-0.1540732081814829	-0.4234229613580991	-0.004499925289117716	-0.9304598546378142	-0.5282168375030506	-0.6876329762263875	-0.7791116814016149	-0.5227771984252927	-0.6176485999725696
-164	1.1974717348383077	-0.323214917558976	-0.03813656409887053	0.1713712360108488	0.7050446254095697	0.36547988560908184	0.5491262064421113	0.09103209502363362	0.3339206865939888	0.561181424631432	0.5752732143182961	0.27264758875674516	-0.3898800601652446	0.029399480596463985	0.4903016674060587	0.41865187777677637	0.1685934956585556	-0.017521472603548676	-0.03223687402215586	0.2444911741998044	-0.014387102761303507	-0.009448703354583267	0.49795383089229306	-0.442929087951078	-0.4299979199043498	-0.1393811103162789	-0.3098723880573691	0.09666068827543306	-0.7372224312289023	-0.40842711822388655	-0.4577634621030016	-0.6034341439270673	-0.46743160368206177	-0.5150872455943661
-160	0.8266762474169325	-0.4448727656099738	-0.10828024866660965	-0.09706462150147546	0.37147530819564467	0.17188490883822624	0.3047528259212469	-0.14297911488673887	-0.23673446416689797	0.34932988793867503	0.5044760691303731	0.18668770742965982	-0.43033119927477	-0.2075250888591748	0.35886356143946135	0.5206224309174577	0.16441653627369276	-0.06793097389474825	0.1153646406598889	0.33353921686838944	0.11663626850005832	0.07964172194162036	0.5123955594477502	-0.30928161662216935	-0.27276176145352415	-0.0721543578471933	-0.16547378855888817	0.16138416487956198	-0.47992455838150766	-0.25442996556894504	-0.25223094161247617	-0.36239480880794145	-0.36239698437747025	-0.37149849440240373
-156	0.3159713737139677	-0.3436921528245062	-0.017286142290698688	-0.14768543802167663	0.25786521965725673	0.3293888858585128	0.42949482690139335	-0.11916784912063126	-0.7265165429846002	0.30257993860144605	0.7670593242352364	0.4234197427072893	-0.10139088307054309	-0.46609002234084446	0.30070593877211677	0.8418256023133764	0.4005624641795644	0.021434960832717977	-0.11714652896153097	0.48770040150533867	0.36291897205277285	0.32745438731488924	0.6101492031905089	-0.37008708622000835	-0.11347074778041606	0.10358920667243761	0.06806270760994987	0.29357242510108605	-0.18954183113403986	-0.01877593989400156	-0.002299427514678236	-0.08283909389323406	-0.16421870845818273	-0.13771817053356641
-152	-0.20013274201886044	-0.14991982243356922	0.11641360044890084	-0.04506115603991041	0.33782827768863055	0.7326902132609139	0.8470267036033454	0.11160235078768153	-1.0023531888450339	0.38345172904477115	1.230576631300136	0.8978940821866181	0.44092655070561515	-0.723219452462529	0.31850379625014597	1.2842905488967602	0.8192067721664734	0.2352280759832928	-0.672618625850019	0.6554260237358334	0.6908828598699157	0.7016609293388585	0.812387762402806	-0.5826968535970386	0.03570642313286859	0.40260144966521544	0.41047325626689257	0.5344566093302532	0.11480265826804299	0.32870605504968986	0.34681904228385096	0.2223393613446987	0.15846568306014822	0.2119399452818968
-148	-0.5903940185899648	-0.024472515968286004	0.163344174211085	0.0758960394135216	0.47302287697574547	1.1408266992376095	1.3293621506506412	0.4118136455152174	-1.0227512095378575	0.478553472741201	1.6447013575037173	1.396501656821157	0.945003328321646	-0.9378871297998788	0.36660319474168274	1.6796640115292145	1.266405221602744	0.47224861264206797	-1.3026932445061208	0.7744743804451528	1.0307199928963393	1.1050535412545026	1.0409513685647827	-0.8063800910617728	0.17859502091616397	0.7893902043439565	0.8259182551512376	0.8390104749477422	0.42874863635533417	0.7791299204228702	0.7954122404043443	0.552164195573998	0.6026583894772741	0.6573700888249192
-144	-0.7624581436934169	-0.06675515307023279	0.05971631020131783	0.09482623612781242	0.5101516233915564	1.3191190924718517	1.6284229714287883	0.6404914839786175	-0.8452572801230106	0.4801503407753468	1.786319728155992	1.6955043034661503	1.2051316469283433	-1.055590746121816	0.3906915177971681	1.8813834142868286	1.5752588470741844	0.6115322097597405	-1.6971279339857328	0.8085564354509619	1.311920162703345	1.4247890674858223	1.1734055251059783	-0.8817659594207886	0.32978027975744223	1.1930801838316343	1.236492988325604	1.1060789795606294	0.7518321256729124	1.2778019872828934	1.2805942264649914	0.8995739198860818	1.1185303898227719	1.1330596179965382
-140	-0.6840345246210928	-0.2587988370083389	-0.148266732318381	-0.021229712238952123	0.3831361820561269	1.1732809513987124	1.6087386567507032	0.7269476037745275	-0.5845379814648572	0.3604361107786002	1.5893074233936955	1.681883211657889	1.1663080424426233	-1.02577161529958	0.36958837415843176	1.844989891162466	1.6530464845883608	0.5853195175651791	-1.6449252325489283	0.7689864616052488	1.4964938125974487	1.5878900249445154	1.1234863968140432	-0.7221108656771505	0.5011013733610004	1.5360432824454109	1.5567667444978865	1.2398532597709775	1.0705471011789642	1.7359260276835533	1.7023370222980816	1.232380387055775	1.6153116185413592	1.5499120911567335
-136	-0.3894732286633574	-0.47706225393965285	-0.3202723256608115	-0.19978065738306114	0.1581765707313951	0.800018606550246	1.3105159964852715	0.6955539566598802	-0.3454012266021584	0.19286259960118826	1.184020873895095	1.4099386894868169	0.9380128956000373	-0.826849696932791	0.33307450925657134	1.6514838892248742	1.52547943206925	0.4187350262560281	-1.1408932180210107	0.7093601804943466	1.5924993713226483	1.5941648443027574	0.8993086792175009	-0.36350604800000585	0.6892417651894582	1.7634329751314999	1.7320307449480266	1.207448360255624	1.3500320877322438	2.059735531374985	1.9711457441154374	1.4908934793977822	1.9877961823821149	1.8289900971965138
-132	0.02815634191378012	-0.5655786380793449	-0.2972216002589565	-0.3099080614371771	-0.007073113211267844	0.42638543140524604	0.9146152711664653	0.6336744411682228	-0.1739340122123023	0.10564320507795352	0.821766016792733	1.0634353134008994	0.7164033633264483	-0.48761576290997133	0.34198382410491185	1.4580974542044	1.3142428364950882	0.21577466969848458	-0.38478663466579044	0.6929742676405144	1.6381460386878703	1.5076383314215454	0.6044499262807649	0.052304759489563354	0.8691073038092856	1.8565462780809208	1.7574825242493066	1.0570360395446805	1.5382492503429785	2.1816184465640864	2.045839781364292	1.6044949252626994	2.1500036662178807	1.92660271635009
-128	0.43958341964363756	-0.4276728321244993	0.0026430077784089104	-0.2464791381096565	0.033925492230830814	0.27374574472931434	0.6328344925161686	0.6269647463227974	-0.05195742832417289	0.1952344621259082	0.7260185461787592	0.8449977018956691	0.6634207947193717	-0.09128952003318799	0.4411804664917172	1.4019683564075747	1.1599298686306017	0.10108329330195627	0.31991729059510327	0.7495810966640082	1.6644633966383933	1.4102227652230992	0.38161551856013404	0.34997004182194646	0.9958555673251839	1.8230173541772308	1.6667517381548325	0.8854547716673347	1.5801989992299856	2.0777091927523355	1.9395170162823894	1.518716927508687	2.060041899248357	1.8379198266356385
-124	0.7178004365918114	-0.08455580451597879	0.5215641246978866	-0.0020620529487821305	0.31358566801053367	0.42408040058831176	0.5848949536815159	0.7019590717712723	0.06585782004656603	0.45279115324142527	0.9554148888307903	0.8548052289361846	0.8131380060646997	0.24446630416183465	0.6147363766408415	1.5113294086445872	1.1333857746119258	0.14902079067753066	0.7073294502519761	0.8466464259706385	1.6597551065501828	1.3437614406991254	0.33014854705425717	0.4056907583961242	1.0152574751970362	1.6729543166837892	1.4979950151769716	0.7749716023906138	1.435059901429007	1.7654088691008154	1.693554277912602	1.2161484926036534	1.725179191048394	1.5809544284959616
-120	0.7810210565875291	0.33226475035701974	1.0711359950678583	0.3186147800984376	0.7117374521405662	0.7664827685077796	0.732636151848239	0.8095409253662313	0.20087221214123813	0.7511527519334776	1.3590841259021385	1.0295696232550788	1.0567735406897525	0.40894329444633826	0.7750775794487569	1.6777046876511048	1.188524243215085	0.341301857563436	0.660188613655297	0.8955258108417369	1.561322446695857	1.2769179311938168	0.4470383215584858	0.20248925634758946	0.881397721926296	1.400159832280366	1.2627372709818168	0.7404420357129611	1.0910215350261971	1.2872006860659266	1.341442581604638	0.7237482648696412	1.1907100647427695	1.1777453392811175
-116	0.6249675734953507	0.6499696357529359	1.4141352140962777	0.5523586259247645	1.0095736954948946	1.0555208894783155	0.9061539150248034	0.85729044459382	0.3244028679286727	0.9048958993953502	1.6525263744593637	1.1776242226432396	1.208271500397894	0.34695687802454606	0.7992834428634426	1.7089153485067536	1.186236974582249	0.5758283123736879	0.24558155176625007	0.7955039123477774	1.2858359781225948	1.120849725754416	0.6267777665526091	-0.16708321827188863	0.5791724309603681	0.9862795447243916	0.9418879127563915	0.7213334422973079	0.5766697511418577	0.6963885408939181	0.8933746196125795	0.10952109070783031	0.52686464653509	0.6518765075437758
-112	0.32561311043545904	0.7434605341260554	1.3779722417373241	0.5668464288705166	1.0046516631510594	1.044766304239355	0.900568304172359	0.7654231767402828	0.37281250859548204	0.7689517717020771	1.5698153932991703	1.0870332690450557	1.106007096359212	0.08887605346651987	0.5942262396114784	1.4331241809901687	0.9740846132480703	0.7164893132239973	-0.33232316290875213	0.49215859050470295	0.7816658000284367	0.7844797353011784	0.7169466596622043	-0.5479238615507378	0.14034792745441715	0.42482903492480056	0.5099906312464245	0.6208903773844289	-0.03768011173033302	0.05003581928494947	0.3495112946745909	-0.5311758504808093	-0.18230308546292384	0.04138777022045138
-108	0.00502503196371482	0.5961026534289149	0.9411823129733219	0.3371189824175942	0.624862967344034	0.6235181673520069	0.5906839355814203	0.5134918080716914	0.2950348548592803	0.3230434349963902	1.0108597253073217	0.6486482007816017	0.6979200226329103	-0.2539708607937217	0.1576985414815034	0.8004088381586053	0.4804262804776378	0.6608601791862858	-0.8293211439175179	0.019424062173201313	0.07657768558003258	0.2410135114068421	0.5993126615651891	-0.7896097282501099	-0.3538595727092669	-0.2479433709083507	-0.025348093296664678	0.370788305061698	-0.6482045634116586	-0.5879046306072057	-0.2663982205817579	-1.0914269658189357	-0.8439843633324011	-0.5830602035106721
-104	-0.22312413099699135	0.3030669383503538	0.2453486317162171	-0.03343692413471135	-0.020573180116924824	-0.11498646409090504	0.0057554729137544265	0.15585768183458557	0.10092527393847507	-0.3038519613223861	0.10541701290218258	-0.0711262820355418	0.06952878070204688	-0.5298868404361512	-0.3995748152181298	-0.07191859912596008	-0.2270364755620419	0.3929016878221818	-1.0573204729088306	-0.4987359928413833	-0.7066591960231691	-0.4309975493993541	0.2549390786410087	-0.8007308224488691	-0.7882011512883342	-0.9354369020686383	-0.593903242042256	-0.015633303632604973	-1.135601636880501	-1.139897343618618	-0.8772638417983358	-1.4692447148421495	-1.3607883419012539	-1.1135748596686572
-100	-0.30484753770155587	0.014572320469185104	-0.46720901013671007	-0.3632983854181327	-0.6857837421268999	-0.9120860672810969	-0.6764554364291686	-0.2025138879669807	-0.12699203161125308	-0.88648998513518	-0.842712042588238	-0.8502187111369429	-0.5956553801756497	-0.6106111987909966	-0.8904881454873292	-0.9392726397641846	-0.9549750065534585	-0.00655428132250137	-0.9452106332756514	-0.8951435066511128	-1.3837469781271632	-1.0618449422730176	-0.22267049494791236	-0.573453782541121	-1.0485540601959782	-1.4971275291791006	-1.0694429847419327	-0.435724108311142	-1.3957560027168996	-1.5204287729023143	-1.35657477036343	-1.58937978343227	-1.6466336208731673	-1.4302370512138276
-96	-0.2670490734987395	-0.14685438536283274	-0.9580504274021696	-0.4865867781274893	-1.105018374514174	-1.4666168652699267	-1.212386366644219	-0.45410552506237134	-0.2729672484658685	-1.2065930336052568	-1.5000766477858516	-1.4136229717803714	-1.096528884980249	-0.4511158156926308	-1.1325715751663494	-1.5360804757436568	-1.466639515034884	-0.39367204805163636	-0.5527212009780178	-1.0352020237535537	-1.7792620613952463	-1.4580973349951107	-0.6717601997581312	-0.17762494042373253	-1.0655860873975445	-1.797060246698821	-1.3154674735235514	-0.7419727425915732	-1.3750958407970155	-1.6581048923590977	-1.5722129305245625	-1.4277908765984217	-1.6535521703933584	-1.4494587146403342
-92	-0.1949022109356078	-0.14701624177531167	-1.0898443432948552	-0.3403238645544306	-1.1199973793362799	-1.5766875704058432	-1.407705422662011	-0.5345350490425796	-0.25545999343270803	-1.152902719447904	-1.6599677759222045	-1.5648082455228107	-1.2953118053157726	-0.11336327315557679	-1.0333298418658854	-1.6948137240535261	-1.591253634249988	-0.6243384464713349	-0.03842467432453587	-0.8823112227098172	-1.8005258991558912	-1.4908809624224109	-0.9384299492984778	0.26793321899478306	-0.84692030931269	-1.7621505215977504	-1.2486910788480905	-0.8145364502368891	-1.0962097617129272	-1.5265654286943158	-1.450067516480533	-1.030317542335832	-1.3981469834313829	-1.1708893746377826
-88	-0.1791156972892848	-0.04962282242763381	-0.8688830711362067	0.0008709444060352856	-0.7546915392895028	-1.2317036359207039	-1.2107279270121756	-0.4471511531507607	-0.08227959254472067	-0.7702723722083864	-1.333674546689253	-1.2807298866361578	-1.1653898924968213	0.25979772144528535	-0.6375606043931218	-1.4201785290147968	-1.307021614589492	-0.6162261947332409	0.4050855924392476	-0.5188574777854698	-1.4790604077189786	-1.1609128684297556	-0.9455431675880137	0.6359726770556697	-0.47974002240174896	-1.4206771814717287	-0.8866072274711572	-0.6226349457279552	-0.6581579430175711	-1.1670509547332282	-1.0215425465541539	-0.5105010854229922	-0.9695615147907094	-0.6931713205956443
-84	-0.264234959412064	0.02844113290579791	-0.4242670227306323	0.36112865714449693	-0.20102596232204809	-0.6123797878063066	-0.7396101932925758	-0.25890690022904383	0.14494019710186515	-0.23580680728027828	-0.7346411328841316	-0.7236713748780751	-0.7921410182980403	0.5106971847038081	-0.11126366229576168	-0.8833854176152472	-0.7559856157289541	-0.3826788654202423	0.6263093932551466	-0.11004776479831653	-0.9581972932465254	-0.605786441227189	-0.7209940534508137	0.8318752625443396	-0.09776938681952031	-0.897718665717487	-0.35092443139168045	-0.2415075147014933	-0.20398078807352188	-0.6849010569446498	-0.42370700729205907	-0.016670146914951757	-0.505001901305254	-0.18148769392445516
-80	-0.42498865616310605	-0.011843590035934716	0.05745635167159086	0.5516616092105209	0.27451381017995086	-0.0024987023726349453	-0.22998349310506985	-0.07188734394043489	0.28707450555801295	0.22355998996081095	-0.16914147095891466	-0.16462396043698743	-0.331814765092424	0.5439485893821244	0.3323433986856023	-0.34122076544442387	-0.18161934568327043	-0.024386858506024584	0.5762010202165274	0.17337243215180764	-0.43184730301544905	-0.04260155547830262	-0.3745377948364722	0.8268060067282809	0.1760844583834019	-0.3655625572511766	0.17959955289318863	0.18456940306317424	0.13553804124944363	-0.2150776380830798	0.15425468942320456	0.324318199530983	-0.1366083320506507	0.203138097607815
-76	-0.5850430712234087	-0.19549076209779528	0.40763288633425976	0.46445983531035334	0.4541828024841275	0.3411142221421568	0.07167608272814249	0.015674808954360495	0.25176513131473255	0.43047350536381196	0.10773228826741175	0.1425778266168017	0.050094991795900844	0.3740966906639256	0.5284973369606554	-0.021231099909584796	0.18039299502127418	0.3178306511960746	0.3328632405936984	0.23437191486790068	-0.06402066333819552	0.32667827523722837	-0.03975411494470116	0.6720188243111586	0.2847003929579584	0.027403857489777594	0.5447258339480332	0.5117785917712377	0.2975196830867256	0.13024352458018618	0.5528333769192019	0.4627204823732317	0.0662358550545189	0.37736478352638675
-72	-0.6656508428933677	-0.4608429956721919	0.5266730772072656	0.12448726563018077	0.26388087802066973	0.2997088126721868	0.021331207772877468	-0.05424325154437677	0.054807070504335184	0.3288646630090368	0.0015301420314720651	0.07661509494511529	0.23768253564430167	0.11865722358071029	0.43264633307896816	-0.026612009785935753	0.20692980237214476	0.52693694696902	0.07297800462894252	0.09160444117306367	0.0738753674549316	0.40206840532833493	0.1875858600171902	0.4842093872719804	0.26096901231680936	0.21529024785045683	0.6699521524680793	0.6617416126709988	0.31410893718569566	0.3072791389813511	0.7103313189692201	0.4510162163314626	0.12861089375926546	0.3721837093970116
-68	-0.6350456460178187	-0.6944025141350163	0.39769703049386684	-0.3244814268502883	-0.20189490863371223	-0.06415781362547741	-0.3566851308877104	-0.2783065431244004	-0.18140980555509156	-0.0009850037724987756	-0.3946334709694361	-0.3016844980252461	0.1986022735588268	-0.06146958827353994	0.13409578766345484	-0.3030783228374772	-0.06336212887263785	0.5575839267004512	-0.008958604164154999	-0.13664729858707422	0.019714098373946092	0.22148546520580234	0.282657741786663	0.3994615365910202	0.2065911883860307	0.23211002291251367	0.5905002340666864	0.6473678334104142	0.2933171384081576	0.35473987370573207	0.6807674748399126	0.41913908614194034	0.15525339504621713	0.31113669197683025
-64	-0.5296252356508925	-0.7906527499264011	0.07191152107441086	-0.6915904862109026	-0.7319036703704436	-0.5470005260008534	-0.8812349416418254	-0.5918578490573078	-0.297248928988517	-0.3870916356804024	-0.861918387621076	-0.7869451026121537	-0.016678981440872254	-0.04679296526419669	-0.1943620587448558	-0.6801129562372866	-0.4591413724751178	0.4474751639989417	0.19738230059380543	-0.29879915638824384	-0.11469799996266225	-0.0708968116043165	0.2835431091779213	0.5081482516810688	0.23295822680784836	0.17895807280657428	0.4197327484024044	0.5481602535713201	0.3575947275670087	0.36488884595298127	0.5904183968896164	0.5039628135355081	0.26902851394441024	0.3363169721218438
-60	-0.433590500452149	-0.7046531421036732	-0.356358408028199	-0.8303318002717778	-1.0968302460634725	-0.9043978429848645	-1.2977807489054254	-0.8902119971687821	-0.19384692560368505	-0.6460589750190959	-1.1697990864783039	-1.132480618478652	-0.3040516964865242	0.17571771100502487	-0.3836002936214987	-0.9617347693003687	-0.7662626485551799	0.2886844866139762	0.6466560943489482	-0.2903500191987299	-0.20927213079545307	-0.3047139934952738	0.25351247127423393	0.8013661483559259	0.39561331172242487	0.16054932732578442	0.2810243063030398	0.453521280335758	0.5711120948677424	0.4259956468317215	0.5579174146871276	0.7682089190161169	0.5340127335417316	0.5218531476196728
-56	-0.4298125494595664	-0.47169157743572593	-0.7746923546305461	-0.7052113396005856	-1.1494761676377077	-0.9647890901048827	-1.3989082539525322	-1.0672601434464795	0.09945086364671116	-0.6632472259942239	-1.1863497465698793	-1.1702177495021493	-0.5536836371747761	0.5031453954391222	-0.3487427523867974	-1.0220879290524716	-0.8347820022487623	0.1746195401312945	1.140242931348153	-0.10695868703540572	-0.19756501863190307	-0.3710136404207025	0.23818090497917166	1.1600757808006434	0.6583582146235109	0.22563567700638973	0.2398482555055864	0.40785464541458666	0.8951726533223343	0.5667923674578418	0.6227555259240314	1.1534807652914765	0.9057393051167926	0.8231385329445106
-52	-0.5516319857021422	-0.18777288449086196	-1.0786993476336015	-0.4030199636774492	-0.8848477579664746	-0.7074180227538887	-1.1267552347345622	-1.059676644510853	0.4293136287817336	-0.44092857726353235	-0.9354271865115644	-0.8905063845085844	-0.6970215422198346	0.767213044613724	-0.12580475179380848	-0.8617697336373814	-0.6508044584055522	0.14899688921503607	1.4122225010502647	0.15557613929569983	-0.09553175395449566	-0.2728505723740153	0.24171228645810214	1.4010962212474232	0.907374677751366	0.3426766088893871	0.2727592580584499	0.38858520886541326	1.1984690397521718	0.7340522985998822	0.7226232868069908	1.497623559031669	1.2397772042444362	1.0920124026384415
-48	-0.759744999874736	0.0356023906762564	-1.1970655887898336	-0.08746293910117209	-0.4365946341458887	-0.2691693895219812	-0.6054761394472719	-0.877952037025175	0.5960560425968182	-0.09551714336598198	-0.5775176272116469	-0.4432531286015813	-0.7291851025291017	0.8187881091426281	0.1510077860119076	-0.6004638060668298	-0.3374512485090557	0.18351355148712753	1.2651436296946132	0.3517464986503471	0.01443461790761785	-0.11449770600498084	0.23080582858463733	1.364727851283092	1.0091117594990517	0.4218751777488019	0.28812378572198977	0.32630678928960366	1.319889542108273	0.8170623162621586	0.7310684304853149	1.6115359027229499	1.3579088415194247	1.150790569260976
-44	-0.9577053761144361	0.11978441446579242	-1.1096285553573317	0.07982373962514366	-0.013924791442463882	0.12363883076684816	-0.08321726301163733	-0.6049752816184888	0.4645442354871422	0.1955554629395356	-0.3252395979299171	-0.05912689477178332	-0.6985387784487614	0.6054131969425479	0.318827240854203	-0.41048496857956135	-0.08430741706066566	0.19993996569698233	0.6867200118846679	0.36041086821160156	0.034878820092832385	-0.035796239881737746	0.16323454636845863	1.0029703353354802	0.8829901792167395	0.37210518027771833	0.1877371664075705	0.15505483707381043	1.1548188895633054	0.7104586940947835	0.5367800579823766	1.3803890908675747	1.142799255346826	0.8888324476689387
-40	-1.0374168131385257	0.046808391691283674	-0.858314094760608	0.012767301840138289	0.1908947373577359	0.2650219791396912	0.1887447829249545	-0.360530137105496	0.04311183829151699	0.27370932629144856	-0.3370377114846481	0.06812342984166149	-0.6715346557828705	0.19887146303511402	0.2660506658989501	-0.42639699470630327	-0.04426993418483713	0.12148508398855247	-0.12263955144913107	0.14384406768721317	-0.08909072704471704	-0.129369616181857	0.020594865031697423	0.4180074621614142	0.5481278286446442	0.15990227420489764	-0.06662499142753316	-0.13870136404781536	0.7180567365636984	0.38195130132562843	0.12017664282974659	0.8340471961898265	0.6115114673434111	0.3313547066428867
-36	-0.9292598939322256	-0.1421752270446828	-0.5368191586292506	-0.2642931335452179	0.08586502053516479	0.0704070625911754	0.08182405659759426	-0.2454089814188998	-0.512372850078148	0.07282386701794252	-0.6389293654522881	-0.1197405454473485	-0.6882765275744026	-0.23988948701850565	-0.01426536772523772	-0.6745244247572556	-0.2503274076817353	-0.07549297790540685	-0.8317915776232863	-0.23535165131276137	-0.33472117697130127	-0.3842518319918935	-0.17452017918870477	-0.17327350334289146	0.11993160068511304	-0.16116757650215624	-0.41889518393613523	-0.4964317070825069	0.1492194678592266	-0.09208064503071375	-0.41569277539205074	0.14653323553759376	-0.07434565555160266	-0.35740885048274595
-32	-0.6345047934724923	-0.368921576999013	-0.25729450518497327	-0.6323459728488229	-0.28233405876402745	-0.38054615163091865	-0.3446219852806547	-0.2911747686664047	-0.9725375746968309	-0.3461356452309041	-1.1116666765756356	-0.5168265091245208	-0.735522029927043	-0.5372074232843371	-0.42162471903208804	-1.0578321191782907	-0.5968043193054393	-0.33833292041234725	-1.1337395877824192	-0.6453053338924587	-0.6072002633976918	-0.6867421252078237	-0.3646332612368297	-0.5362631665041895	-0.2420868569460862	-0.46752244116047015	-0.7364789228918512	-0.8080068806275202	-0.345138221107751	-0.5464838133366001	-0.8792481996271881	-0.43839818128527136	-0.6722185594752966	-0.9411831474383467
-28	-0.22884359898010204	-0.5482535944448027	-0.11024031760277729	-0.9355166530831464	-0.7529315929476633	-0.8840067960354618	-0.8745660163733234	-0.44437608010631446	-1.1476502389542684	-0.8188680985757147	-1.5521194895657722	-0.9116432047715338	-0.7550397496234015	-0.5870113357982123	-0.7971086481950137	-1.4066287243615068	-0.8977526403649232	-0.5596265182671021	-0.8961036778713752	-0.9476972794447578	-0.7858920077509208	-0.8808464385681603	-0.4845894860907534	-0.5313178287443058	-0.41026261345278814	-0.6244440659016102	-0.8749807454906235	-0.962931451750503	-0.587702928489795	-0.7999488095113902	-1.0775667401764393	-0.722066281402971	-0.969307956632475	-1.2176719873202662
-24	0.164704039277041	-0.6153839811046911	-0.13446074690249313	-1.0506916019615165	-1.125948664683498	-1.2157360284628491	-1.2486230103439289	-0.5958400353646975	-0.9768995021951259	-1.1505387992420804	-1.778274054805944	-1.1023378344361028	-0.6805173737510666	-0.39294436474773325	-0.9972562168692245	-1.5689895113432477	-0.9908062790650745	-0.6319967492359656	-0.22353054526636626	-1.0585780117011268	-0.7867943028612526	-0.8548346736306293	-0.4923574912038162	-0.1801331634741931	-0.3467267444916493	-0.5559258446962757	-0.7551816086776088	-0.903281924828197	-0.5136813508415985	-0.7442866545005565	-0.9122250057077175	-0.6437871439892178	-0.8830303527472168	-1.1096059055923742
-20	0.4207733262882659	-0.5425695763240828	-0.31198254148870225	-0.9389588213102346	-1.2559913365124593	-1.248954292958754	-1.3052625623173217	-0.6435804350816585	-0.5471279607310614	-1.2073446481739767	-1.7264831022542084	-1.0108436320532728	-0.4823586928586995	-0.05505792037652937	-0.9588428711524577	-1.495619770088669	-0.8328451493216761	-0.5074157105986287	0.5999984130015986	-0.9800636147550389	-0.6107881053762433	-0.6094998105873206	-0.3880352368094593	0.34866565377897507	-0.11540895671316752	-0.2901709668462767	-0.4122236956679144	-0.6513262970692433	-0.19918923029677052	-0.40513181584115415	-0.43432077655809326	-0.30371662897676527	-0.49925082795933096	-0.6960821134159014
-16	0.4527221310629496	-0.34786370308786935	-0.5892360195541921	-0.6608765704635576	-1.1256357402992172	-1.0282686922814956	-1.0764923068524306	-0.55725759127113	-0.04111220304718929	-0.9865288709528576	-1.4930603466484758	-0.7362753134258125	-0.19731594572317676	0.28338920998549977	-0.7280332427717255	-1.2759357658596875	-0.5366114364427328	-0.23113530815896263	1.2521282402850302	-0.7937616089807469	-0.3542392542955275	-0.27209564974751854	-0.21530739908694765	0.8235728719898923	0.1526914831121107	0.04240985576531806	0.008856574051073176	-0.30125233454939326	0.17701032713068282	0.05894921705144677	0.16945533411634822	0.09316635853371753	-0.028866277934746186	-0.17097251074063052
-12	0.23579047560765107	-0.0967755985796893	-0.9077889896361537	-0.3506258717267543	-0.8611605741693149	-0.7568009476627782	-0.7814370374023664	-0.40541738169355207	0.34930288703465995	-0.6285361631736883	-1.2947858539316026	-0.5140271173850676	0.0768531707969083	0.4982987033660927	-0.44202595837572145	-1.1024547787488568	-0.32363131560632563	0.06969497335242227	1.5183478555491696	-0.6224793180008396	-0.1731533552804888	-0.044388659186349363	-0.04511980328493103	1.0584953996636766	0.320707886601408	0.2608309381575357	0.3128032080382202	0.02046566637653751	0.41855996741476476	0.42332881582191406	0.6562100036265848	0.34238642367703076	0.2973780624510969	0.25012078818114303
-8	-0.19180186044428232	0.10680623325561636	-1.2278854815953217	-0.16396915871229942	-0.6800883991237011	-0.6978844386600693	-0.7156587225011494	-0.3268188527915762	0.4976985441993646	-0.36105489639677363	-1.363438841238434	-0.5971133097831748	0.2205845857057804	0.5245063887705057	-0.27252381971218154	-1.1767760485502274	-0.4137588132902288	0.24040755568842417	1.3670028413591355	-0.5797581061984525	-0.21470634585055012	-0.10781066092451293	0.05075940476953464	0.9887185667824426	0.30175575537789523	0.21312916225029171	0.34212908062386277	0.20759497530499751	0.4003127505209084	0.5003788458588573	0.8356511571766827	0.33849152837169416	0.3422409585418237	0.42869156490810584
-4	-0.7503007035385647	0.14468914233870503	-1.529109474136196	-0.22230783048769215	-0.7934552411073749	-1.040681001896764	-1.09372245989273	-0.45852056029902716	0.3691656282164297	-0.3993292440822752	-1.8269927455551334	-1.1207673521355443	0.14490845762860238	0.3588028541089109	-0.357491164496973	-1.6042920310523963	-0.9084181762648141	0.16780659514021762	0.9214801169018494	-0.7301967125576756	-0.5485406504133162	-0.533343850219751	0.023628890454716566	0.678095756249246	0.08324168601477239	-0.15498411616296298	0.04972154634558409	0.2131873065811233	0.11676922411047475	0.22693236114904336	0.6539248807609551	0.11540096969078778	0.12309882013712711	0.35750859885552577
0	-1.3502371277097533	-0.07528178374833966	-1.789518113386564	-0.5699480757628627	-1.3038780656319746	-1.796573038333657	-1.926371211910367	-0.8559536912288173	0.0003954398261178167	-0.8455914833654224	-2.6363916330532238	-2.020395035411078	-0.16840270119111128	0.038163281880823643	-0.7470943312856126	-2.3306441248224763	-1.7279890732053012	-0.17006984310126982	0.36274009851425354	-1.0714000436435467	-1.1294066877460565	-1.240741488185178	-0.13830365205655568	0.2653312974429721	-0.2837199859608457	-0.7737724165454054	-0.4793713378724216	0.05970275759524624	-0.3286728254603115	-0.30774333995368985	0.2116644824167628	-0.18791216564418922	-0.21031106955358744	0.14502710067372823
4	-1.9184590529642789	-0.5731654152704257	-1.9681147287269718	-1.1572358579028452	-2.147044176402965	-2.7807826925641597	-2.9989015980345806	-1.450036998902485	-0.5390610085228824	-1.6344363648157056	-3.575852146657266	-3.047618858272299	-0.6584833843772232	-0.3860155632286667	-1.3827363217729034	-3.153543464328107	-2.637384884851253	-0.695469139250579	-0.16771542983626384	-1.5380935630112182	-1.80871605416451	-2.027949328070838	-0.4076679636676215	-0.1112949696353509	-0.71500313101492	-1.4763343296924138	-1.066871044326368	-0.1794287110805325	-0.7812021354978995	-0.9074990130400535	-0.2916905574586663	-0.4125330437735177	-0.46784797192708905	-0.057392097864685215
8	-2.407549613596204	-1.2658107248772552	-2.01313757388155	-1.8537052822995193	-3.1062986772312025	-3.6902849581054116	-3.9618401427377936	-2.0670170731809416	-1.1736972302367725	-2.5510706837141948	-4.353513706659801	-3.877243270621668	-1.2086456983568492	-0.8601496793964766	-2.114931101227695	-3.8066005610679685	-3.347629777085767	-1.2631586758193147	-0.6081901177309775	-2.0232598730503293	-2.3911161362359614	-2.6562597684553317	-0.7257193308627421	-0.3674080064557305	-1.1237890691994485	-2.0661418385792696	-1.5211811027267697	-0.4150431741726062	-1.1054992647870077	-1.364583727252389	-0.6584156735009292	-0.466489820494666	-0.5285805450445518	-0.1443869765927791
12	-2.790343754399151	-1.9733064124830901	-1.897179121949585	-2.487698548711841	-3.8967018029059144	-4.239730347419489	-4.48977326213243	-2.503268950817915	-1.8243141128256903	-3.3153326427678955	-4.729478347281627	-4.253179539432653	-1.6880425172148479	-1.3253140416062963	-2.753024332725185	-4.07627915306898	-3.6443695930022204	-1.717364426091623	-0.9522349810400517	-2.4089984832977462	-2.712109558887445	-2.9512047693128403	-1.0172107194013944	-0.4822019922479806	-1.4381434881140318	-2.3944256245241142	-1.7197380022498758	-0.5773978814805955	-1.2347079484283774	-1.5551090201215787	-0.7857478241155732	-0.3656474342651224	-0.4060803939580372	-0.11269476236262502
16	-3.0463306826926657	-2.474583619545734	-1.6589909750060916	-2.9012887404624257	-4.2827091108913	-4.288478363653834	-4.429458130143598	-2.619955771507196	-2.3986046253680557	-3.6947276498971733	-4.6194100263314954	-4.101061810629701	-1.994207973213705	-1.7117855505640212	-3.128870240894918	-3.8953938385842655	-3.4799983413572813	-1.9475617359581234	-1.192746993868181	-2.598092787858781	-2.7018470695945074	-2.8713567184432702	-1.2092695205674935	-0.47186341762617956	-1.6046395261305595	-2.4111895500341576	-1.653352971671022	-0.635773061100821	-1.1765753001071306	-1.4839888773644332	-0.7017722112103733	-0.20667043276105948	-0.22908154072144465	-0.050993464758396057
20	-3.1522719780489687	-2.5983846121988647	-1.4185363018460915	-3.0031762047284998	-4.175768364853927	-3.896901597674697	-3.8636171720232584	-2.409382575627709	-2.7923536230159027	-3.5963077454367975	-4.125370968893521	-3.5528895765248114	-2.080390448086142	-1.9452153395178196	-3.152003041892421	-3.368860236245422	-2.985070221040082	-1.9179557513450662	-1.286469813913536	-2.5406267578830195	-2.4068543850212993	-2.5133950646839507	-1.2501891819860929	-0.35485428482108955	-1.5872923095682168	-2.1689062063770654	-1.4127128088569492	-0.5966851100161895	-0.9818724965101154	-1.2571554152219837	-0.5262383805340162	-0.0914654058888955	-0.14744420312371848	-0.06913608295151628
24	-3.0884251516568217	-2.3098895491455065	-1.3395698036705237	-2.802579395847751	-3.670130720409104	-3.288968316357408	-3.064037553680675	-1.9979884574036841	-2.9177465365176753	-3.099592439455165	-3.4839272411123767	-2.8763389514781768	-1.9613060901714692	-1.9701104114383028	-2.839999906999001	-2.7229134967721547	-2.3983087479121377	-1.6656269985107606	-1.1724076241456682	-2.251328462638696	-1.9635330389039447	-2.0562016912044636	-1.1237360210657323	-0.13950671220366473	-1.373942610132813	-1.7839822724123817	-1.129180309305771	-0.48756888385697383	-0.7029976827038612	-1.0032052968445915	-0.3833268275119596	-0.053157333150407104	-0.2221792334669139	-0.2111491704616582
28	-2.860350363185414	-1.7460349754119369	-1.5485780200007389	-2.409186833974761	-3.0007436199720683	-2.744446509107926	-2.3627316892098467	-1.5854152400996893	-2.7492990424361285	-2.4188919006311664	-2.9605865403768	-2.3488099515740974	-1.701489325042226	-1.7804131462922423	-2.3134820402863387	-2.205459350739734	-1.9545173595672711	-1.2766773668481106	-0.8322384336440392	-1.8112398340272178	-1.5387185773147551	-1.676046128809772	-0.8558473565428064	0.1595728989387004	-0.990721342446484	-1.3799883092371168	-0.9051887370143923	-0.33830189619482004	-0.37068164255014174	-0.7943780998201022	-0.32036748447595514	-0.030362725181215022	-0.36936619784559244	-0.40732467071690437
32	-2.51831960042286	-1.1711087197300023	-2.0495219178906403	-1.9945712039180492	-2.4413864550940265	-2.474915259788427	-2.0065231272582347	-1.3512301410892043	-2.3547215402279953	-1.8128298475272315	-2.7407083442156304	-2.1391670649879164	-1.3911422455950644	-1.435416337203864	-1.7545475915479765	-1.9848636338665697	-1.7858537390443143	-0.8525364377431823	-0.3416858306841096	-1.3473948206261703	-1.2642102209597874	-1.474457498642465	-0.5086768256696024	0.496862559256178	-0.5121614920083082	-1.042093035927928	-0.7708660344688505	-0.1691220845482504	4.631223043492105e-05	-0.6149359925956902	-0.28189197111484454	0.0920783502518957	-0.3994886269020022	-0.49994230144162444
36	-2.1570241396803804	-0.8604918100566236	-2.687192194829872	-1.725435967857438	-2.188771957593389	-2.5416850979529793	-2.0634140916226555	-1.3745044435130473	-1.881818766611169	-1.480339046555472	-2.8641092704940387	-2.2512605133438237	-1.118503210104823	-1.0453460190129766	-1.341301676224745	-2.0917541927931693	-1.8814371776762804	-0.48202648637188256	0.13421843912093173	-0.9926288102837701	-1.1933032244118205	-1.4512687884883033	-0.16213041503026576	0.7892953137497136	-0.05279533551714862	-0.8026491979361216	-0.6881610733777641	0.00893735045173336	0.3831613054138363	-0.39638593692837515	-0.15749019344621704	0.3967847814078827	-0.13906906510050637	-0.3376674345551102
40	-1.8872115564382517	-0.9631826853275969	-3.1944129386359323	-1.6944812493458086	-2.2837452830829745	-2.8473586964243918	-2.4163484512357325	-1.6041581590205687	-1.4983437023480273	-1.4857904873528656	-3.2250840582484366	-2.5472395355762845	-0.9444138383863057	-0.72913056427927	-1.1813628643726921	-2.4237356124719645	-2.116506809612999	-0.22531422915792765	0.40985929862493375	-0.8378183820552442	-1.2943891254169793	-1.5289899072190782	0.1107234877532679	0.941177067764595	0.2653071277595767	-0.6575857980338168	-0.5949856027839996	0.18423156393744028	0.7185975891090248	-0.09473132318182784	0.1252532151159331	0.8544415809993281	0.43380412349848463	0.11260976613938992
44	-1.7865943863584235	-1.4142543041762383	-3.3123588478382695	-1.8817959976369223	-2.6033446723059708	-3.194689027349835	-2.834361307617485	-1.891725058547828	-1.314254638214724	-1.7426451400628293	-3.627928247828887	-2.8273708748958764	-0.8848342277121448	-0.5659642205254234	-1.2712972132056883	-2.8018252778839567	-2.3262095392623836	-0.10728126737211569	0.3728105118398871	-0.8955056644718536	-1.4780634604329823	-1.606992359872483	0.26619610123183485	0.8895015098048532	0.35919120817096445	-0.5953696951139624	-0.45757248882162344	0.3360702088930967	0.9160655713794785	0.2445259684111042	0.524550675021462	1.3039669957617548	1.1266710729763518	0.7070288044244881
48	-1.8578278971496454	-1.9515808771451806	-2.9275431559082246	-2.1682877485844374	-2.925543539290348	-3.379736653377996	-3.080958358615371	-2.068145269894402	-1.333080884428789	-2.060895676177964	-3.869940032725068	-2.923256151448223	-0.9103373266124468	-0.56821644162722	-1.502471443197591	-3.0499179286247706	-2.3840091168294664	-0.11888150840785322	0.04420100513861872	-1.0947129698771068	-1.6425473648562625	-1.6140043694754458	0.3007543377435522	0.6413882358569992	0.22254769447882392	-0.6171983464870731	-0.2973350278976777	0.4351997662523767	0.8908969141401668	0.48265489814016294	0.8798137881000339	1.5143243036184102	1.5953329761281163	1.1653801173351028
52	-2.0257093855258343	-2.240691656177514	-2.14921879225746	-2.3999617039168752	-3.0383112353862525	-3.278814307517688	-3.011761180903114	-2.0266869016976825	-1.4652963839729065	-2.2383842411747947	-3.8205377959113203	-2.7643034388368446	-0.9661870574399152	-0.6897663456668021	-1.7156201557713198	-3.064941398511767	-2.2501888218334676	-0.22539116385297722	-0.4328514922657671	-1.3142602410513187	-1.7177978710673352	-1.5343562325839477	0.2459343367566237	0.2787177555676676	-0.06738013757144722	-0.735107300809743	-0.1755461986401167	0.4562304604455714	0.6172089561138163	0.4586463260991857	0.9940506790812972	1.3064888682758347	1.516848202690407	1.205724236305204
56	-2.18265556738056	-2.0544986672982413	-1.277531739824164	-2.4737760958203556	-2.845098488300215	-2.8985347674621766	-2.6259984903792684	-1.7736459925693986	-1.5985879857710823	-2.158384556089299	-3.4719321640094827	-2.396165841728583	-1.0060827706685034	-0.8629332759051042	-1.7821550324267605	-2.8535857128576443	-1.9752860019403724	-0.37980380558443777	-0.87148064154896	-1.4417039119560557	-1.6908575253711928	-1.3997380698150002	0.1517281826480053	-0.0751145629178445	-0.3796839406440971	-0.9499211287357129	-0.14411549233767382	0.3987174918121675	0.1699928488015756	0.10189193461442118	0.7664110641202959	0.676822124202901	0.7914258817718307	0.7132444959752623
60	-2.261911148082558	-1.416753765343939	-0.6742724759244262	-2.401889794961202	-2.4198694168030146	-2.3763618409240914	-2.0615763612195805	-1.4268803560471317	-1.6826354222730553	-1.8522236300434336	-2.9486758634506947	-1.9552376220929184	-1.0252031061991476	-1.0414075825147415	-1.6748268561993251	-2.52756308871129	-1.66773891027911	-0.5399438129144218	-1.1358743877343047	-1.4297492468022175	-1.605251546621568	-1.2590141264599668	0.06584477407997374	-0.30698105615358195	-0.5833248481328066	-1.2266503541494045	-0.19430479358253241	0.30373287124242554	-0.2716244750317587	-0.47997364280635624	0.298058628283424	-0.14613243900597475	-0.33852076444988266	-0.14773774109733498
64	-2.2951583804357507	-0.6275579913507491	-0.6008489712803959	-2.3172764719631602	-1.9844738194907228	-1.9353270481838372	-1.5443713626016917	-1.1660518616800255	-1.7720382168852864	-1.4958469829939793	-2.472646230176846	-1.6176466900991844	-1.0739258500641715	-1.2214310138381803	-1.488909240778219	-2.2619905414691988	-1.4474588596038795	-0.6860517246091334	-1.1935546368028485	-1.3195651736322243	-1.5370441636379522	-1.1472732991816605	0.01862606960302767	-0.35404309541006695	-0.5962585791792536	-1.4857962093987496	-0.23745998680243344	0.2537066632064219	-0.4690529990274707	-0.9978989337522148	-0.0988432837017272	-0.7516598086453017	-1.3307628597993264	-0.9491171216843676
68	-2.4145967899394956	-0.14585773610005975	-1.1041400404709814	-2.409289830800673	-1.813960547635766	-1.807719583715671	-1.3123295274026288	-1.158423897679509	-1.9929184863318898	-1.3354091610571268	-2.2896830977805074	-1.5424448212781254	-1.2377597062331724	-1.4287815057920876	-1.3964275086432438	-2.2304577771139966	-1.4054298365395215	-0.8294385054627844	-1.0990436049369736	-1.2144483297203728	-1.5574208458680001	-1.0710405084271692	0.018734918859983612	-0.2116235936305501	-0.40507864849814873	-1.6198090273968866	-0.1337106224498887	0.3511492899135279	-0.20285949059767705	-1.079553243772498	-0.01081485298525692	-0.6931334120416629	-1.5456547698097551	-1.1503916949791462
72	-2.7866120268084753	-0.3770028045195797	-2.0109062144053715	-2.8197562623357557	-2.110013479627562	-2.1487996523964576	-1.5332390031250984	-1.4916355572233622	-2.450744384300136	-1.5704596002982762	-2.575585358792682	-1.8211458875452982	-1.5890276391918263	-1.6839798646372146	-1.5517853459280049	-2.5355932648537354	-1.5783128698554751	-1.004702088680412	-0.9314086413709534	-1.2157118289771314	-1.6959940152263886	-1.0130382750683617	0.05868490025485763	0.08739942290174367	-0.04924070077623384	-1.530273433636431	0.2424747192698216	0.6815168840367816	0.6444563849390661	-0.43177696953479167	0.890172598498685	0.3281004122556562	-0.5244231806866094	-0.3263911894663925
76	-3.5066463858761834	-1.4668719731489213	-3.0342099589989022	-3.552155008884454	-2.8976371215141254	-2.9671115800331775	-2.2398133221343217	-2.1408297961543727	-3.136162988374064	-2.245021337563067	-3.352340689778341	-2.4436395106608475	-2.13541316446944	-1.9712669799626046	-1.9944037148666531	-3.1580145279307104	-1.9399502228395233	-1.2476010291071902	-0.7360294442667348	-1.354123827376454	-1.9191863488379919	-0.9482754444976194	0.1234123405678541	0.5015486466142656	0.4166360188932398	-1.1679215401726195	0.9336672997743695	1.273769017818283	2.0359346815205255	1.0103920672655946	2.6725370816466576	2.3230330885410333	1.7875521137882564	1.6331516463054605
80	-4.518121231116034	-3.207950583941719	-3.9262022872979854	-4.445086467964247	-3.994004477907441	-4.099547852656229	-3.3057651436312843	-2.9819173737580034	-3.889846553518315	-3.2004358687659895	-4.452296245778076	-3.2911071694251284	-2.79550194034499	-2.2329997959979595	-2.601396315682472	-3.9458768268143523	-2.4090440212462396	-1.5677509268279421	-0.5118855225036948	-1.5561491211702834	-2.1344342177861204	-0.8600376226645817	0.19563122044285386	0.9954287980696697	0.9564534401587346	-0.5569807276968473	1.8634756756464335	2.076293224814626	3.7787289524042067	3.0233054084740654	5.072282301494256	4.982402788934314	4.9806976192608845	4.447637546754193
84	-5.606189236791778	-5.11008022925527	-4.592883098450471	-5.230399595406571	-5.0695152154721885	-5.249513136007728	-4.474181163935712	-3.8414673708249087	-4.460774887266679	-4.12161158474774	-5.557620511328465	-4.162351120930283	-3.4211816701343194	-2.3955686031894414	-3.123949281434686	-4.657499301595437	-2.8708887027736756	-1.9319913338520491	-0.24958631333279155	-1.6692699151809454	-2.2235853615887455	-0.7479955535123411	0.2560238235685373	1.5317606887291115	1.5591602286074442	0.20544905908688943	2.8523149418342415	2.961203567657957	5.572468743560264	5.155064092972263	7.562980155923621	7.766369323195757	8.315049150454273	7.53015707022158
88	-6.480336172908744	-6.605686171066386	-5.106587397080251	-5.649807915728282	-5.776880726534163	-6.082887634178318	-5.435675607308953	-4.560070503165884	-4.6314206006419925	-4.662873733191975	-6.311520560541993	-4.832328307349105	-3.8596486947841324	-2.4100933014102166	-3.29595350387029	-5.04828547156827	-3.209930650236158	-2.26986884497714	0.017852654635536085	-1.5374214610384278	-2.0947267956299025	-0.6272902472870939	0.28227171230574977	2.054546827851098	2.215769523748371	0.9736317371582102	3.6781816389678785	3.758180608797639	7.08908508418308	6.881697637349505	9.53992078279878	10.078914616887172	10.98668858615288	10.192498181358701
92	-6.903206330990269	-7.290345650386371	-5.611983761923632	-5.572538838622342	-5.8915109485653065	-6.349098189536474	-5.931871399208035	-5.04132698693618	-4.3370523343258744	-4.598109233691183	-6.45951221742543	-5.125920759610785	-4.022593488073908	-2.2796752395294075	-2.9624273702213957	-4.9685339802229915	-3.344409457345973	-2.499461406119276	0.20307840355622317	-1.087654826279204	-1.7291955904217984	-0.5208370076381075	0.2532515221400661	2.4860925611670672	2.8864343093475857	1.5920395810940118	4.155053128242409	4.306331623649042	8.057255724591467	7.790213088394347	10.535387012585275	11.454807252573532	12.406723944811286	11.877500504069811
96	-6.794970972071642	-7.080800038580218	-6.192152007681749	-5.052422987579551	-5.3990020615641425	-5.977057918716753	-5.844312176254052	-5.267918573430741	-3.709203949146513	-3.9229922195570666	-5.956547722082744	-4.978387343235224	-3.923946847545379	-2.055916304166	-2.161144489554011	-4.427286136893466	-3.2506506360952643	-2.562177651612178	0.2112206513317246	-0.3795213689758827	-1.1987719505561554	-0.4490407097923371	0.1596641983531046	2.7500572135157575	3.4851365001425267	1.9374265621861049	4.195563782589593	4.5044488793133945	8.32677839084214	7.711518268188979	10.371956799069673	11.688034981782053	12.376337973818668	12.32170006502107
100	-6.2552666506193235	-6.217273696461096	-6.773981077257694	-4.293835629112721	-4.487105835076176	-5.09780167246254	-5.229233728557708	-5.281496511476294	-3.0116639061230863	-2.8542523312031296	-4.981921660242902	-4.452876556598143	-3.6621255782174007	-1.8051402523241729	-1.1100590201008127	-3.5859472661080964	-2.963851682809352	-2.446433537982285	0.020997721648846276	0.41482496156863446	-0.6379667504415959	-0.41842654241777194	0.017731381535466138	2.8126141953982216	3.900858153984898	1.9546688745739076	3.8353683851683105	4.341519344812643	7.899281004989094	6.755516988864369	9.195729232459286	10.86168286442259	11.098359079950528	11.591952294646708
104	-5.490976319754782	-5.117253767445167	-7.134628277885232	-3.546133747684446	-3.448273888464966	-3.978946675745141	-4.28110264650937	-5.139793383019363	-2.5023646291496657	-1.7236726240508549	-3.8481728933452106	-3.703615417666482	-3.357223502266013	-1.5664751490143909	-0.10479970249896362	-2.679262631327553	-2.5532240803152035	-2.1887783948950084	-0.2645590894695342	1.0916264029598506	-0.18054893567277408	-0.4125790585591681	-0.12475579945537711	2.7113354137630568	4.047548283848306	1.677277799186301	3.214257709017348	3.8959765335901184	6.920370084456456	5.246726976499382	7.390233974871726	9.282900786804628	9.046564079332473	10.004908536446576
108	-4.696610915723984	-4.161026944145296	-7.01377533095525	-2.982121936898356	-2.5414094860762337	-2.8998248503904382	-3.2424292482528623	-4.877609717452065	-2.296969407958034	-0.818296788056985	-2.845935575929327	-2.901087992019329	-3.080996982425088	-1.3301401104722854	0.6219018682037135	-1.9002803516094189	-2.083407396778476	-1.852618093581561	-0.44648390895650725	1.5153900346643034	0.11024883361637806	-0.38923570415452713	-0.19924189100029663	2.5461709435074495	3.915531625398657	1.2268354861756094	2.5270187790965757	3.3051607525347877	5.639071927138445	3.601598492112282	5.425106511724065	7.364985924245774	6.7737026043580055	7.988458613253933
112	-3.961546411049082	-3.524062386198423	-6.267499431044982	-2.625674717949666	-1.8829626989508101	-2.029793734194111	-2.3048293532354305	-4.494414318181503	-2.3133006037481003	-0.2496327900544378	-2.10578059618488	-2.1572825854194737	-2.8215622830678906	-1.0501931879231632	1.005369183863054	-1.308698054824212	-1.582727905092131	-1.4958555660628052	-0.33257800256684594	1.6844346480757026	0.2807540886466328	-0.2866942875299507	-0.14309632742039374	2.431812757074374	3.592915287483326	0.7881175855765701	1.9660028169586223	2.719085924912922	4.347337711802347	2.2035951558744453	3.711831560300157	5.509745583928585	4.748179900579137	5.954324230419657
116	-3.2599360860535103	-3.137818090146008	-4.9756026142383485	-2.3663096368173906	-1.421779152141554	-1.3736485208162337	-1.5508078297561565	-3.9745476145532446	-2.3289000929207515	0.07846295068719596	-1.5537140330187775	-1.4917203150280187	-2.5053408082650765	-0.6835514885810526	1.1622831792096822	-0.8145788887438621	-1.0384299728878599	-1.147580501520057	0.13939842546554243	1.7247675613726143	0.4687111067859023	-0.04280284781378149	0.06917208415686972	2.434244388156492	3.2380835928225498	0.5602319226425572	1.6736578899089416	2.2574517669903016	3.3119950210874793	1.3174097504732987	2.5180349286401316	4.024286259981255	3.270885459271105	4.224676121535866
120	-2.5264522965540603	-2.786216490386744	-3.439873209851532	-2.0494577832930236	-1.0076229546856108	-0.8124467710009846	-0.9625536775128702	-3.3272938644326424	-2.1177005714355466	0.38588255546418626	-0.9870083903188649	-0.8570606090841463	-2.0623459763909775	-0.23254327417313095	1.3053488698427387	-0.25078499253852066	-0.4244218159927232	-0.806857405055929	0.8365121462682894	1.8135459377277552	0.8297254422220086	0.3761068573039005	0.40645563499827325	2.52892016726011	3.011201850917954	0.6926681381857208	1.7136704878456392	1.9836491296276926	2.7128920486620807	1.0554244491633122	1.9507844398837026	3.081917993393832	2.4703178343392187	3.0118398590340187
124	-1.7596560672201984	-2.272982114775188	-2.0670723862911538	-1.5879101713143986	-0.510317264698969	-0.21269109791462099	-0.48365467664677875	-2.6191892557773193	-1.5871217210753004	0.8653698541727256	-0.22609981837408386	-0.20531260915418187	-1.4917255602367456	0.23840486943134973	1.6096197326075485	0.506417750033674	0.25664815241866085	-0.46034905198218534	1.4779925309058788	2.075355524545387	1.4450147115463907	0.9503273939934762	0.7882521728641332	2.6121823721737942	3.000442258888845	1.22853088068732	2.065221066029104	1.902900214159262	2.605288975813635	1.388670202563891	1.988524908767299	2.721373074336469	2.3410825670263464	2.4240233836962135
128	-1.0782818767026487	-1.5610779484436057	-1.194864389263836	-1.029745337747433	0.08041827360353533	0.4626753318549284	-0.08954822249453549	-1.9739297578565775	-0.8379703738990376	1.5512502154285626	0.7474512438976265	0.4492393720728719	-0.8841514565079666	0.6235783680430781	2.10586952631466	1.4389153682619245	0.945677099224486	-0.10564030680210863	1.7790952875995858	2.508665078505097	2.261365646374951	1.6015865762328718	1.1192880840652435	2.563405030454294	3.1829180637107304	2.0810692257791303	2.6391675405626946	1.9811581323195286	2.9189333842014467	2.184195036141932	2.5287570889524162	2.869473450091702	2.7861680914153086	2.4712107119157
132	-0.6853063089234545	-0.8051395991978393	-0.9500284170960377	-0.5457648025084899	0.6314558966906392	1.1101453276262296	0.18149447395278123	-1.5308867654296212	-0.11748589545628342	2.282177919347918	1.751229877818865	1.0133577559635514	-0.3822147240525482	0.8208252170819734	2.658430092775414	2.370455259060342	1.536066289838236	0.23737479686410332	1.6081912476944682	2.9817063733160314	3.098217002675801	2.2149488870011753	1.3349723782213156	2.3192820490454986	3.439311495680587	3.0566713732793507	3.308768979301801	2.1704575960673624	3.492290011171829	3.249377719304655	3.423697939811804	3.3712091360808003	3.6400160697588175	3.0594925803187367
136	-0.752013800629729	-0.2620234780848685	-1.209530350492372	-0.34272742184892985	0.9334864592825776	1.5379472932133087	0.25776329571494816	-1.3789020741934725	0.30779328864588557	2.7814462114681238	2.4894058641524763	1.3597456182481857	-0.10153592352265721	0.7791041116117476	3.0393080634629595	3.0473742408107585	1.9204764317662533	0.5351308570702501	1.0635058853001353	3.300424567472893	3.723617544309707	2.6824033192621286	1.4339930974995105	1.9162578534382813	3.615513554027834	3.921642293565602	3.947379579114635	2.4281928477970145	4.131807316838697	4.376333702482314	4.501822460252643	4.026912679042007	4.684205043410335	3.991622199471073
140	-1.2948951688498447	-0.13674747909352755	-1.6769261317830142	-0.5494443760351191	0.8207924941320743	1.5843764503531665	0.10175895665226302	-1.5011067352542593	0.2872114472290387	2.8109052110275363	2.719710581588591	1.4080742562029498	-0.06083480998415559	0.523278175463365	3.0555679720980544	3.2746519959742417	2.0510981031131013	0.7640046458028547	0.424797504067794	3.3116509830787044	3.9638342757283644	2.9498300477892117	1.4797221384836041	1.4760471545146112	3.60006379172248	4.489528644670889	4.465101230792133	2.7250606944901223	4.677356708161513	5.386050687542887	5.589580044939181	4.639868724552548	5.680549607240022	5.001498686560662
144	-2.1264576858238375	-0.45495310310893744	-2.028791899327256	-1.1373642654313487	0.27577051450722234	1.230800863973215	-0.23174790979525622	-1.7637538865381603	-0.14468088709542448	2.3119082392496626	2.4029796062835236	1.1910889118640053	-0.16386848646752794	0.14407531880719662	2.6584813527697913	3.029687396983343	1.9762581536942048	0.9321021414111642	0.003341973750796279	2.98480366906932	3.7883198165615104	3.0415649337270367	1.566155072072755	1.1403971881684423	3.3765568647965467	4.689079272829182	4.830562579356736	3.0406932754040423	5.048194395671282	6.164360507660363	6.539577944457171	5.066363798701581	6.427005751595636	5.826384052825195
148	-2.9171838686724163	-1.0330708000803457	-2.056902880243831	-1.918370361253077	-0.5405065999689702	0.6404607875866357	-0.5894756302255842	-1.9612595985486618	-0.7918563465153118	1.4550374709586467	1.7471921399826849	0.86215531608346	-0.2476575666373743	-0.2366508835539727	1.9771786878257918	2.4882590707898933	1.828607435378022	1.0815578671805228	-0.024367157308330906	2.430387967649261	3.325388184734695	3.0478830260572765	1.7643493369379633	0.995509621967781	3.0275483054970445	4.582286346310478	5.069811331346686	3.353599063035662	5.254139410104934	6.680715067208744	7.2618784721135174	5.254632459725272	6.819896680779463	6.293611510599416
152	-3.3423211490168945	-1.562110300888509	-1.7356475547838657	-2.6196639471671124	-1.3478136028593048	0.09767630671635795	-0.7755382041424181	-1.9003498506250516	-1.3937339747526443	0.572793541892611	1.119389054333238	0.6356715543910247	-0.16707406895893873	-0.5060863482095594	1.2638181416074448	1.9487665842445712	1.7694058373600723	1.2669099537334276	0.30202677769700464	1.8510578824038597	2.8034901548176197	3.082771770323439	2.078796143051715	1.034353730451252	2.6946158341086144	4.327522743743245	5.245627390015342	3.636170616506197	5.3738827569705805	6.983740312110182	7.746108035557703	5.257638441162995	6.890988332516478	6.382164462188586
156	-3.2338654913317346	-1.7576646760432804	-1.1925260990552011	-2.9969479962023544	-1.8630638075520753	-0.11891288280266767	-0.6389862878879049	-1.4837968311994518	-1.7401027635509987	0.013813803868882023	0.8749879576526232	0.6922960263893276	0.13539215888172418	-0.5886720404067514	0.7845485190610755	1.6975529151019082	1.918995494765903	1.5224523505873298	0.7724363784361381	1.4555184804407697	2.4518573222245723	3.235077372966248	2.43850969652585	1.1784108847429993	2.5196950372022244	4.108300675510106	5.428006635312935	3.860707034854092	5.514081941034336	7.17320440388647	8.059419611609929	5.208962904176514	6.792402727144045	6.224295123597909
160	-2.6526009969496767	-1.4934449158155958	-0.6130572541971133	-2.931045524826384	-1.912897343574329	0.14043939078159406	-0.14408582412581178	-0.7531425933896354	-1.7425731376521225	-0.0037958400693812546	1.1978665560043031	1.1010154457904546	0.6123169049062274	-0.45482030396071316	0.7158066612291083	1.8887357664105997	2.3113241137323386	1.8376311017370754	1.1484671802134971	1.382659312572048	2.4136717258549174	3.5392448812772783	2.7295124461878673	1.344021793786847	2.5994658404523605	4.064411153068426	5.670284733761299	4.013326634764785	5.770559296343825	7.360309105409926	8.317148187619383	5.269955621765442	6.730450613195234	6.041944965366893
164	-1.8411174966104753	-0.8502776601304769	-0.1391202207867557	-2.464428180194543	-1.4878405295000945	0.8422750213338481	0.616984008185002	0.1308195587670024	-1.4388501607807047	0.5329501019373588	2.0356817194087378	1.7998117163039957	1.1533755034890687	-0.11593812674814741	1.0947083207148258	2.50042533243215	2.8955717013685836	2.1578123515009002	1.310279008418243	1.6702536302358348	2.713347428147015	3.978590716807441	2.853022806593807	1.5073783359616917	2.9698512479187165	4.256894100885677	5.999854549518571	4.106623162391783	6.205752833910838	7.63253448466647	8.63623903001444	5.568632588632204	6.877698404113752	6.046100124352985
168	-1.0939251156844547	-0.06314777566940553	0.1855756337725707	-1.768428440397513	-0.7203446012429807	1.806915993896838	1.4727697335252663	0.956508991687525	-0.9469564533167149	1.4572625123424943	3.1559574524354157	2.639801018725768	1.654377575512124	0.38374209307106133	1.835997457637196	3.380599490213586	3.577866545227009	2.4119076667925987	1.3180843558411632	2.2729318084551244	3.284719220451388	4.513450611163226	2.7782132555436694	1.7245652632087576	3.6172060875166023	4.675956237431406	6.42361257838643	4.181436051302019	6.845072252157551	8.036275843357815	9.092029548578035	6.1560020291353235	7.306688290268205	6.3491644699012975
172	-0.6208896025240487	0.6001207813370135	0.40231948989381733	-1.0648589107331206	0.18976759862671783	2.806194059916384	2.250219100992937	1.5433518847600274	-0.40230399268621486	2.5209896500834774	4.278788555786453	3.4612867744794746	2.065770620852546	0.9745652054976808	2.792209618194489	4.343968857288148	4.272788037002774	2.549112313510399	1.3609905208558215	3.106967918181051	4.03149985249234	5.111025797337599	2.559621804450662	2.0946261829897757	4.499575126731706	5.276552186995369	6.938031655914551	4.2914600263965506	7.68497322049599	8.579620339666667	9.695810293513595	6.99839971682781	7.976830462343349	6.93128154912007
176	-0.4761119174857534	0.9595494246098413	0.5764769897211407	-0.5417057858141786	1.0565766069439118	3.6609120276528375	2.836560719004144	1.7990128948567328	0.08676738270072178	3.505046835633029	5.203717218612366	4.155133713721942	2.39216994635293	1.5691912134606585	3.815828552148796	5.25647591217423	4.931151377625723	2.5634918148168677	1.62982582634468	4.088200081993961	4.876414763536625	5.753953442351326	2.310551637538	2.6870255402435004	5.559036240847595	6.0120348778569594	7.532050590572023	4.476958263538076	8.699400879830558	9.245070434116936	10.399123165578233	8.002905825436695	8.775094963806929	7.671840171517917
180	-0.583222149330118	0.9820306276323053	0.7351950984512754	-0.29848274513225254	1.7565685466286283	4.286921013499074	3.195856324710169	1.7303737358274542	0.4509474623738878	4.284952629714982	5.862891659239369	4.678183543791749	2.6496684484341317	2.0759057946245645	4.791533934893507	6.060342296558237	5.529925332412792	2.4930055078506634	2.193792099182277	5.141829000842592	5.7691798064486255	6.4218511419284745	2.1473712866926666	3.479347220219399	6.718995077335484	6.841769201171018	8.17844865641439	4.741363036582676	9.837614034610654	9.998444531946296	11.117406817024019	9.058547950762177	9.581184363016867	8.421586969093982
184	-0.8257347324504375	0.7587765436088706	0.8394636490608254	-0.33806440148831207	2.2296674195262707	4.675204265234818	3.3411505137964617	1.4120974505058417	0.6509239657180251	4.828219878404399	6.283925994266448	5.023914801311196	2.8157179284531293	2.41740393028275	5.632368550385349	6.735752088706751	6.0372443046731945	2.3926222263963433	2.95358204095906	6.185185893655147	6.655084593182878	7.0606379330708195	2.133832210875409	4.344603527544114	7.8744530478984585	7.710566501223609	8.819683052683613	5.043720709464315	11.015978785358714	10.785510989614906	11.758394211645916	10.069301579802067	10.316291783035899	9.071033454881045
188	-1.1351792783686891	0.4275914121799417	0.8045151809407488	-0.5960664734096276	2.451984399326913	4.837247359460709	3.293688288955965	0.9400374865640114	0.6666307432510012	5.145779596688331	6.505695803429433	5.180758940014323	2.8166022229607846	2.5492927963743233	6.260320170809202	7.24055622180114	6.38575981435236	2.300523990544885	3.692000141359138	7.10765932195967	7.437255363760577	7.568568687403652	2.255658620861406	5.097651468758086	8.892968155342825	8.522364594877141	9.364606833656445	5.315122114113565	12.116866081163225	11.523565263264192	12.2455701518832	10.966914149252121	10.952269526486361	9.581742262490556
192	-1.5215275249213296	0.09226115769696028	0.5520158992181713	-0.984307167429109	2.4121482311383047	4.764254557978738	3.062319747822585	0.397381334493611	0.497766970331394	5.242657648201551	6.514303190950426	5.11456774373979	2.56759762115721	2.4711337027148446	6.599164946107265	7.481327514833388	6.481420977440917	2.219960683939816	4.18579958812572	7.77479885045719	7.971232870957335	7.818966845798557	2.4370992122154465	5.576178536641717	9.638827299577875	9.137552238282437	9.708568548486268	5.493245110947784	13.006918874326214	12.1037158660475	12.534027067963999	11.70667645359778	11.487150163258477	9.974301313013111
196	-2.0315055795877384	-0.21872952525228068	0.05552145079661609	-1.4275821411329452	2.1086254066635375	4.42831848933837	2.653143160797185	-0.15610733588859696	0.1711950446813376	5.101274954314122	6.242400153612013	4.788388717005939	2.0399918504708534	2.221854442708838	6.5917224717608205	7.342440586625694	6.24761913629537	2.1257133430217614	4.311694611153812	8.064802149438137	8.107506731544673	7.714199523522786	2.58758305849994	5.7119116638930185	10.015421842084097	9.408211684315397	9.773339246870101	5.556996331489953	13.573997463287544	12.41396328652885	12.61941429766785	12.258164374873864	11.91179558607551	10.29074284816388
200	-2.675711148182223	-0.5392332659458484	-0.6442347152657061	-1.8817957592183439	1.5659061630768014	3.821609010584519	2.0960926956661265	-0.6772077066489796	-0.25880774790271033	4.703600871608436	5.62858007917299	4.204568375462366	1.308896180662945	1.8588548851765325	6.231840117933109	6.757858259305236	5.679120526280496	1.9888712117525698	4.085568894561639	7.921824435260547	7.7639632029015395	7.243380051444889	2.6504831247168648	5.552251324940653	10.005421613227508	9.240445113694044	9.549168562621624	5.541587338761523	13.768115962553303	12.380008666253248	12.540441481399952	12.601903883588525	12.194810836520633	10.56015774921707
204	-3.3826048288773465	-0.9178425050450362	-1.4542555772304573	-2.3340997636992498	0.8499324300288095	2.999108068523561	1.4596853219372075	-1.130610939986058	-0.7265297752157069	4.070024003243464	4.6904229999376055	3.434606305033897	0.5430453405974787	1.4337707721750597	5.58758114357704	5.777513012604344	4.868817317114156	1.8024233534128804	3.624108066945588	7.395477753087246	6.985999089722887	6.507765753527967	2.626757138296054	5.224992738883357	9.686152433735733	8.651424386116238	9.114076591369052	5.523566232087051	13.62607284920343	12.005972831931485	12.37287041401297	12.736574140816874	12.297661750262424	10.787526103440385
208	-4.014751901027056	-1.3730494941377533	-2.2645068111466835	-2.7912526060203917	0.062240864924405614	2.0864565319789077	0.8358226397392685	-1.4916748962888147	-1.18043362796299	3.2819263852228437	3.555512180888307	2.6098534994990104	-0.06652282161606549	0.9802159046220555	4.7954106209799106	4.580114353060346	3.9853567976466815	1.5889047344146097	3.071182958478308	6.640367491169254	5.955099090799781	5.694047436643199	2.564239257060464	4.874217497917172	9.209516502016761	7.78729818285361	8.615307786170803	5.583236203402463	13.266125645522365	11.392544717635515	12.213651626267986	12.692094770811986	12.210145919489728	10.968137713396981
212	-4.4396214373078795	-1.8772522163678766	-2.9777214451949887	-3.2629039205186734	-0.6890628916509389	1.2420055834883827	0.3026598088252434	-1.757179136608166	-1.600663181078343	2.4697909292807347	2.4260353980801717	1.874868269001459	-0.3992343534880323	0.5206288682190773	4.0233039754378375	3.4173955831077456	3.210826150417003	1.38563847191969	2.538813107756373	5.870485290964583	4.934230315148467	5.0060038440199905	2.522998565025915	4.603949058352953	8.752705551937188	6.885990602273969	8.218327501528549	5.764623150576341	12.851093259790437	10.716713878277371	12.155889480417727	12.533981291596927	11.978283851898853	11.110325785242582
216	-4.606513011746138	-2.3716370999539644	-3.52261208598541	-3.745778074344089	-1.3249225583003998	0.5941470846434165	-0.10750082108059152	-1.9501529882785464	-1.995567078320442	1.771904344853459	1.4965760670070312	1.3301340307985337	-0.46211513760242123	0.08435261973303307	3.4180295381079757	2.515804761256846	2.6708688668528957	1.2201371162126629	2.088475698920221	5.284861074456081	4.17151402373918	4.586508739335706	2.5398354466209794	4.454190719802834	8.459238984684955	6.195100768660632	8.04396913404884	6.053589328740815	12.532306639501545	10.173880551400822	12.258105247066396	12.348996131236333	11.699555367495154	11.242516489254534
220	-4.578319061164244	-2.796845190616257	-3.8518769643807804	-4.213596333355833	-1.815759654229124	0.19106911074558605	-0.4111703623881031	-2.108532184999344	-2.3769493043015144	1.2864123550361175	0.8732417203790473	0.9983282064028034	-0.37489470744848613	-0.2797454290479679	3.0609443110432206	1.987748021829258	2.394547456417728	1.0942897769002697	1.7488417581273237	4.998051153915558	3.8082113169843117	4.469115722816909	2.612645142634662	4.413171757046289	8.39480874803122	5.880878433638538	8.123443583005901	6.3855643111179905	12.398048369576843	9.905197118546468	12.519765822272467	12.214386909164078	11.482830018616063	11.395857782202347
224	-4.495200622653395	-3.1155369203109053	-3.9359359641838108	-4.615538585453819	-2.1725778524859596	-0.005554151707275809	-0.6439014060929636	-2.25914906885064	-2.7308006217675005	1.0438418362012227	0.5424652085913445	0.8341648557583161	-0.2892043285220723	-0.508552311566981	2.9529228135895083	1.8013135149299648	2.3243050516573285	0.9905789469504751	1.5442142447584604	5.008522021046104	3.8367457292963025	4.582876670710843	2.711377613851451	4.449011791440665	8.536272981072495	5.971413597289352	8.393300988940789	6.677844507523608	12.44964214996416	9.944067929910732	12.875965085899516	12.16644665507369	11.394803018411064	11.574202508314569
228	-4.4907822495566405	-3.3126351749707506	-3.770004024524013	-4.884420859402642	-2.415120595556459	-0.08075278231975087	-0.8195403197577944	-2.3926269947679133	-3.004946701092438	1.0124992106623742	0.40471339123588734	0.7684829811721022	-0.29218095467231764	-0.5486608729815247	3.0323319358560608	1.821744198968043	2.365061992396102	0.8966413713705366	1.5047836265718804	5.217880712686713	4.126380909992046	4.802763926777995	2.805016033720017	4.537039268482821	8.795755364145391	6.3591785270354375	8.73034570397118	6.866890413113207	12.614458052258	10.207386944748844	13.21556469441711	12.186940162407204	11.424784631494546	11.733350724160317
232	-4.610809314530701	-3.3815498266674857	-3.3906142626034623	-4.956207739714562	-2.542098754186676	-0.10950081022749669	-0.9115686989657527	-2.4590852198503668	-3.1260723988762247	1.1265870304274308	0.345990269502664	0.7547573428171687	-0.35489904790920285	-0.3873884072059898	3.2114982523897933	1.8959838104062774	2.439390653173406	0.8306944945343203	1.6496158796623297	5.488066182585615	4.498223293391613	5.014228331303913	2.8848967479348415	4.666603076596866	9.064792610170239	6.858274919360546	9.006824470668157	6.930400830891092	12.785965887213168	10.535209629162871	13.417031254272224	12.214800803816354	11.489031762679994	11.787403076929122
236	-4.785234916049546	-3.314666739678146	-2.8863475249850117	-4.798186290070802	-2.5284409459173256	-0.12148202925051545	-0.8746535159916328	-2.3940725266093565	-3.041756383845572	1.315232035177283	0.29908189102002203	0.7865957001853624	-0.35790035038232293	-0.07164528202803258	3.4103395852770495	1.9295657824436834	2.5158431466479847	0.8446398356093412	1.9595220039485566	5.704427227876758	4.8073630211572524	5.156237589215638	2.967749349730664	4.828060614793961	9.256162620063053	7.285284977639138	9.137308097658053	6.883387071396753	12.868798223429819	10.75910184051166	13.387335743482941	12.175136535422844	11.472119302395546	11.643588036703841
240	-4.871557223418273	-3.109371177452327	-2.388030761411598	-4.431432235973574	-2.3515903890365597	-0.10492230180237647	-0.69181972567413	-2.1614000742701625	-2.760275356953094	1.5197133979575261	0.26155635648494313	0.879898784323269	-0.17675429537969656	0.30185764951788147	3.576020470173687	1.9173212002983895	2.600739710917284	0.9989119146876151	2.3640136659064392	5.816909775352777	4.994240748193977	5.226949201738525	3.079658023688234	4.996096121571861	9.328917479803682	7.528226833410047	9.100268340976667	6.7570648022759885	12.811277357181002	10.770560237394351	13.092234578456516	12.013455360599117	11.286367387886498	11.252421350679722
244	-4.742119300313677	-2.7875213552668727	-2.0324563928787946	-3.9353971381964015	-2.029357428195457	-0.0406386553215153	-0.4109683026428247	-1.787154431599319	-2.3603680074226014	1.695518966208728	0.26780018142798023	1.038003442050924	0.22635389807295866	0.6225655659216117	3.685623398058587	1.9185999583441722	2.7076823643032855	1.3208762373953937	2.757392161083298	5.8435387463853985	5.08590124753531	5.25844334228401	3.233171931686879	5.125390993529359	9.290098166852374	7.575825672096023	8.93099305759057	6.578124029717517	12.614081350903971	10.559381458325475	12.567688910225202	11.718175858475973	10.91787621602632	10.646174403968162
248	-4.363119114350394	-2.409752124424384	-1.9109330129060709	-3.4263377103129518	-1.6399389463981875	0.0637023149312539	-0.13728606666235818	-1.3595322336204285	-1.9608051727380416	1.8083352996946462	0.34261184844300213	1.230300304167655	0.7648472766639169	0.8122414330002519	3.7385983372711515	2.000510449127053	2.8321189808866962	1.7728710129799856	3.039718620255136	5.840519890344437	5.15570973048284	5.283583150875323	3.4140365037552645	5.164350019767666	9.177359557823047	7.499306659838044	8.695778824785991	6.361519797476304	12.315759627719173	10.20674893663278	11.9086064991695	11.320383996992508	10.434113476158837	9.940902684862571
252	-3.8183793925201632	-2.0661628194141777	-2.027159685738847	-3.01361941530394	-1.30202436118414	0.1684276755372091	0.023912476315325844	-0.9885055993871978	-1.663423414798978	1.836453075540709	0.4727767693980892	1.4045442307296845	1.2704849211087401	0.8588806965124124	3.7488601113083533	2.1880016271662566	2.951443903147075	2.254783863096891	3.1588811794635565	5.8599696011412785	5.26990984539837	5.318112836762265	3.5882778077129305	5.079618917991845	9.03475473030223	7.402980308915472	8.464402177420943	6.120575889393223	11.967341392820035	9.84036538500654	11.240504236451997	10.875122042855455	9.951605771688575	9.297922110924418
256	-3.2691111482099107	-1.8410592032680322	-2.2914597930274865	-2.754589073855878	-1.122834918048293	0.2282085114916237	0.038562498889360086	-0.7489464860126869	-1.5034106931875904	1.7794181063548742	0.6131232961433577	1.5234438142460203	1.588867183488496	0.8167703727127859	3.73755144129296	2.4469425616473814	3.0463693065023825	2.642220490460382	3.129077903476791	5.916778549514695	5.448157296730565	5.362919793894011	3.7226657773443366	4.8750824805199695	8.891206718884868	7.368682842723989	8.290614107181005	5.881544575146865	11.608750314013477	9.573311781554809	10.682343456000867	10.43611047017235	9.581543898233244	8.860321976226029
260	-2.874089472190033	-1.766951437303708	-2.558748000360461	-2.6307022505144873	-1.1419243783730215	0.23028849007161548	-0.01922032790993796	-0.6405397041361192	-1.4366865121808208	1.6650136667175703	0.7186941486333172	1.5981810052575833	1.6694123702815988	0.7739456276426854	3.7253653909086877	2.704309218254673	3.1240599076551097	2.8445033955282804	3.019681446080871	5.979590877694732	5.654544339208756	5.417055116328133	3.805913200306154	4.594066131436986	8.749119736516553	7.418181877480608	8.20215413883745	5.686503872819472	11.255810709191673	9.453608489010351	10.309975598054287	10.035752271109915	9.378869986696607	8.691133477202506
264	-2.7164027622304876	-1.7993959143030924	-2.691900961755239	-2.560459368916931	-1.3058891263416188	0.21345457380762137	0.00249837920370237	-0.591182468829063	-1.373611923564434	1.544560547743731	0.7760784010366536	1.6899945693263134	1.5928430517035554	0.8060207942639739	3.724338045253933	2.887842171053626	3.2209951796271685	2.850741379216144	2.919986002225522	5.988622650285454	5.818971142382485	5.486030564762386	3.8562469385061	4.303598393065123	8.587650277390534	7.508794288750857	8.198262193962023	5.578708157759598	10.902428599488173	9.447455382336432	10.133390401051392	9.680793737765377	9.321340537378964	8.744725205277648
268	-2.775803797389352	-1.8351712180534057	-2.620568268835361	-2.4475061831669542	-1.4953472576534441	0.24625478622728833	0.24169275103582633	-0.5063938485711794	-1.237841006968441	1.4710954390577526	0.8071240166313361	1.8700288486950738	1.516338463769575	0.9383669471891093	3.7300348187686025	2.958178035896797	3.376944533405187	2.733583443415748	2.89949559433353	5.887927994167614	5.8733901829250215	5.575213895073108	3.9082322021993128	4.068022240858381	8.37736890585113	7.560411910996024	8.25147340598588	5.577015385852251	10.533727619278917	9.46204659934061	10.096948598164882	9.361709571090518	9.326573348339872	8.887830711813315
272	-2.955303899932984	-1.7686818793464583	-2.3681840836815544	-2.23791145713363	-1.5909726579552261	0.3764233281645364	0.7239176612696652	-0.33411249434039175	-1.0161993477913989	1.4705760441844913	0.8433535673783358	2.16208528926477	1.5732731779431504	1.136225220672567	3.720136871482191	2.9181659147972563	3.5976290611988424	2.6092266970561346	2.9830603524233306	5.656379208588889	5.785390362437971	5.675769791578262	3.9898397821782097	3.926227321248728	8.100586870722301	7.500775318281601	8.315772989258598	5.659331784265028	10.143007252833751	9.39697358619924	10.106150601620653	9.068019844048811	9.29662511385738	8.962393738053283
276	-3.138772718134321	-1.5577254256020334	-2.0320224710659254	-1.954775924515654	-1.538990493703534	0.5884392842694911	1.323359724518335	-0.10308509293994192	-0.7680898289361563	1.52604353042598	0.8945016242331472	2.5102941926519846	1.7913477375579703	1.3275426592688213	3.666231146139164	2.8035664487627394	3.8369891546649506	2.576416009120175	3.1482093254713353	5.32495592680236	5.578259453994862	5.761069760082383	4.106342782143467	3.883797635763201	7.770991782595708	7.311079006809854	8.346323945907539	5.772528156965074	9.74743935985053	9.202362037313144	10.07616898853717	8.803229309744198	9.170642829629555	8.86496350911226
280	-3.2455456174924304	-1.258445378940956	-1.727333779742295	-1.6896637635486453	-1.377399083474611	0.8017428497099552	1.8168655588054945	0.0917305869528317	-0.588222382967701	1.5872517784098719	0.9382188296472164	2.7996683050042708	2.080065483563647	1.4434695207391348	3.5556239992016234	2.6675970487001455	4.017540444721187	2.6677675179837728	3.3378477012285064	4.972415911518122	5.330952154051626	5.8030629011506765	4.241161335727644	3.9188737770320645	7.441755276011179	7.05062053807658	8.326406457859681	5.867259010760326	9.394165015344512	8.914856888197717	9.981022809578171	8.59044740415349	8.958886123926398	8.603709199163953
284	-3.2527484811674823	-1.0036071513586526	-1.5295993051057233	-1.5512267311985803	-1.207482096484482	0.9158093906168807	2.005972618760479	0.14996176920222398	-0.5476592169286032	1.602393146283936	0.9406589841935153	2.9224629328375546	2.294792407917754	1.45389282336327	3.410056344005792	2.56793760605015	4.079833020400096	2.841457359769369	3.4817726524184756	4.699924457127972	5.155576692916037	5.800321564335088	4.372693527625781	3.996454228801525	7.194315892175454	6.844720346335686	8.287606218394654	5.9368142931774885	9.15065190865952	8.650766350839579	9.877146695948833	8.465476014698504	8.740848519191244	8.302317598362393
288	-3.1823558727026287	-0.9320914721797763	-1.442701812916366	-1.5984146554645131	-1.1283271284226102	0.8765332080645237	1.8373079253539193	0.03694415455669789	-0.6489662511653203	1.5531907042389708	0.8934031106327102	2.851149790241114	2.3363375604770473	1.381290193885014	3.287083855912947	2.5576023990907704	4.030282010393364	3.014793865221629	3.5214266688131097	4.594693172298441	5.158043371529194	5.797306522991382	4.493827331641238	4.084222306430274	7.109454613855773	6.836542589093149	8.307659128195098	6.03180263903752	9.081237770040829	8.55643079504748	9.883820508798193	8.46255777129767	8.629466988710737	8.145115831791516
292	-3.071744195812096	-1.1085379095699852	-1.4095637762721263	-1.7979776813888875	-1.1765001982549033	0.71834093150927	1.4444551431426522	-0.18176680757407243	-0.8231577852447244	1.4687461815945067	0.8357269146800009	2.667709343850619	2.219406360744804	1.286915537446041	3.256334058169538	2.6730377606615066	3.9507908721358076	3.116059772253555	3.4295883092122157	4.69483183629122	5.392813668940606	5.873089298678955	4.618516433499279	4.161556233389565	7.22943924032286	7.119633179809078	8.47730729823797	6.234031661506677	9.216445899582274	8.73589608847865	10.12197778053577	8.598102547871957	8.716906525538313	8.285427072587167
296	-2.950201742353092	-1.4770022593400807	-1.3552463020440302	-2.0333995767753392	-1.3082638945927643	0.5502127991136233	1.0800199481399109	-0.36784806754699617	-0.9695299839337028	1.4065283501399584	0.8393617847231614	2.5242233212636673	2.0665979333199394	1.238235708925147	3.358870497806288	2.916050426750229	3.956314792181065	3.1244110982212394	3.22121738574233	4.9675230854501535	5.8279819341382995	6.09673117052032	4.769176471113283	4.219015587645129	7.5273980904311815	7.678864936514829	8.845910049992884	6.599541647461294	9.526150679378958	9.187850928951343	10.637269946898359	8.855834938578667	9.02392861948972	8.75905511551979
300	-2.8357443737913615	-1.8788360309848495	-1.2357789246829978	-2.1633868162847993	-1.4344708883308237	0.48957729215993223	0.9726210808039504	-0.3864241232652481	-1.013356206242791	1.4105855190902863	0.9594215130424762	2.552463286631211	2.0306007810823323	1.274932858109229	3.5721821694784213	3.2367188848792177	4.120873917665862	3.0758893412178905	2.9511172696945307	5.311624513566977	6.339076979844979	6.471337302081854	4.951786505594865	4.252156246893732	7.901701907235179	8.3713035372141	9.373367285904836	7.103287202067144	9.911897634276622	9.785351728529225	11.348250360447544	9.17995545930575	9.476963972960172	9.447137808789872
304	-2.747562163091759	-2.129346365320939	-1.0666904422531547	-2.099990839424595	-1.4850103817640148	0.5826821312498163	1.191421744199591	-0.18838430893542424	-0.9464260315841978	1.4736002646434696	1.181911107893952	2.774986260083677	2.191749805638849	1.3907442057782593	3.80430888169143	3.5317766577243566	4.4163613207894565	3.0331122798634897	2.6979625156950133	5.587517724235159	6.742245657110767	6.903079969143664	5.137177454376065	4.257050026636015	8.204830148962529	8.96510026575641	9.920344327675707	7.624195556464868	10.23004433910082	10.31503293294142	12.054952591024131	9.484265303508145	9.928154920307353	10.11339852640704
308	-2.717396490865674	-2.109396929183562	-0.9132189131568378	-1.8606313420049332	-1.4560362063839816	0.7672474960983172	1.6039413173234234	0.15261378845784213	-0.8253317454481285	1.533126111928179	1.4108226263666042	3.078777067040678	2.499137872108252	1.5389245709665786	3.9298534294091287	3.674918642302533	4.7102832675266235	3.042816392845581	2.5369236405217634	5.6684055185255655	6.864586812807745	7.226549130314288	5.2669391499102645	4.23060749893178	8.30109784891479	9.230567908823962	10.29589745783104	7.991673449366421	10.344348881353733	10.566044780757384	12.517470328198671	9.67786309659846	10.213874791106976	10.506227466760459
312	-2.7831244398421826	-1.8234128905989617	-0.849170563461214	-1.5632266958823335	-1.4081566298218215	0.9076823569269198	1.9566917370031875	0.4736645805797772	-0.7323216181385535	1.5089807472277874	1.5140931568065548	3.2753760731971453	2.795345299338916	1.6558166700519477	3.8534870050413885	3.575136890921767	4.833355414585281	3.1094961087874604	2.509334319454945	5.494145856337355	6.625468237361656	7.2839541251339535	5.284323678980143	4.174770344684328	8.12879083488449	9.046441055345968	10.3476371503884	8.074638346312717	10.187459919957847	10.429722759617189	12.571820227353443	9.69986340934809	10.227519963191666	10.47960087991362
316	-2.96209930625738	-1.3934534752950396	-0.9083653665496765	-1.364066358937045	-1.4161993229396381	0.8857216216613204	2.032214159603039	0.6088062509424652	-0.72401541288685	1.3618041242549515	1.407671567223864	3.2165954031795363	2.908991567896591	1.6921496348573715	3.5679335504095584	3.235329858240879	4.682120788197092	3.1998233714378244	2.6081275874092515	5.10416268013691	6.088676914101446	7.018426877421777	5.1731676924748955	4.103130330216763	7.736356238859912	8.468735673503751	10.04876420345011	7.862923125442217	9.801578496981909	9.959549878724182	12.222579925195639	9.548882460327425	9.97256467208732	10.071052525842568
320	-3.220406047319696	-0.9924328898168882	-1.0574904653553008	-1.3705060447423194	-1.5029461345873838	0.6921324712444769	1.7884539320614312	0.48127183196628665	-0.7988731840944893	1.1369681329631716	1.1273332805781344	2.8973438666625713	2.7597491671503454	1.6366683203383297	3.172568313218062	2.7753806044125153	4.29587601530752	3.2719345010165033	2.7879924703779877	4.631749618280321	5.453441129267273	6.526462538453907	4.979227530305856	4.043953408521689	7.271501999616076	7.722782592348772	9.531562781110898	7.489812355205032	9.33363244561209	9.358011222100831	11.658893555769202	9.29212186374668	9.568357443493587	9.49369237410202
324	-3.461789837680109	-0.7556115369792882	-1.2068223922777734	-1.5777409036856544	-1.6037087400000969	0.45734771970674293	1.3940848076909065	0.14897160194455394	-0.9027933455562067	0.9604343747685873	0.8364438989501939	2.478929990231782	2.4118208824300247	1.5226602515877814	2.835965626232209	2.3951537548628523	3.8558807275695246	3.3060622131800947	2.9936151428935083	4.255288113340903	4.977062212775922	6.0298290100447	4.795773017219229	4.0341448682022145	6.921469670940496	7.111362916158083	9.038862205572622	7.173852425582832	8.978007293922065	8.888588882892943	11.174060793321411	9.04351518255062	9.20077989162622	9.039808250492108
328	-3.552531948657062	-0.7204014640739529	-1.2543579308311585	-1.8679790449664235	-1.5918185670717426	0.392118810617356	1.1333905429834956	-0.2241489881578331	-0.9669038032915296	0.9796268319192276	0.7517677526567175	2.2100882474413037	2.040080780600634	1.4133472406943366	2.7154869964704704	2.2841682376412327	3.5971777348297422	3.3153376495580438	3.1859793582586655	4.1222982302538185	4.857668387546357	5.770821079943016	4.717047679435814	4.10289095796395	6.8279728717075585	6.875765306279277	8.808886505774836	7.10508678549766	8.88766763350562	8.751090027649274	11.022529574221569	8.915240265271944	9.037104583811923	8.93972489960954
332	-3.3794808302432657	-0.8217890241855581	-1.140657541256164	-2.0734333939655234	-1.3542610372683805	0.6655711514835043	1.2331222264627766	-0.4555546033801697	-0.9504800414883606	1.2787227598330588	1.0211915944066023	2.28443407435626	1.8283057166669308	1.3733785117760828	2.874598734273708	2.519761794404204	3.676257839457965	3.328572980106293	3.3523752604722232	4.279967297238555	5.132755266582055	5.881441101483796	4.7826471207985115	4.251790512794313	7.017329675123522	7.0765280544906615	8.948982216175523	7.335151177006646	9.09531495658976	8.9810275804745	11.285140962718696	8.962417579911133	9.143983817856043	9.245608306430032
336	-2.9171690867205493	-0.9398915147893251	-0.8879967309466529	-2.0683281369441113	-0.8731625058063408	1.2900123563621726	1.7134884552609546	-0.4436985839131855	-0.8626009800113204	1.8164185239708077	1.6220532614763035	2.7151672771567026	1.8594231558583862	1.438730593863587	3.2428202547216016	3.00924157336553	4.068453778485466	3.3572466288681273	3.491705885654505	4.645524966908872	5.646630749751196	6.2969322045607585	4.9444336766339365	4.442757118452306	7.38143013044205	7.554558258056701	9.365108466345609	7.734091739201323	9.48595998276412	9.423755621959257	11.813062638021563	9.149007774142186	9.448939299569014	9.799421285683644
340	-2.264305109029273	-0.968574163852498	-0.600180445586283	-1.8371928883897932	-0.25957941943434665	2.0861470646640154	2.356566184769847	-0.22247296515562542	-0.7500448804038345	2.427350753377754	2.346281522549109	3.305937997100697	2.065861458330954	1.5989384610814767	3.6438679603130573	3.517162075699487	4.5609736327412405	3.373758307522118	3.5892615227678197	5.036371218363486	6.113217815223567	6.770188314510921	5.081907259508284	4.6042566183192175	7.723815421630833	8.001140574281484	9.793654417106895	8.046183565805945	9.842210744804127	9.80350110439893	12.288988082376608	9.357436156489491	9.770128225454867	10.306117985454163
344	-1.6242845017431922	-0.8664799310742198	-0.4195052076715488	-1.4832793436748184	0.2860995523858834	2.7573180129053845	2.8156506944139923	0.05667233080264633	-0.6629040224504738	2.892032377570757	2.890554659221216	3.7416238690323116	2.268338912958908	1.7985284283052216	3.878998269778004	3.7716433906697766	4.852747428086126	3.3173899566817684	3.602467289412335	5.24846409426233	6.24789570184643	6.986322385315333	5.061336027718181	4.6553635479692375	7.848687152120005	8.104178408188819	9.924480413175518	8.018559435626665	9.941337560349755	9.853115056910385	12.376790969117817	9.438180899632798	9.899379705231079	10.474542591352174
348	-1.2292627065140247	-0.6664887053828601	-0.45983788254988217	-1.1717915505388252	0.5715258107060839	3.0400307101743915	2.807477467124447	0.20414872415975255	-0.622579513408454	3.0432832164222834	3.01097368433833	3.755334606226089	2.280056709255007	1.958147878471374	3.824787130235919	3.601118317095184	4.712823379061958	3.1297459523337468	3.4728841693934314	5.149117456787326	5.906935676919917	6.722963316156032	4.808678138036257	4.539987552624547	7.651536922210046	7.7007689281587455	9.556326842022496	7.535967330979615	9.658965086392266	9.442161536219427	11.886655777484195	9.278877234873868	9.70040986473001	10.157017682180703
352	-1.2351237504292807	-0.44514408595230637	-0.7482736091795164	-1.0399616930454307	0.5152984844549168	2.8501503395600434	2.2803528251295035	0.0911641789161224	-0.6123178585805413	2.8531556057420313	2.6601583890509577	3.2819683468926595	2.0168535658460445	2.0088274428194337	3.4954955489597563	3.031424991583448	4.1139593020522165	2.7997772622946453	3.1673080841206254	4.740879046868321	5.165328012776672	5.974388107474714	4.35827635618391	4.257197369317528	7.167807560943553	6.861083013378114	8.705942131950273	6.689486486711744	9.028587318513601	8.64070413315258	10.872553797927859	8.859785057587247	9.175297713956182	9.417897200648365
356	-1.6395935970872308	-0.27633932163087777	-1.200498220273782	-1.1258139581866458	0.19457888554084002	2.338574641999109	1.4582279883761284	-0.28568753527991375	-0.5961984976974718	2.450827353965454	2.0260205217707763	2.508883231504424	1.5483932456024017	1.9243220042281628	3.0361571235295086	2.2868502082307747	3.2640573896014544	2.3869197308357895	2.7229566505348632	4.162909020403972	4.289083946843223	4.9694561832846285	3.8456609152021386	3.8699307344005067	6.553739531182891	5.857553944103921	7.6109580801494126	5.738666996772245	8.224250772692795	7.684971789984519	9.610089277799846	8.2649707585519	8.463736512749772	8.49646184683463
360	-2.267126792905816	-0.1959926183043758	-1.6459029871393553	-1.3543031181474858	-0.1900672311752472	1.8224041415933299	0.7343034725723315	-0.8059847930586204	-0.5505370483803828	2.061241621535367	1.4473175965961185	1.792601223234432	1.0612484189896116	1.7355143980077736	2.6512379579363947	1.6913630919669014	2.5146176751544966	2.0047724196363124	2.259127611178575	3.6283569244330294	3.614775886945956	4.071073998663176	3.4458317669653944	3.4834408672122374	6.0102424469838	5.0365180842078425	6.623386366334198	4.9872083538025525	7.475885372360556	6.864571077181563	8.468178727704377	7.642903308645419	7.776381949818427	7.687137107514452
364	-2.832849495411219	-0.1928580547470356	-1.8961399745751946	-1.585163589290083	-0.4149624694837841	1.6264592368069763	0.47182991981590033	-1.2883210149662963	-0.4836221027084912	1.8961451005746324	1.2485073773333566	1.4840913973531882	0.7568842749559638	1.520380969977325	2.5068428453096243	1.518886800745868	2.192433113284829	1.7692770913276825	1.9404814194324205	3.328025094212901	3.3961355600443563	3.6074960140700485	3.2875831044163255	3.202315322420302	5.6889633988752735	4.657866466206326	6.047224029532032	4.637472617838626	6.961044770785647	6.388869746290308	7.741032104021446	7.135240059957662	7.296087246593799	7.200882893501647
368	-3.0636384409802666	-0.22319109681522742	-1.8257577373185054	-1.6914181666585346	-0.34368577512753135	1.919457430761746	0.8198347070975968	-1.579136486834902	-0.42963546406038583	2.055399412687813	1.5811279972211092	1.7553867057350057	0.745304999853973	1.3745762075051757	2.658051245654178	1.8692959499847661	2.442576879056475	1.7422229007603065	1.9045238446788442	3.3485309993124956	3.6949839498690604	3.7224225903942667	3.390919199965363	3.087592593980701	5.62977503308843	4.784304129919084	6.003834232430887	4.70164583926474	6.730935079746745	6.301301463430343	7.526370506357849	6.813473684274683	7.098366242606913	7.0791792690835775
372	-2.8223473954468896	-0.23627051651429887	-1.4310700857271053	-1.6230546195060018	0.012471451392574865	2.633056633977171	1.6426620441925208	-1.6224199492500357	-0.41949075354522725	2.4899728235321485	2.35681199432428	2.519533150987423	0.9941172574693432	1.3739691938043157	3.037333003958669	2.633613102939389	3.1647307792870447	1.901743049588514	2.1893567983664486	3.645355692242895	4.370152939253289	4.319664944233055	3.662338962845158	3.1357824723227785	5.760269627332938	5.274367319141999	6.392378314091509	5.014915453647149	6.70829675888105	6.483088000141786	7.707971076578062	6.6570877860794315	7.130911809083581	7.200527649819683
376	-2.174963945619584	-0.19604521940325728	-0.8407124259703617	-1.4217936956748423	0.5146023022056979	3.5058967978653803	2.5970637732739768	-1.4768643341924186	-0.4505818772860809	3.042576305337032	3.3049135124688838	3.4832568080696356	1.3560962642763814	1.54417776671595	3.5044059664940224	3.56208395058607	4.072700013368544	2.156525368014159	2.7033965519361765	4.080891598888634	5.164371477439731	5.125842081479879	3.9488830466706535	3.28926514748764	5.9521879999563	5.875360474057742	6.959366780830167	5.336682783004442	6.752792818186433	6.736972314991513	8.042238215168933	6.582490427564159	7.258964520247095	7.36763713883869
380	-1.3648822273126706	-0.09040119476144017	-0.2669269137795808	-1.1840229004530123	0.981113967802619	4.225257862867406	3.3101770794264196	-1.2767813173483364	-0.47799709318594985	3.539365521077999	4.119212617010876	4.2993888746431335	1.6548852878750389	1.850963587856063	3.9261622329767976	4.393879879348415	4.841059672530918	2.395511144312023	3.2599868692107306	4.503900993420003	5.837674126191465	5.832362637099651	4.119236935705883	3.471784106072234	6.100357040262142	6.359972460901842	7.4345664790322585	5.479736314289996	6.752981645700604	6.900464040500366	8.294141748468485	6.505113585260737	7.347753029391822	7.421308498719052
384	-0.7017301899359126	0.07107152026829268	0.08497191199068581	-0.9977653597436105	1.2875238624490828	4.588221538403647	3.5618870168402297	-1.1595929831791818	-0.4351396251659502	3.880811204648915	4.612411010541061	4.736303317509757	1.7792206957718766	2.2159714642843604	4.242230881470793	4.978551375217231	5.260597215722175	2.5444934303891262	3.664556732462361	4.826363074515044	6.276414378532239	6.2408819041041275	4.127355565140952	3.6291129497454517	6.179179652825585	6.63230369800724	7.659950237008141	5.396746621811536	6.690577490126959	6.925640565552769	8.348045328044305	6.395792468135624	7.334662895757879	7.317209702137394
388	-0.4174890805671114	0.26228088074268113	0.10540438416810269	-0.894089458115566	1.4243444168369204	4.594588268123901	3.3764221582996945	-1.198644873453815	-0.2727471881179134	4.082326878731202	4.794881808572798	4.7750744699082075	1.7300337509345138	2.5493411953457588	4.482449043400922	5.327211843392124	5.321922288809532	2.5978791648124457	3.8067147635670695	5.057474123583645	6.524208529212771	6.338325484485548	4.025225152343387	3.751898756091331	6.246968730413223	6.75120733463941	7.646718482738569	5.18229769351996	6.642053110519246	6.886103612680178	8.240305879768957	6.299495681116786	7.254696827691952	7.130342465518123
392	-0.5601232037707614	0.4453526426038489	-0.17145793096645573	-0.8402753451113273	1.4827659092660195	4.42496870831045	2.981343977076712	-1.3748085464099236	0.007751490901211456	4.245995510825302	4.8403482314926745	4.58922861847923	1.5978641469667574	2.7848417688631155	4.73138474223531	5.573210702176554	5.190021024951877	2.6063313418388354	3.710668554474236	5.279454217932867	6.726106626694971	6.269985183144419	3.9193265339126353	3.8698780438946585	6.3988222914311965	6.866803151913477	7.538124542277879	4.996351229450855	6.7197294065572635	6.9139633004150145	8.106324175395315	6.305978759103348	7.208331089893975	6.992477876175037
396	-0.9748538707915992	0.579167364565575	-0.5848913774028384	-0.7733420710112135	1.5838142593450644	4.325391281651458	2.668624155936322	-1.595947500014199	0.3509283652982257	4.486049163936266	4.967879759643589	4.430179584762137	1.4949132166312855	2.9039659426803976	5.066071497524341	5.874464497039741	5.094908224593869	2.630582325969502	3.5173616320496914	5.58406446954417	7.026067239188376	6.2369041285404405	3.8990368744637394	4.0230941670887574	6.698854906335308	7.114970189250783	7.508797149773799	4.9599838131608385	6.990560037129585	7.108670216732508	8.082739809610134	6.489350302524657	7.2939038092518995	7.005824071362287
400	-1.3849282229743396	0.6333651526672641	-0.9242566204577667	-0.6482985003315874	1.7964128210489052	4.46733425919836	2.64021705914525	-1.749703283660732	0.6765964014137066	4.853666293287663	5.3114724025138935	4.487805355185494	1.484516497678653	2.938259117337468	5.5045904974242665	6.316595538403936	5.203940378401841	2.694899790635607	3.4076218519007324	6.007732853026512	7.478443126870699	6.37929724036355	3.9815478224365717	4.228259552770716	7.13229129897878	7.532740097101044	7.661061744421106	5.0857510438308555	7.422283630705115	7.472299080102764	8.224270799853388	6.852156144961931	7.544738750482615	7.184039574604964
404	-1.5347188672418455	0.6043499692917289	-1.0299026940092428	-0.4694646287032503	2.0913641399987437	4.859704959043901	2.9197366163924117	-1.7609275534993367	0.9232091284331286	5.303190217933974	5.84954355670349	4.8017988083722285	1.5492479762063227	2.950254194440362	5.993217929967456	6.86990926915417	5.544425473519982	2.7692534853636537	3.5081860930561337	6.503067477020053	8.021079996838564	6.708917600859463	4.10584973252313	4.461688507259489	7.604937057367983	8.040112475123031	7.97453735245534	5.279654489538806	7.889590243447398	7.90702340990729	8.479388215591115	7.308709602976726	7.906494597500179	7.450535278583006
408	-1.3189396824915307	0.5252403603644168	-0.8687014557840346	-0.2857417755065224	2.3567349851234245	5.35583923894973	3.367789259990802	-1.6254955489126808	1.0800381871611662	5.716643795839079	6.427355273231717	5.264187799514379	1.6154979426604565	3.003426782654503	6.436548216781505	7.417062263835974	6.010837539755735	2.791645758256337	3.8325033091104803	6.96194217831512	8.518634774635093	7.120336991452809	4.1764273538048995	4.669476020467786	7.989521006439727	8.49195192100373	8.329687097499836	5.405582414330732	8.23664758510046	8.271850565053086	8.730258919608605	7.718337516371225	8.264620760078662	7.686832885408286
412	-0.8327932336762078	0.4603238690198313	-0.5442612157431821	-0.15409833153919228	2.463476651647751	5.744207367699419	3.77947687148496	-1.4057271445069104	1.1880969971224138	5.969974979586686	6.852049333438764	5.699970707807443	1.6146873194935578	3.135293237399697	6.750780565383896	7.828051070476549	6.441970332093742	2.7181303432502957	4.284418572099143	7.275115948428973	8.845451332647851	7.465507965312781	4.129525174205299	4.7979030487995455	8.192130068123012	8.76511571578525	8.58535764433968	5.371227250843251	8.360140779368749	8.463436105340863	8.868264175913009	7.952248076388568	8.505356767161292	7.79965780196303
416	-0.318839161783128	0.480672388055294	-0.2369512611605599	-0.09877128129102032	2.340744966319191	5.86593626448681	4.001151551635124	-1.1931455105221431	1.3063873019613936	6.001424297439413	7.000438195673981	5.971180900756737	1.5392218789339678	3.3425576602467664	6.907209855760434	8.034398058633553	6.7159571478082425	2.5653803283771635	4.713300216218958	7.392412643842055	8.956453300751386	7.642333011405648	3.978640784708926	4.822679984314382	8.199021318715966	8.826902367240582	8.660682656356535	5.181869016915818	8.263184526561782	8.471693971225775	8.856443382790998	7.955833414972045	8.57298372011555	7.765188674395027
420	-0.04033806164809133	0.6288988574362309	-0.10408864144033025	-0.09374102926428796	2.0181467482158264	5.6935114716787325	4.001009930999495	-1.0604569885182822	1.4654815159991115	5.844406590011138	6.878868085659871	6.044392093656613	1.4574034177223876	3.5839641003721368	6.942799550647385	8.061086634310799	6.808952791189173	2.4158060489696456	4.989109026710351	7.349286537688732	8.907532669466208	7.647008399730025	3.810333242332958	4.760149943731288	8.079169252978524	8.747197129099533	8.57511804323028	4.932292448942422	8.05082128399492	8.379936197104414	8.744834877823758	7.773314933224608	8.493033387675805	7.629258136560729
424	-0.1451605256707211	0.8913401938822423	-0.1932865674384052	-0.079701348937987	1.6133234460152508	5.333623872642293	3.8638682267864186	-1.0276997063439064	1.64018642488267	5.608968720579926	6.608355505471268	5.991061195506349	1.4801402054610033	3.7982530497975397	6.934977037086814	8.003934840021499	6.791378004093653	2.37934946413127	5.055427061668647	7.24606702882458	8.818654991773123	7.565783958406777	3.733843078722977	4.653885829619696	7.943222502680887	8.652349450200816	8.429204919514202	4.747847545080709	7.870753745234458	8.312718370430861	8.635629632127795	7.521791439139185	8.351604440584147	7.471218567105004
428	-0.5920390471769675	1.196777579147006	-0.41670048131640164	-0.004174636666367595	1.2745546070344393	4.961374747147805	3.72559546483694	-1.0573819849020833	1.7592101052691147	5.424913392675481	6.351591571030423	5.931163772867047	1.697552319055462	3.928022136307673	6.956824285109047	7.9716701306303035	6.773045045918504	2.5301110680597154	4.935670840199762	7.192373734434996	8.80513093632631	7.517718296144097	3.813784828093897	4.544511306732999	7.882328490383458	8.651643731208457	8.342531183160766	4.71146773102461	7.832500914825666	8.363745668275662	8.622638680622508	7.327689629173923	8.243940332579607	7.357228737375711
432	-1.1770215004767928	1.4447011911156638	-0.6015523656916144	0.1413242366322119	1.1096619339583216	4.727224338040492	3.691615572192018	-1.0791453095846852	1.7467887357478635	5.37736605240246	6.227009280695549	5.959247097228517	2.1211416667790317	3.9394509692866304	7.038049203269452	8.02838704943242	6.834765417009013	2.854995481912313	4.699470031317352	7.247499924481363	8.917105652230125	7.584707240982291	4.027053822840479	4.442453373183297	7.920857409506152	8.778726555594636	8.386495569036095	4.819365966073238	7.9496683873692024	8.54487512338476	8.740158058987909	7.2607722099092795	8.222415903312662	7.310802918095952
436	-1.6401137072162277	1.5500051936116375	-0.5920497164083554	0.31177574317417617	1.1397005290820665	4.689266192994725	3.7870528602353635	-1.0298433277831964	1.5741088350607915	5.469729886550367	6.258532985144768	6.096998676165396	2.6655092172082244	3.8312239550182516	7.153573494969969	8.1685981544251	6.9869913878466035	3.2482957757954236	4.413839329066088	7.3908977321942695	9.120373702864383	7.7686710161525925	4.271736611071591	4.321663845595196	8.00857160453616	8.980382896638236	8.549618699422588	4.9905409686928195	8.136559465846322	8.784365631813309	8.948951698597476	7.302014809292456	8.273600557419272	7.315434437401885
440	-1.797989363899234	1.4827754460091596	-0.34450977953714834	0.43191733847288327	1.2973637548116297	4.800859916010097	3.9589509864035355	-0.8886929131958718	1.285243388745734	5.629760251136563	6.38116262732173	6.293013079967382	3.1782188335285033	3.630065670385136	7.241650563076453	8.33186624330732	7.173194390306173	3.557002535422508	4.1106696025060785	7.535668354082176	9.322794890707812	7.995084265550437	4.421605575842134	4.136911858604374	8.051680544551832	9.152839637535832	8.74939820941624	5.117858396960242	8.25621507467508	8.969781852963829	9.160651183841795	7.35904357959525	8.331957796041465	7.338305931637353
444	-1.6293625790466553	1.2839281526574409	0.042424410474477404	0.44115975387771006	1.469096060858455	4.953952776799112	4.120586384860191	-0.6876262409015449	0.9850675438805888	5.754518494382371	6.492749674616904	6.4629292324924865	3.503623715137965	3.3810522470941566	7.2415909584318285	8.44447419895563	7.31065080704287	3.655238619158861	3.7916850947970326	7.57905672067185	9.428839659727183	8.157136896519466	4.395574081767233	3.8575925729631515	7.966342905912308	9.202586150776934	8.880681015481267	5.1287097801420725	8.193941095645295	9.010389305253884	9.284773803157321	7.321917992225604	8.321892717331526	7.356490116619519
448	-1.2697830168136373	1.0463957760141105	0.38159429930664757	0.3324198118400114	1.556258316879236	5.046830164565107	4.2047166718181925	-0.4937980460574332	0.7923957089445225	5.768266663292972	6.517392142053468	6.540088160215159	3.5473949819647093	3.1350700776102216	7.129402619481678	8.461236932372781	7.339577179497914	3.5060491473370416	3.458557835429968	7.461111049888092	9.390055632725494	8.172487238277586	4.201829899669719	3.4961843402330417	7.7244767947675905	9.096464134138127	8.871199585451496	5.021074759204108	7.915606001896119	8.882924057467791	9.2719850306066	7.1260232745500245	8.201948145185627	7.368169765943058
452	-0.9269371605358377	0.8734039046170717	0.5049239384300847	0.16081912774967905	1.5224813184446173	5.03655337015746	4.194962490934617	-0.37517475987125626	0.7814072350800538	5.661766991625822	6.44313715261692	6.506836397908976	3.3111948883380347	2.9366166517501844	6.9310755554682455	8.383164384657299	7.25138710098522	3.176962606038389	3.14223217170835	7.197858315414801	9.223402953702893	8.020589808241168	3.929566373440615	3.112590543517807	7.367274265762213	8.872915245542378	8.712387062964275	4.853726851606602	7.480610828586418	8.635731675279393	9.130057311848724	6.787636739759837	7.9856715000712715	7.38138244672635
456	-0.7667680363369545	0.8360095599048122	0.3639056077352489	0.01809530328115892	1.4064514601483922	4.9524621838463325	4.123498906215143	-0.3661399772459803	0.9447863078105667	5.49534176392711	6.318078501962203	6.393698199342083	2.8861386703102463	2.8156795430619908	6.70887516235249	8.245909670038014	7.084469777340484	2.802423708515991	2.908106319714622	6.872317773634173	8.991964317507433	7.744637469765518	3.696950664723104	2.7912793089011836	6.982819539560017	8.612812020491068	8.453322389240908	4.702711570310632	7.007194024514346	8.353802659877914	8.90952680245678	6.394436820098274	7.730243663344339	7.392931442668871
460	-0.8327870943978114	0.9482336616417373	0.06499405188840365	-0.013721292803811312	1.2959822383585136	4.868976580724594	4.043245305343545	-0.45101109033202486	1.1964045732809436	5.364648805425291	6.212995513488499	6.253342612690831	2.412336820233898	2.7828309465720498	6.528714163509257	8.090703943806334	6.895598394150346	2.5131802495447224	2.829828732021629	6.58883379226372	8.763115860748794	7.422081928587705	3.58621048021876	2.602500670538082	6.66181085811951	8.389414766111244	8.166350344067006	4.613602149759245	6.612100107665182	8.10786626676105	8.671586968462792	6.05868767162345	7.502170066965824	7.376595001670077
464	-1.0400481197801368	1.1688410014206032	-0.18639491451410115	0.0956377459137999	1.2787071434161672	4.856325137275091	3.9938075441616006	-0.5743910655778476	1.4136167728973303	5.346667276234849	6.173468097359048	6.127590163972681	2.0240678736128643	2.827773802293541	6.425755007732827	7.935636977187343	6.725994569963076	2.3731388985799335	2.9459004327783807	6.4161362486018385	8.568630196872148	7.122539979118145	3.6023831276541243	2.5688545639030598	6.455674155148744	8.2271194250293	7.906099776334183	4.577069270975749	6.358309729735385	7.918260077511977	8.45732019196519	5.860546574101248	7.342049580156955	7.292187672323859
468	-1.2437325684617448	1.4241359197900225	-0.20401787706363972	0.3078142396784712	1.3925437892087742	4.936214911395898	3.980311622107051	-0.6714587194656184	1.494702454607892	5.452453122677971	6.18751667367856	6.025931343123388	1.803388471818647	2.920155279416257	6.384236796472904	7.7622747225286055	6.580747587755327	2.356199496996114	3.222820989101318	6.34791181868986	8.387107827945682	6.875752431676038	3.6778838541633325	2.6527798108835516	6.355745299505044	8.08993718965788	7.684375743538269	4.539388168318199	6.234292491431555	7.751298884848797	8.272016504383721	5.8100280615029645	7.246360283676134	7.109891396691584
472	-1.336044427359539	1.6378846127165456	0.06750982237698984	0.5322819338711137	1.6005531509043653	5.066605078303023	3.9749932188764605	-0.7009609323923837	1.401306983270817	5.612095818655527	6.1871466480447275	5.925961479484187	1.7597271159565913	3.0138349456989038	6.342470629891342	7.525452594830625	6.431965811702742	2.3730111062218575	3.549854031183354	6.303420527756047	8.158054331209533	6.665798170426337	3.7172946836078973	2.7709360052721257	6.302002414051132	7.904963950226211	7.473093013969168	4.43889664482924	6.171144946730148	7.5474076080503405	8.090568522053747	5.847218021888805	7.174867135052926	6.834506971269919
476	-1.3105890717795816	1.7544974044372021	0.5140366541282076	0.6668875200600453	1.804149623130507	5.162445055325454	3.935948600368471	-0.6636412126951945	1.1686475247441508	5.7024607514412935	6.083474143881427	5.791799053828041	1.8407630873935357	3.0573329848346873	6.222299083258711	7.182094555841564	6.2413887820020175	2.3310809076582877	3.7740986251911655	6.1701407276775075	7.8210296433397355	6.4526018933461975	3.6549625304449584	2.829636805065937	6.215960010093563	7.6081871794300895	7.232204895833456	4.246538151509967	6.085854514969167	7.263903599519293	7.879629592074842	5.878805145679904	7.07852743268996	6.514162523989111
480	-1.2594361273439112	1.750754590382626	0.9102954841519202	0.6427484138473395	1.8883719396598093	5.140254961387338	3.8313901327674658	-0.5962958916867889	0.881457147756987	5.606056676062132	5.8173508497230015	5.598664269617173	1.9651044557548358	3.009051076921309	5.969229683110296	6.724413377950467	5.988612636705158	2.1919505540819455	3.763373603855939	5.86697863051201	7.359024982946127	6.206581100052546	3.4924104125539714	2.7643406321350907	6.04051540757021	7.187521439525372	6.944898587812497	3.9870874781080103	5.925921425162998	6.9070668046133346	7.6237158582849265	5.829102501457247	6.930630189563608	6.225153430480508
484	-1.3085695472104006	1.6381450850135564	1.043097970236304	0.45303770785391617	1.7778946116382617	4.963836657389392	3.6581203845171855	-0.5458807335422854	0.6306249483399234	5.273168550529302	5.399879441933021	5.351083741982976	2.0600879140340074	2.853710644192778	5.584138379303505	6.200038894258516	5.689721569954902	1.9929023930778411	3.4673137577253663	5.394623742788576	6.823121530472249	5.936234459194577	3.2947881138585835	2.5652477676475174	5.767808422785095	6.700201971303831	6.638879759239416	3.729423275114751	5.6931738709715765	6.5356817080473295	7.3411187940264915	5.677500710458169	6.743030531071188	6.039227470409155
488	-1.5315405091718672	1.4580285512352136	0.8303067663210353	0.15379363259586978	1.477185245599079	4.668113219873082	3.44593571746562	-0.5394827113836036	0.47392850994617625	4.756165492447403	4.921488749476291	5.086345659765634	2.0900096840542877	2.6133038931670565	5.130874143997692	5.707337365045925	5.396761403763403	1.823415393994036	2.9462635442734357	4.846641051453593	6.324027522332926	5.692735180787137	3.151772014289855	2.2786030711818945	5.443324552144378	6.2546562990583645	6.380866511447234	3.5525886922787446	5.4379224639927335	6.235124095433362	7.0808663189450405	5.464035974058639	6.559409124979611	5.990920051707877
492	-1.896242256145371	1.271386262544758	0.36555793789121815	-0.1606696393009598	1.0747739049478948	4.3475074658302395	3.2463247694069675	-0.5679845199549846	0.417915492194758	4.19618557824232	4.520344245941964	4.860361086971932	2.0635857529991752	2.345073217193273	4.713826644440284	5.362332807353745	5.176428304954457	1.7707465842362649	2.353079789896447	4.372100342202475	5.989669307845068	5.546014294927104	3.1268048207493755	1.9854649255215457	5.14524744642112	5.962961181844384	6.244162543744283	3.505680075377524	5.229408727794326	6.075350746074788	6.9003920380896595	5.262521253650667	6.430173857666738	6.061214908555546
496	-2.279854053463282	1.1417868108532274	-0.1366136070617	-0.3963439454562369	0.7046588045449127	4.111128796688269	3.109095088738424	-0.5936689957888801	0.42473548543506173	3.7631738090871565	4.319562901081457	4.720700252058428	2.0187380262905057	2.1244597381360104	4.433066833747768	5.246922002896595	5.0765542855838115	1.865712995587074	1.8752050352435898	4.105220784313048	5.905217155806092	5.543173299145702	3.2219350256636137	1.7689622595947738	4.948520647906577	5.885878548066831	6.2650213083400565	3.5809945969769243	5.119294630477123	6.07457970039192	6.8336043185317195	5.13803480758435	6.383262141323998	6.185562595009176
500	-2.5406615669954804	1.1129866810354987	-0.46049564960564027	-0.4962523865091529	0.4824610042311981	4.026583184566521	3.0578250807807104	-0.5775058850966558	0.4375899125018354	3.5768234639460736	4.362858761262673	4.680184829339675	1.9936394641132726	2.018043512971336	4.338091839328133	5.3625712259322444	5.097510324959614	2.0604577012492604	1.6625920492157498	4.098258008146545	6.064671024269477	5.672495827658305	3.3765964422805776	1.6836625295092316	4.890454279950153	5.998382553214915	6.41248129179344	3.714213600317947	5.11632679601196	6.187726482027639	6.866371137449236	5.111781107394286	6.40723417571782	6.282674296729325
504	-2.600380414119485	1.1878924339820611	-0.503751157442445	-0.45952728274674176	0.4489768434156215	4.0828051463996715	3.077068321088571	-0.5085985051665652	0.4103544344078328	3.648822059955701	4.583471763482778	4.705847728292216	2.000607247069924	2.0571536965884127	4.404128540363798	5.6159958697626235	5.1851191389779245	2.2511100712207903	1.771955366429258	4.292841423640377	6.3613738853062625	5.8554296345694885	3.49918793748498	1.7385374263738596	4.9541129940838635	6.194746001815824	6.590501291801746	3.8110949896912647	5.183691488529869	6.325774176839014	6.933766824382349	5.153198229176925	6.456828101068681	6.289751036976351
508	-2.4859561857401657	1.322672125337942	-0.3213734916679343	-0.33776891146258414	0.5496764169166438	4.193177212618812	3.118586532348494	-0.41568773879957993	0.3292908362181048	3.8765480420467635	4.826406943533488	4.731150615191224	2.0180063196730904	2.2240350190277955	4.5432066802714495	5.849843010438086	5.25141810044994	2.33263301260432	2.1491963809110812	4.5454234962143385	6.6266498398367	5.974904998952901	3.5123274237646718	1.8977100801239037	5.0762920251474615	6.33289383243017	6.674929601982872	3.7869882488005904	5.2575263844311	6.395273669308809	6.942713243121969	5.19967077849807	6.475338442666234	6.185152038217
512	-2.3095726908546803	1.442290540868454	-0.07574093322704645	-0.21097885018964255	0.6612366421217367	4.238638867167118	3.12402962849564	-0.3536917558323254	0.2175103718511229	4.092473973432145	4.9177965993696455	4.687110889045089	2.005372280779817	2.4559650359135423	4.6452135922453515	5.9091272204934855	5.215223776047914	2.2544076385800182	2.656502716986823	4.694909560747811	6.702123148209381	5.928736671737922	3.387543431312387	2.0955166763804716	5.175311075495607	6.297990783049297	6.570076925855998	3.602180710280978	5.2751316891046685	6.338337405414473	6.812539560284121	5.188831316245164	6.421063883782269	5.990073188917046
516	-2.1968450490799643	1.4770847521682415	0.07061368954234822	-0.15249463877323696	0.6543920619655251	4.1323528185463045	3.057292453676342	-0.3695859899726468	0.12277045069930793	4.146812905332306	4.752610671441974	4.540949810007372	1.933386678582718	2.6701717309293627	4.630503165951926	5.716914162507098	5.045851217881788	2.0471603818706017	3.130120269501991	4.639868724552548	6.5143737628496625	5.6833753442324	3.1546668926699972	2.2601637783207345	5.186892496364805	6.056051715819558	6.257949813301758	3.2784922040181352	5.200160967095465	6.155033096032301	6.5153603389274934	5.0869097581223635	6.284661277162541	5.751349434636953
520	-2.208101267008088	1.404152151377342	0.0506156644437314	-0.19687031159763865	0.46168440463803934	3.872093906163234	2.92903279518669	-0.46756422401635217	0.09692090725270423	3.9819829363423334	4.356173504321544	4.322094906385122	1.8107616855680366	2.799726717556003	4.488201130025804	5.321143136894995	4.786969172789553	1.8064951851057862	3.442918291936129	4.38674258078245	6.1149520719635735	5.299162374468802	2.8848469184519354	2.338829988296682	5.0925898423365386	5.671387658105439	5.814406380278531	2.890594713542404	5.0353727213567305	5.899138435728665	6.095476135123097	4.900391566302017	6.090103610875187	5.516507611651991
524	-2.3063492716733656	1.2683460680410201	-0.07918640206133072	-0.3252938083542034	0.1133861762402739	3.5476138502197716	2.79463433513783	-0.5986880048895201	0.1743589784273167	3.65859793692992	3.88114093754298	4.115113724809311	1.688326950578998	2.822333567169337	4.279513825102248	4.881474482609543	4.541903007484213	1.6396425921051123	3.54578994809425	4.0435433285666695	5.660613522543041	4.908117758756876	2.6555824212738144	2.3146462382051523	4.926777827221726	5.276733385115029	5.378931031951732	2.53429745987959	4.817879664654871	5.649560914080957	5.6543273783023205	4.66745423092211	5.880496963912938	5.314121232921024
528	-2.387877219847044	1.1673847407431275	-0.19262182663922595	-0.4747723030978087	-0.2767723791764	3.2964262879114545	2.724076025760919	-0.6842317563901567	0.357519208482269	3.3206369793023547	3.536848536144779	4.019014348373472	1.63356327598124	2.770866625465782	4.105168332225778	4.597534168079842	4.42416619137522	1.6048195321573266	3.476491204067552	3.7637860679967434	5.340792165623462	4.652754295046138	2.516947978340752	2.212521070616314	4.760335433385361	5.011067377790166	5.091041075250605	2.286633724161497	4.6022319677505985	5.473371015081213	5.306930051756319	4.438706863640754	5.6989736413121586	5.148975836151697
