time	FP1	FPZ	FP2	F7	F3	FZ	F4	F8	FT7	FC3	FCZ	FC4	FT8	T7	C3	CZ	C4	T8	TP7	CP3	CPZ	CP4	TP8	P7	P3	PZ	P4	P8	PO3	POZ	PO4	O1	OZ	O2
-200	0.5480712638368952	0.8598112442242963	1.0524940464149737	0.12195737629139905	0.24187700389352307	0.754702804567337	0.7224407177805047	0.2401552939312104	0.32249906577703097	-0.014736421369063186	0.27479687263727454	0.3100421420852608	0.24834026333574677	-0.027508795191930027	-0.7729272226846242	-0.25253629620688955	-0.08155702033909412	-0.2828432910453803	0.12521205810881958	-0.5550416693979099	-0.5193098770381728	0.0957714912857576	0.29180154130695785	-0.16403739112923377	-0.4621536422028489	-0.37511235380833396	0.4348775733458568	0.4263184655870099	-0.06427033229336808	-0.13903507555190903	0.6004827603438205	-0.3530876031544074	0.15844401677182704	0.6038057192816589
-196	0.9902002786431731	1.2822414604238455	1.1482931346511924	0.4017607261527812	0.7046511155457561	1.1293191881277471	1.1664627761000697	0.6307091100981338	0.6628972871256311	0.42901456247732817	0.7842777351605446	0.946199414725334	0.9568995809237519	0.10143291179558422	-0.3537158361087539	0.2727138095169234	0.5695790038033453	0.14380311929635586	0.12714809147204223	-0.2029519672038126	-0.02406636060658619	0.5413520918529744	0.37055882717989214	-0.009911573466966249	-0.21921329144921756	-0.09033668763479487	0.75976103352414	0.3967427303310998	0.09648702269273783	-0.015259060970166362	0.6444017870845897	-0.1875389809641927	0.29481366202307735	0.627704976404394
-192	1.3020979133156072	1.4711011611036366	1.0504118177596473	0.5556865916527514	1.0734488936978832	1.3259062733552893	1.2135863273498073	0.8565412142108849	0.5997710808869993	0.878728923963216	1.18251526057187	1.2399773566410865	1.3376750912271873	-0.00440114130086152	0.14136847817968473	0.7557560186378589	0.9774078702091317	0.384626924020518	-0.06360903366241594	0.13315898146388525	0.3919792463419668	0.7821222523969742	0.40261408584987596	0.0752766279465796	-0.022526292073477647	0.09144394076624997	0.8375238755061525	0.3022813491341976	0.14741305969690197	0.031522300014779916	0.4858718800198582	0.03204182154791115	0.3515093019670623	0.46229493501293223
-188	1.4170471394047828	1.4176951611011448	0.859889326308755	0.5683527574494771	1.272627946501584	1.3195633854928857	0.939007518304893	0.8921703673725779	0.23073497356333947	1.2165862291137788	1.383205171907523	1.1947777241105515	1.3031941619395484	-0.19812659869239774	0.5952916726341485	1.0730801793662335	1.0845193835533558	0.36860102322022026	-0.3102394632612916	0.36381578353579913	0.6167085155175457	0.7673381547627917	0.35529854803980127	0.09162178612464952	0.06268241240649661	0.10265639398405788	0.6372570379380472	0.11902018606415364	0.05008283617368765	-0.07258085888180679	0.1241336014712989	0.157375827034343	0.24319273172013434	0.10502532098003003
-184	1.3199411597305182	1.1801806658512017	0.6855112892963194	0.4649147081558083	1.2687205044185539	1.1431878776297804	0.5392981157992003	0.7631055693433326	-0.20375139959868294	1.3459355797164634	1.3565338815772174	0.9336841082841537	0.9242983437090041	-0.3162235609653757	0.8798975922303764	1.1570408315056326	0.9216508842086998	0.11184109719172658	-0.46722495437914724	0.4225192953409409	0.6055060013742289	0.5163907991723128	0.20178636857585028	0.06131793543116274	-0.0011241532600973646	-0.06272225066084777	0.20851549453542337	-0.15777701099615207	-0.19888263890598118	-0.35453563839092483	-0.37538710141773246	0.08221774527534174	-0.07285419088089544	-0.3847104301276375
-180	1.035207507380859	0.8423804619501897	0.5754252061620897	0.2965193681383082	1.074312088161341	0.8641889669534171	0.21395130401476414	0.5313631282742207	-0.44076317437469825	1.2321227757817061	1.1383670539725181	0.6170366390862058	0.39569014210934633	-0.2553252273312111	0.9129390097456792	1.0243742440109938	0.5835633263159509	-0.2828045182240518	-0.44236650951278583	0.30357059759743427	0.4054456938997489	0.11497870058594264	-0.05256459848722504	0.01725879679733187	-0.1938989604584426	-0.33250126158689136	-0.32556649960336237	-0.4913367914669371	-0.5447400794580985	-0.7530092577996095	-0.8830971695538412	-0.18700273287766359	-0.5434029684652281	-0.8839203096961111
-176	0.6119732841299648	0.4764958011994601	0.4938758003163464	0.11580914974775969	0.7451868038436819	0.5569047317749505	0.05983187988195523	0.2693481438512113	-0.33312714015777517	0.9240771508728011	0.8181983807887093	0.35727003126541457	-0.05885906875174189	-0.01919806184988027	0.7052745801285325	0.7713890652254339	0.19111522983936458	-0.6608643515114095	-0.23069764615464314	0.07599810491686118	0.14207129144561814	-0.3071655027263737	-0.3529735496669177	-0.01291577607857635	-0.43441694865219554	-0.5730525240735062	-0.7983873466361517	-0.7986158112389989	-0.8815116264021742	-1.1207376690225213	-1.2373203007929976	-0.5271992670100143	-1.0160011027433764	-1.2349405257517039
-172	0.11065228255468289	0.12272816120394657	0.35328626543494224	-0.0476065425862946	0.36426386145176687	0.2798464291182848	0.03592512374986823	0.03260242185705981	0.06784155202664974	0.5384933934921194	0.5064629303542997	0.17776855781495624	-0.2898061268165276	0.2845524840323217	0.3654431989503152	0.5330681787383608	-0.1445469405577912	-0.8736259915229441	0.08953755326314763	-0.14144170248560642	-0.030919056307692427	-0.6128815993094037	-0.6014676078869579	-0.020081879520378335	-0.6115705355462343	-0.6393352730821837	-1.0486050817717771	-0.9715310906676947	-1.091933843716826	-1.2800393072235337	-1.300863739544004	-0.766628442259243	-1.2993584838486467	-1.3006067243163812
-168	-0.39956679839342774	-0.20280884155090703	0.08308358469490483	-0.19478049825128377	0.020114950784919435	0.06877528113644059	0.016819279598448412	-0.15385909339682907	0.5349471555555162	0.21429608708159692	0.29717549606633914	0.03479840225136253	-0.27558132936518287	0.49475693577783636	0.056627847111304704	0.4276589144399794	-0.3447275451062854	-0.8338232615399708	0.39355474611101454	-0.23238889814355246	0.005613487199677329	-0.6970270854517847	-0.6901410204629143	-0.015066914222347119	-0.633259175609121	-0.43454193959197396	-0.9717165207171228	-0.9191361642519751	-1.0972601147605072	-1.1036245795042652	-1.0162316535087856	-0.7790665010809893	-1.2537819115455036	-1.020380136774679
-164	-0.8399138429416773	-0.48520132776782804	-0.3093695632753134	-0.34591412456915566	-0.21351787394021302	-0.057177550946357875	-0.10613764050627825	-0.2919058792373737	0.7830175141592403	0.05961078390329973	0.24028378664386055	-0.12234004556047151	-0.10877975048972749	0.47399067759052005	-0.07318080943227875	0.5116929995015564	-0.3737088730436737	-0.5485956058956605	0.5602139816445251	-0.1354021277585377	0.2886575751169281	-0.5184680806421352	-0.5503999576977455	-0.02001044707908568	-0.46758183718883883	0.04702373954702316	-0.5578632340651636	-0.6130509957094277	-0.8901166893420268	-0.5791839942614253	-0.4325727213428564	-0.548149465130643	-0.8605733492104704	-0.4391005624175312
-160	-1.127601739897525	-0.6934129578249536	-0.7246477585616756	-0.5169429169954732	-0.2954731576135296	-0.08774405695696487	-0.3424494257863993	-0.3944253017480836	0.6226860865130434	0.10954075278997595	0.330870001672797	-0.29676100536761757	0.07378634791818431	0.1776614035650818	0.03784449761491821	0.7615985851132813	-0.24167782007234778	-0.11643601924586038	0.513714014186853	0.12510018019085864	0.7580640892916691	-0.11646416753928449	-0.19525657544906402	-0.05737029374062337	-0.15871739347439917	0.7103607636636649	0.09659627800633527	-0.11564832896598112	-0.5360357151803008	0.17328593091129574	0.3055084638034791	-0.16947933988697092	-0.2357261919984231	0.30223360581385306
-156	-1.1892224520222212	-0.7789658884408625	-1.0106699441188358	-0.6933308822293052	-0.22202032748434392	-0.01636216412823945	-0.5874560460517587	-0.46462878467554264	0.07018040847940864	0.32003834762833644	0.5213021622847602	-0.430330245600456	0.17738701358355105	-0.31897002378040196	0.3368349364836342	1.091734406575911	-0.00022671808198595553	0.31265604417064136	0.2484736585304173	0.4507058251445784	1.2827364173928106	0.3982132067163185	0.27178025177048587	-0.13780339027421887	0.19418005596249366	1.3915226424370604	0.8139345625354669	0.4290798593655148	-0.1409234401005929	0.9453977918597736	1.0069351170866394	0.20885328895767385	0.4248829473258638	1.0140771840241738
-152	-0.9865947936898127	-0.6969792825267955	-1.0371987793484878	-0.8220529535519572	-0.020822513795971373	0.15616409441144102	-0.6856856328818473	-0.4866457569233456	-0.6491324289145345	0.5976961836029617	0.7461131196257974	-0.44179928191221296	0.193634122121213	-0.8443375208518037	0.6860756856762726	1.395701762490291	0.26852112940704076	0.594477353979283	-0.16814283984170786	0.7176573258400669	1.71345901056651	0.876302120857313	0.6904721242638056	-0.2520267659023136	0.48316520330511903	1.9158328723221056	1.3900649512481138	0.8432524182964073	0.19633179853461383	1.5239520034460923	1.4991645775138014	0.46804788590516094	0.936378774663001	1.5231357774425989
-148	-0.5440368042561693	-0.43766105064519517	-0.764513729072596	-0.8305937030802596	0.2599112980956181	0.4111449410071706	-0.5330675230872699	-0.43394422421567547	-1.2086646526338398	0.8441228249218649	0.9452699995016978	-0.29045319483857557	0.18267777516019715	-1.2008868425567363	0.9306626296388282	1.5873571594215687	0.4716497945798439	0.6425834281910178	-0.6151137336459617	0.833904741089173	1.936397786019879	1.1780446738064239	0.9090462304052268	-0.3715601554072682	0.6365216954373097	2.156174415866608	1.6616175132761326	0.9844089721621282	0.4193078268908734	1.772107119854473	1.6810116725441835	0.5714957103605484	1.1998944252237316	1.7255763964001742
-144	0.03967192386505371	-0.05060486855247371	-0.2700103216506717	-0.6697353703755785	0.563090322980189	0.70353418411013	-0.1533745821418344	-0.2932827167258867	-1.3478152717893543	0.9939815972981769	1.076523420476925	-0.020676296152125906	0.2121271336683413	-1.2543392149727464	0.9718376969596453	1.623510833455961	0.5335109220386345	0.4548498976667694	-0.9541069245091414	0.7768700103219169	1.9057646941706454	1.2202155559249892	0.8507619478680543	-0.4591563928455633	0.6411286576296578	2.0695762582025568	1.561082836024465	0.805183647030217	0.5216226564589083	1.6717083411925502	1.544521804724725	0.5620833025092513	1.2244865863402312	1.6097004372963708
-140	0.6037058815019122	0.35416614919889505	0.28111615706040677	-0.35507687836644125	0.8283296802588273	0.9613975858257257	0.29817664547978134	-0.0883157996093681	-1.0081590388593673	1.025603649411027	1.1119565935670912	0.2427638912032193	0.29442912265827975	-0.9951888893750543	0.8040458539689723	1.4995249471952037	0.4203475107070656	0.10404611352639039	-1.0773110362509983	0.5906205162395395	1.6427305895338393	1.000680682516859	0.5455312119062049	-0.48633774992224643	0.5317100869105823	1.6972689585749152	1.1348942489580927	0.37094080354497083	0.5261245952674273	1.30870949891598	1.1591973275481615	0.5114997016390378	1.0895725461153658	1.2409411637446712
-136	0.9690820550293467	0.6359711869395541	0.7024120074657769	0.0178011785743219	0.9927831267087041	1.0981297465255846	0.6066530927600352	0.11361440242454265	-0.36521071103395575	0.943033216002859	1.0266423199482606	0.34940990717408393	0.3631324162851746	-0.5427697287207331	0.4971665131414427	1.2281279532896558	0.15087558291012954	-0.30213662905704836	-0.9508792137934136	0.347246169167233	1.2083581655511786	0.5913689121574497	0.11047763349535134	-0.4524181473753626	0.3573390236415679	1.1345497341121609	0.5181877003938198	-0.17162723795951276	0.4532620001316397	0.8163012245549432	0.6333401783211663	0.4579069006802915	0.8768750407014476	0.7242247443987727
-132	1.0035515998298623	0.6760936958409401	0.8574848153399418	0.2985710494132643	0.9984772180143657	1.0392516825186588	0.6079876407531868	0.22018112186631442	0.26065239244456184	0.7534386496594874	0.7962084988518884	0.20356680401427962	0.30828806680091686	-0.09018361545681754	0.14540110491758837	0.8243924954581293	-0.2091110343421931	-0.6683342439943809	-0.6362888796954049	0.10225546334198847	0.6730905158215144	0.10689479085636781	-0.30833512466784824	-0.3937508155895082	0.15111696681969924	0.49216076607423176	-0.11910508542984125	-0.6596835238967456	0.30448388976469937	0.3135610810946259	0.07641903291720224	0.37890678548515533	0.6217047556439389	0.16743244188474596
-128	0.6834209544093242	0.4357368339027694	0.7100291234209718	0.34890511543875563	0.8135045746291428	0.7576518039647986	0.2798301272479799	0.15647514124941608	0.5683248028711481	0.4622912097226432	0.4130066026750625	-0.17310611859962358	0.04891902941035439	0.18668763292385404	-0.17984701647651008	0.311325430084035	-0.5666250572203797	-0.9418061947886108	-0.27418655087863786	-0.12590511111419564	0.1013783511940107	-0.3361681095218931	-0.6019082650246698	-0.3723200550215911	-0.07653953115689206	-0.13176771965137304	-0.6311810596742738	-0.9817296241769495	0.07113657873790076	-0.12938927081342205	-0.4247107495075424	0.21627117638821003	0.31176683227980473	-0.3422271004619484
-124	0.12099289118498176	-0.011828260466395249	0.3325059405514944	0.11893551021588339	0.4599449324916285	0.30107784195225384	-0.2390140736028997	-0.08923382289530028	0.43144333253650374	0.0921087113677515	-0.08629002400308208	-0.6352651699239722	-0.4052383889457435	0.21443724578122983	-0.4441140878908657	-0.25774967605365134	-0.8272607901667689	-1.114708540009423	-0.02499052875885017	-0.34032279167082735	-0.4432019282118485	-0.6502358897004753	-0.7356536965870194	-0.443832455945013	-0.318321048409726	-0.6591073854018012	-0.9339509582781395	-1.1102268667800765	-0.2379485213709403	-0.48630210634476073	-0.8089434484085113	-0.06651218963758053	-0.06997691077207864	-0.7419628482205655
-120	-0.4639611530510991	-0.4958623337147275	-0.12478466300453672	-0.3093862525758084	0.029737878515741296	-0.20490418322805087	-0.7074368578215902	-0.4431834805743371	-0.03912913789406731	-0.29191073701591064	-0.601647137076568	-0.9674930548082914	-0.9370092129891986	0.05468768612644179	-0.6296821816758914	-0.7807648758249313	-0.9157501436001235	-1.1997802227246304	0.010068199571879339	-0.5293712602601457	-0.8847033955171931	-0.7870148400463648	-0.7411772590044092	-0.6166421755480781	-0.5412396178885672	-1.0258610222665172	-1.009529468848583	-1.0871595116823711	-0.5709714279064276	-0.7438071947391938	-1.0320494148900532	-0.432465373377887	-0.4910582589626049	-0.9857031082062241
-116	-0.8289396145872739	-0.8121879080293787	-0.4893942462962892	-0.7426245789851911	-0.330650626778255	-0.5900289997462819	-0.8920121766457434	-0.7649173717259958	-0.5588736520008449	-0.5778803214741894	-0.9825491284358974	-0.978173909101851	-1.363061424628669	-0.13105885651401022	-0.7062965017606265	-1.1176159353649364	-0.7900212983212449	-1.1981210678368515	-0.1500434275653601	-0.6413083656332019	-1.133760568617327	-0.7318814974426432	-0.6735196692628137	-0.8252081850198211	-0.6746194941654323	-1.1782783240133534	-0.8857799150037635	-0.9768949126374898	-0.8326038697202345	-0.8735843278763513	-1.0613843175793565	-0.7639044503952402	-0.8476772286947817	-1.0397797796700354
-112	-0.8177185633994789	-0.8154405930912043	-0.6281306131716605	-0.959565994701047	-0.4732015418980086	-0.7035911661503914	-0.6755486113658453	-0.9054247118024623	-0.8245208838626513	-0.6428346617681118	-1.0802913876915328	-0.5913422688813024	-1.5165359935618619	-0.16884726243304612	-0.624118028495512	-1.1386806936125344	-0.4506031859465343	-1.0839092704109752	-0.3605408957438508	-0.5951275214428515	-1.1109408112133936	-0.4948507236861536	-0.5652676806483368	-0.9413850283696913	-0.6308705790804227	-1.0821570130682923	-0.6095174535621295	-0.8177378753043373	-0.9151164270184716	-0.8305116274846112	-0.8817424751908064	-0.9096658206861027	-0.9967358683216492	-0.8889958836045002
-108	-0.441515623408443	-0.494953482093487	-0.49400111908167027	-0.8223985412814924	-0.3218081883411837	-0.48461359616950417	-0.11015929998957089	-0.7800573686932337	-0.6780779940651478	-0.41991954935865883	-0.8218859413377182	0.11001457991242161	-1.32666098736553	0.029048701674910995	-0.3454288235526197	-0.7949787358239874	0.05370928333550458	-0.8203011730464314	-0.41884434117427016	-0.33092844402685173	-0.7907702902856014	-0.11030143471525955	-0.4104894091255859	-0.8314928391444263	-0.35604360609761254	-0.7471700291842862	-0.23328192473164505	-0.6058684572181929	-0.7509783487433052	-0.5838356003325974	-0.5132515417492084	-0.7650311569925848	-0.8307343104369298	-0.5531547055583746
-104	0.11230400921362531	0.007380335107438614	-0.14393003248592343	-0.3566155126627885	0.07248561811027678	-0.002993124296782377	0.6067051276147928	-0.41758075251054455	-0.18910697054801773	0.04098341603660632	-0.26596841148936773	0.9097021199146792	-0.8499327876566772	0.4098025252009285	0.10396212313153332	-0.16872371690589985	0.6264411791244122	-0.3958967020052939	-0.17590224698478357	0.13186641004171074	-0.23860196708996312	0.3558810344293981	-0.18566106212947933	-0.43248039374833247	0.12184047668212847	-0.24669131574335998	0.18198803021259777	-0.31871700206396925	-0.35472211152163385	-0.15690170188867422	-0.025742197344279395	-0.335642545567913	-0.3505916586607396	-0.09934308354806817
-100	0.5592307434267927	0.45300820355482685	0.2793138914208836	0.24695736107464322	0.5324079380898507	0.5538414106690982	1.2154221504042544	0.04275848705701941	0.38636684320176357	0.5640931711260031	0.39588621158784	1.5396640261877952	-0.244558572151714	0.7997681478335322	0.6060010775524833	0.5321489559089555	1.1346936197242854	0.13981263304220204	0.36599099543674035	0.670774219726746	0.38789811632449966	0.8022674897919436	0.1080493626250745	0.19412817011934766	0.680436907480823	0.28667601870637316	0.5587856755453785	0.039732195336640345	0.17201565162621096	0.3553027501672473	0.465655802504752	0.2526744597731301	0.310171305350163	0.36314728764400855
-96	0.65357452465985	0.6197342260926396	0.599295197404314	0.7185369711854412	0.8217771628612778	0.9520504450602929	1.5009094438805508	0.41110393301166864	0.746357915901272	0.9087637639943493	0.9056884027502828	1.7860842898097236	0.29833099170703753	0.987044451128863	0.9755371188329345	1.0455274555512148	1.4390852414991053	0.6703923327686342	1.0246090863108157	1.0947701903359466	0.8843708612048308	1.1065099211412674	0.41518470540126806	0.8639305212143235	1.1409722537797835	0.6972774845638539	0.8072362521771649	0.4077148725229413	0.6768848878936911	0.8076057413691946	0.8291562774704855	0.8044472316458764	0.9284822917384492	0.7101046425057116
-92	0.3196639112508028	0.41975495113252714	0.6771161539148357	0.8443401434561673	0.7597856502423702	1.0157604191883811	1.3777489627385593	0.5372929559493739	0.7076924425377418	0.8849449731418578	1.0523632738246667	1.575501676396386	0.6311325414935491	0.8294854739227487	1.0450196239790108	1.1687682837541609	1.4403681718700116	1.0492619249555435	1.5091686210676452	1.2323449818968677	1.0813597413417895	1.1648040980494478	0.6366589053292363	1.3417843546369173	1.3472145761808245	0.866412220197926	0.8525427558355125	0.6770930869173658	1.021450516982853	1.0623120042682985	0.9627303456795385	1.1425074310067425	1.2866090503633798	0.8453968145960775
-88	-0.2978087358108341	-0.04589168343282352	0.47370666145888235	0.5788930043863666	0.32347026385654915	0.7129021268965368	0.9169198847508873	0.38545364044146546	0.30351906938215606	0.4620375025527973	0.7751396874884561	1.0013660167207563	0.6969860178516382	0.3331505051784681	0.763416169146473	0.8562607147532801	1.124193069480716	1.1639981240448298	1.5613850315727134	1.0245186064602751	0.9210993028273409	0.9407144761176611	0.6793755871786319	1.4518272840084387	1.2424942223650177	0.7653228025187344	0.6746232492580437	0.7467806320409518	1.1387054891446984	1.0523124906674461	0.8381274321376243	1.1842058867120109	1.270643707882021	0.7411272507075689
-84	-0.8965170956864936	-0.5300936685529996	0.07425565998879964	0.0761998889906582	-0.3235403291163057	0.17606782868755155	0.30909883897942714	0.05559660480290752	-0.23604115784178226	-0.19683262656107456	0.19995586523593603	0.2823282175088542	0.535880266267119	-0.3381379238174569	0.24470201072900383	0.24633060333525122	0.5811396226515684	0.9952880118990656	1.0950001450549094	0.5655772671725185	0.48664507146993247	0.49624106162667414	0.5152181373939624	1.168208119303976	0.900094447247591	0.47001191855019614	0.33480378900875135	0.5865983352156063	1.0535734865291306	0.8132984617680299	0.5197972642172707	0.967340407313407	0.9209040380115497	0.4547924685916733
-80	-1.1680270403936055	-0.7657323460319522	-0.3441118589296325	-0.38537105820633766	-0.9024874545199917	-0.3597049108006642	-0.219538777512353	-0.2647156708709638	-0.6085261687173728	-0.807611880647591	-0.4189436425122153	-0.3326012483782496	0.25236785348117957	-0.9288411713037357	-0.2788094275111007	-0.4060433198690805	-0.01917000855135853	0.6336235984063577	0.2555549436315955	0.05789749309704035	-0.040175083923235405	-0.02197066688951002	0.20905862695840666	0.6335703714587076	0.48341879126567566	0.12214015393414132	-0.036807689722829176	0.26830542019814324	0.854953584896656	0.4626763749362093	0.14271384441583573	0.615707991952872	0.40736874835160447	0.109184123300024
-76	-0.9621301865128103	-0.6115545018968302	-0.5907816871986051	-0.5487822876426256	-1.1588556737251716	-0.6740624291567681	-0.5010974990590997	-0.3965693106175637	-0.6029835924183476	-1.1107155056567115	-0.8260949829225505	-0.6688904149333759	-0.03473226717286091	-1.2035325735223465	-0.5790448770208708	-0.8585252144118695	-0.4953602837930519	0.23838223456755342	-0.6358620508352459	-0.2980539195164986	-0.47277983903728743	-0.4433378864062379	-0.1071185839451926	0.08991053677746855	0.15560212692075628	-0.14669014476456882	-0.2966863207479025	-0.062102272949781843	0.6370450242171164	0.1350361850428631	-0.14496216141340942	0.2677493684684375	-0.056077621735611066	-0.15956358571297777
-72	-0.3744109561527104	-0.13764397765216957	-0.5529006109583388	-0.3161020270949855	-0.9988195274884465	-0.6741813404227947	-0.4908497023110624	-0.2628808908977977	-0.21334591454047017	-1.0134881709259906	-0.8957926608357225	-0.6953951102819548	-0.2357949608571591	-1.0494993898597291	-0.5656014666582363	-1.004783150997102	-0.7350549083271176	-0.04092134524981006	-1.2300507991252552	-0.41779470338242564	-0.7162752133405047	-0.6546532495182715	-0.30338996572189847	-0.2444812649276355	-0.011090059736683538	-0.2868731312661477	-0.36192303804573533	-0.2597862773535174	0.4453907001694419	-0.08958324022325262	-0.24836458203075373	0.009670751144907622	-0.3139190963925654	-0.2625401609467995
-68	0.29746279045343116	0.4040724028875911	-0.25268897350409625	0.19913431951790983	-0.5441986904709706	-0.43955534585601924	-0.27523162891516856	0.07188383471698259	0.3592854431141164	-0.645970462121828	-0.6930940729762104	-0.5249446617224327	-0.31242793719566186	-0.5246851430997358	-0.3478775313654223	-0.922406432683965	-0.7463546376458176	-0.13780489529149564	-1.3129558530083474	-0.3812847425847881	-0.8105548599759456	-0.6572861654852874	-0.3249732247730884	-0.28415405678532657	-0.07179674488060503	-0.3554463079538264	-0.26072084837891357	-0.26284578376211365	0.26004099780232187	-0.2223043734183039	-0.1703138198128807	-0.15160214862694596	-0.33455577408246717	-0.19913420030862058
-64	0.7186136227584289	0.7222106438522525	0.16660058456319965	0.7375931721184692	-0.06127149596241936	-0.16603870647948182	-0.014624897353679703	0.43935406097112095	0.817594764552593	-0.2834032766816313	-0.42361962688303895	-0.3414498260937173	-0.27745017339275213	0.1737061436559013	-0.1720629479117208	-0.8115869143976258	-0.6445732696471755	-0.09215459949353211	-0.8956489540375319	-0.37672072553889235	-0.888790605208412	-0.5607119188457216	-0.2208471441653531	-0.10768780085077985	-0.1632072921447039	-0.47169276952861844	-0.12104827135041887	-0.12723356453243434	0.027994284335625584	-0.34189167532432174	-0.006885739491631454	-0.26359733872618907	-0.20659078605467945	-0.05444783703647118
-60	0.7036262136814309	0.6549281461392815	0.5165889250110459	1.0368922922658266	0.19016420793205194	-0.046217899652855624	0.1446810510081972	0.6588115079458833	0.924262282899006	-0.18465183628669046	-0.3058440379527173	-0.29492455646440197	-0.1795565034386083	0.7978524545552879	-0.2698962681631819	-0.8642178156014155	-0.5808079824088754	-0.011315976240973077	-0.1932258750090159	-0.5747471437248368	-1.0788967582165994	-0.5146170841575649	-0.11055154325468622	0.10205173466666054	-0.40538769858052887	-0.7309086900377201	-0.10010017429351312	0.007105217762978932	-0.28028681803509586	-0.5294133411392509	0.10210453693121763	-0.37593132162548015	-0.07511806469071622	0.04419673595594746
-56	0.3220183245158088	0.26906937292830063	0.6627778394178028	0.9725962852717864	0.10437168154591218	-0.15366858205144673	0.14507734738914704	0.6335493310191551	0.6225526913183728	-0.4378136385354349	-0.438626586283474	-0.4191882301714336	-0.08014506826431651	1.1558095187569712	-0.7054499965976636	-1.1390666932911253	-0.6493981464202723	0.007401243764847229	0.494767873230125	-1.006463405929078	-1.4057651722701812	-0.6150017365187115	-0.10819764407974011	0.17310063497231806	-0.8090973476009329	-1.12597059919272	-0.28927117513101913	0.0015709892574149616	-0.6271969064136114	-0.800982056025963	0.04493564728478181	-0.49693474048081876	-0.057291731093717456	-0.0077787581634822045
-52	-0.13865928316871015	-0.1693376000420529	0.593954084804121	0.6202397926883481	-0.20824547059411141	-0.3978170742481414	0.04351398337822064	0.40017905730301473	0.06118960290599504	-0.9009352899693146	-0.7400963287741366	-0.6139901860947823	-0.03062281377332608	1.1853610247248414	-1.3124244179968716	-1.5159178933971016	-0.8251628258852616	-0.05361842723064478	0.9323862767520911	-1.5200672111280196	-1.7538942054335982	-0.8371005633200265	-0.24741885003565156	0.046337559702230406	-1.245756980611785	-1.5251995286580915	-0.6479077322814265	-0.19258394788756683	-0.9062321163185513	-1.0799176665697345	-0.2020561988020672	-0.5846852645417254	-0.18129801704409756	-0.23597183764008348
-48	-0.3426547339848098	-0.3506786516395696	0.4162606884460368	0.20162443765756558	-0.4926410304982969	-0.5843796715287336	-0.03145910046502608	0.10244361285332755	-0.48928815002885684	-1.2826157775920897	-0.9999572609450467	-0.7066612225810863	-0.05421545715353013	0.9615548228782461	-1.7722136929590622	-1.761965151152967	-0.972978351043832	-0.11692022502705136	1.040684339756863	-1.8514298153863191	-1.9208172511242185	-1.0408897373622403	-0.45623957995619907	-0.19621679137281006	-1.5053058824680836	-1.7283178524250522	-1.0113220189310324	-0.49778202050416176	-0.9888918970890118	-1.2296121089408159	-0.5592066631503643	-0.5757338986166021	-0.37854975366385213	-0.5698301777757946
-44	-0.11082980753811758	-0.114070839891919	0.2771356396830665	-0.05062444122765242	-0.5109863864395282	-0.5455251322324531	0.03208072102910948	-0.09395665651679912	-0.7779367546467688	-1.3156028952761394	-1.0141122315552134	-0.5609640464924849	-0.13796669209932994	0.6406421645202294	-1.7922625496436733	-1.6725203948709197	-0.9286758876241908	-0.06234972908252271	0.8949941970163273	-1.771419997511237	-1.7341870025719772	-1.0510324213194817	-0.5991455301416608	-0.3913357545985963	-1.4119670355434022	-1.5737413128220343	-1.1744176119717091	-0.7490938286941996	-0.7957981208736459	-1.1302715511395638	-0.8809471704175763	-0.4328256536523222	-0.530848561377174	-0.873957631765637
-40	0.46200492861450976	0.440097479901205	0.265619336888122	-0.028165329176602468	-0.1975730801600886	-0.25929740005830393	0.24802753266656105	-0.09479585266021487	-0.6933318955082638	-0.9203740931161897	-0.7191833835563983	-0.16996926026346532	-0.23832224249273845	0.3755193045195105	-1.280579206094546	-1.2021650045560728	-0.60425525751142	0.1856158669076925	0.6448163969926005	-1.2238004176713093	-1.163765785140082	-0.7651934604398984	-0.5596458301719606	-0.40109956163227944	-0.930482444798127	-1.036350843674054	-1.0056589816452204	-0.7856270055009186	-0.3494206360101164	-0.7530987839758362	-1.0254310343601931	-0.17819781556438363	-0.539804099627421	-1.0112558577754986
-36	1.049011585448119	0.9878675912711329	0.34955465705355554	0.1978663350116431	0.2858544878895081	0.11635463655420565	0.5049049245484493	0.07427394371353833	-0.3039766840412637	-0.26179069214528594	-0.24477502641866933	0.3206236354362307	-0.2969506375444917	0.2457775765412602	-0.41215225950133144	-0.5070582615448131	-0.05654863253859821	0.591445146497925	0.41492819681312476	-0.3713001003427698	-0.36009332446736236	-0.22764614166958774	-0.31260898630371	-0.19726456651951008	-0.1990806455354251	-0.2579029791996266	-0.5264480696738066	-0.5396138416017784	0.22453114333684565	-0.18750856769427285	-0.9207235551476255	0.10993690015931422	-0.37983074688380825	-0.906323192215538
-32	1.272402760154191	1.1565974921589126	0.39110425015887323	0.4300957311261793	0.6332489236102455	0.32266083278254293	0.6147595032429559	0.2887700788836576	0.19286815773429952	0.3375713816702972	0.15145553610232984	0.6766915900311725	-0.2645094089982393	0.2335822576347488	0.45719393972361067	0.1289831098637868	0.5238566981440943	1.0076978181192597	0.2460921847567516	0.4802667188439769	0.4064815630186851	0.3773837378033775	0.05719590172632177	0.12534050611798625	0.5314845429353217	0.5099475966930054	0.09031796432580207	-0.07293041032020954	0.7485837917501443	0.3942172815383427	-0.5957396611431492	0.33344048177456825	-0.11070450367395487	-0.5793310985243596
-28	0.9250878668317055	0.7429402451831246	0.23549911320356337	0.4723135221000645	0.5732186422180757	0.15194508394979533	0.4193656731984819	0.4011578549747226	0.5799886569638616	0.5789069518732088	0.23191811085798264	0.6995592099647399	-0.12700892952800424	0.254320650650703	0.9821114515304167	0.4452913690291745	0.9041947103559828	1.2459907500280039	0.10747908773704516	1.0383206579696178	0.8764439799115202	0.814452407687968	0.4026092578736613	0.41265538230661025	1.0205335591299434	1.0221458647670472	0.6057098492588461	0.45982283237711435	1.0722428533185429	0.8168331960082206	-0.16119348962140692	0.4244026829017986	0.15692327877002843	-0.13381199504923452
-24	0.09806953345810959	-0.1565148975473809	-0.18104118063040886	0.2527199679193012	0.03328945479332876	-0.4203093339321834	-0.10774731608843781	0.32531353749157427	0.7234863620611593	0.3507995894635136	-0.08101630190421814	0.3382375231786251	0.0799754110939723	0.21866734270677576	1.0064254973750966	0.34103447112764873	0.9281344986370629	1.179275986555085	-0.044583842045754184	1.1654889554161878	0.9248713827624279	0.9152191854258049	0.5960464462490336	0.5464828000576415	1.1487903565966535	1.1492913932393705	0.8333091118754363	0.8939828850109766	1.1320089073210904	0.9777792071451449	0.24195362566418838	0.376245020870141	0.3167927555192212	0.28907304929228594
-20	-0.8632587768694008	-1.1830071180993147	-0.7727224211256931	-0.13414818014608013	-0.8072491267804038	-1.2042360275382096	-0.8251572230486668	0.08002646247209354	0.6175966843271014	-0.21893130187549714	-0.6573193056676988	-0.275697230596656	0.2800712280354876	0.0892630589734888	0.6270758493803782	-0.0810211522321745	0.5941739663381423	0.8149726966308988	-0.2122332448369348	0.9274384355971332	0.6090199335934455	0.6589644534639908	0.5948440417530154	0.50652325025466	0.9563084220583622	0.9202131009710578	0.7235718351215515	1.1318362922702567	0.9612246131470242	0.8776221253171761	0.49937462680621686	0.23773929416714573	0.31190025727679754	0.566429077148853
-16	-1.5459905823775717	-1.9018354367876826	-1.3341623511008631	-0.48895585413507303	-1.606199260471104	-1.8877335739158767	-1.4797571860146437	-0.23077766539005207	0.3583383849156713	-0.8476890304144173	-1.2318630187404307	-0.8925334192629882	0.3838784386956408	-0.10050971035615025	0.11207200558500345	-0.5851129278669092	0.049828600012620704	0.29501214548967825	-0.34336241993044125	0.5255315290534095	0.11685796797574065	0.17090359287028298	0.4511677611404214	0.3667561104574679	0.5923148378676469	0.47997671244555445	0.3687750389802027	1.1710596055028313	0.6512964351422862	0.5945628270396751	0.5582128153058886	0.0785761250061775	0.15087023339327446	0.6334955080250588
-12	-1.6913298325752006	-2.0314307161540897	-1.6440063673473908	-0.6304669364270228	-2.0383923002276996	-2.200463527845853	-1.8283632947536383	-0.4841780352289077	0.07172878813515207	-1.262778875023765	-1.5526182612319932	-1.2721114126512645	0.32498085416760036	-0.27293261816734143	-0.2698336832863258	-0.9406625604721928	-0.49115314955684775	-0.17870415702047218	-0.36767321732198904	0.16332991379985848	-0.34670179994787376	-0.3554338207807775	0.26605957679332154	0.23577648341732535	0.21549236720037987	-0.003549790699385795	-0.0667527688844478	1.0763825150970316	0.2946901313970922	0.22717694880826164	0.42962384115468394	-0.049435432875513684	-0.10504907343091306	0.49423032874257533
-8	-1.3232506480186714	-1.5869466026293924	-1.585057731441229	-0.5043603169105115	-1.9629210184129362	-2.055999750668475	-1.7620187953331294	-0.6077641829404881	-0.15481468996061667	-1.3462120260582338	-1.5164031944136376	-1.3066277470978105	0.08935100562663284	-0.3554140022364397	-0.4017261554588987	-1.0442582342485722	-0.8599439837678761	-0.4511081564957965	-0.25179713900889616	-0.06821683777036928	-0.6655970795039161	-0.762975690822695	0.11996589570751409	0.18417152715914184	-0.09152688807982609	-0.4251864839786161	-0.4436132002597603	0.9212452746020273	-0.05395706356850059	-0.15487004777431207	0.16731299417691764	-0.13242669370118482	-0.37341946269169746	0.20533446915759807
-4	-0.708816645740012	-0.8543099739439963	-1.2080411880510633	-0.20969240314470325	-1.4823521338230334	-1.588644262117599	-1.3609732355088802	-0.6101195200774857	-0.30145132465547353	-1.1758689850683255	-1.2122787206560264	-1.0678964826324948	-0.2743059687841438	-0.3280259064498751	-0.36188214925952267	-0.9552798843107149	-1.0081540320692188	-0.48812547202848117	-0.03402408576362099	-0.21900954787272847	-0.8497982003691142	-1.000749823904624	0.026365054704738766	0.20720773883003069	-0.34361374291450214	-0.7709982971752731	-0.7116731983336605	0.7426359634723144	-0.37846788668445985	-0.5236000405443395	-0.160909831117637	-0.18647031438955164	-0.5838446602385804	-0.15254896840681254
0	-0.18593114567543592	-0.21730829720468334	-0.7024358493236269	0.06807664764621152	-0.8678289033913706	-1.0670795413732659	-0.850024996041912	-0.5610722289224791	-0.3997949649730519	-0.9482534503837527	-0.8518457391212689	-0.7554822545050968	-0.6734004599735638	-0.23961919485629288	-0.33910098586298376	-0.830751595783871	-1.0091514561923718	-0.3786453595138305	0.18612608266568167	-0.4110501398198947	-0.9886429880930583	-1.1219557495400758	-0.06297560020282593	0.24281041262834904	-0.6044331177709806	-1.080522057666231	-0.9071410275444364	0.5372456298615417	-0.6706182939764073	-0.8678904153846235	-0.4926565277058994	-0.23212964774175643	-0.6988129002093914	-0.5013440834739129
4	0.03403009093156695	0.057214859728602775	-0.29126420543566434	0.17220614807043214	-0.40085163611296215	-0.7388514261665009	-0.47852000473324413	-0.5383412824390367	-0.48992314811036825	-0.8412548282364484	-0.6345040782167568	-0.5783668741882626	-1.0103723977328685	-0.1775428350257617	-0.4860667872077816	-0.808751700266753	-0.9920625661598336	-0.26871535114155104	0.2984942488286651	-0.7277155500158747	-1.1605248421932475	-1.2209123342206543	-0.20955644495031384	0.22481577041609072	-0.9100921131044599	-1.3788987363333736	-1.0942190857917447	0.2940030388561786	-0.9000453330204201	-1.1597371072098848	-0.7787446956046594	-0.2743346684205307	-0.7201174479423152	-0.7827948312069216
8	-0.028519624772188328	-0.04762954997911981	-0.11151943327642772	0.06556881202594102	-0.22833968641328195	-0.6980107409020294	-0.38928195735875604	-0.5774782285415498	-0.5835583195258024	-0.9079356170619309	-0.6318410619042053	-0.6375336630937514	-1.2200444905949157	-0.2127014095181411	-0.8101881722022132	-0.9177954173757825	-1.0538258525944724	-0.2689790122870493	0.23935605525143508	-1.1390664548725467	-1.363433596029707	-1.355481025134563	-0.4319094408574705	0.13060791757510054	-1.2224956720004703	-1.6314985710914334	-1.2975017991685809	0.03221609062763321	-1.0123432849120355	-1.3431640829506946	-0.9835686062775617	-0.3010031275302166	-0.680965898701869	-0.9647930836160725
12	-0.17245922939150948	-0.3233425609054403	-0.15176367721387946	-0.1589632626334769	-0.3150118283424737	-0.8548285939568776	-0.5533791170453874	-0.657701133021166	-0.6587893946227275	-1.0673913928739434	-0.7630997876928041	-0.8808720089607044	-1.2927019563462268	-0.3533750167507887	-1.174833652391191	-1.0709308358810594	-1.2075210779220664	-0.39393854041775433	0.019878821397302446	-1.5163909158568447	-1.5155975780368873	-1.509710069659418	-0.6829109174652688	-0.010918310815842023	-1.4493447505598114	-1.7578871205770203	-1.4764118157304262	-0.1899272198650233	-0.9642433499786971	-1.361763950724474	-1.0882370444479001	-0.30236500425292867	-0.631635485484894	-1.0431274149307486
16	-0.17856678321577293	-0.4930802869268601	-0.28012055087891474	-0.352458803955937	-0.506746350439491	-1.018237469009703	-0.8049253205004128	-0.7294533234299139	-0.6860694867932317	-1.1863255470841616	-0.8700494148222268	-1.1520001859189937	-1.2727121082597943	-0.5365924225610974	-1.4034780228466344	-1.142325875259215	-1.3936308587174433	-0.5679396376575819	-0.28835695909176234	-1.724300618586623	-1.5231789312053072	-1.6181596476708262	-0.8776114560857883	-0.1534385081231946	-1.5173985919788733	-1.6955745177375185	-1.558758374093383	-0.3066296569711959	-0.773393807842748	-1.2086333005907672	-1.0991175146963086	-0.2958679191748803	-0.6244467481106183	-1.0417207453176007
20	0.028314763608612535	-0.3961314548981491	-0.3415729692895124	-0.4133849133544968	-0.6528585536686157	-1.0322195265458127	-0.9497666334968452	-0.7576969842854243	-0.6586561186373461	-1.1886253326923688	-0.8356149175527507	-1.2950726714815375	-1.230368968718263	-0.6632407290879598	-1.4112679922712414	-1.068537470980791	-1.5355367621753884	-0.686378179247744	-0.5948345050098754	-1.7232934193017513	-1.3625630105903157	-1.6262423951098308	-0.950084624275919	-0.27586486865966353	-1.442926522426602	-1.463402625203884	-1.5035903415864897	-0.2925015084511104	-0.5392685518954663	-0.9563174819643452	-1.0496259901249125	-0.328505097990337	-0.6933607441562623	-1.004240629521726
24	0.32093703665766843	-0.0884098184856833	-0.26351234250295397	-0.35388901740371154	-0.7056581956213385	-0.8805445410431352	-0.8852624274791301	-0.7493128161585515	-0.6054997428865433	-1.11666989044545	-0.6687511784835322	-1.251706835447532	-1.222897884142399	-0.6594981534519622	-1.2725870577153713	-0.904666302304255	-1.5967856605269144	-0.6888133270038945	-0.8288816788726985	-1.6102540452356469	-1.1167184086261748	-1.5395148953669437	-0.8992221332735056	-0.3970782150733711	-1.344991918982762	-1.1745232314019844	-1.3439985479754433	-0.18942654085017413	-0.409373163143373	-0.7365171294690558	-0.9873666738377052	-0.44827464109729553	-0.8329939225146599	-0.9750048493564341
28	0.45022123938377795	0.19713719139394667	-0.10485845777740262	-0.2890983514639292	-0.7357451897165186	-0.6949853283501586	-0.6610975844858268	-0.74757385065162	-0.5798564538620835	-1.1011893721434702	-0.5006309139009759	-1.0915209027388646	-1.265874978684161	-0.5305407033876863	-1.1748748988052715	-0.795136747736888	-1.6004960496548146	-0.5966299161152668	-0.9557308530519468	-1.563554283009192	-0.9345277524241746	-1.4242112600608285	-0.7915192822499579	-0.5504812584330139	-1.3826296294590248	-0.980522034076849	-1.1738077372479072	-0.08735023416876697	-0.5003327118639176	-0.6714224202370418	-0.9465293264333328	-0.6610530002116474	-0.9881228183594167	-0.9732440089449252
32	0.21170799380733898	0.20074748942236054	-0.019971400448920932	-0.35549947529683185	-0.8629405476717484	-0.6655099375134745	-0.44679316765514354	-0.7956971506056513	-0.6274039133443937	-1.264125105527263	-0.49658858650715965	-0.959954676588646	-1.3279974427073094	-0.3689603200180192	-1.2898164954999352	-0.8771034456996503	-1.598759170310445	-0.49189898247503916	-0.9695803498584109	-1.7245734886497157	-0.9353857016789054	-1.3560174669361873	-0.7164568882973215	-0.7388533335151288	-1.6497594076465865	-0.9765024756572794	-1.0815649005285886	-0.06551419927030346	-0.8171516040198068	-0.7935761193266742	-0.918183384007646	-0.9017264820220655	-1.0624690029022403	-0.9720419024721302
36	-0.4101030518191273	-0.20071248659480456	-0.16205094713781962	-0.6140384658569285	-1.157903310713355	-0.914028821068001	-0.4291752267969146	-0.8980089999414549	-0.7578465919434328	-1.624213453006799	-0.7444830518045956	-0.9812430118582318	-1.3525888885680735	-0.31022933047170537	-1.648998494753305	-1.1824729412741863	-1.6194920498967713	-0.4561214435505525	-0.8796986915312631	-2.093404764612122	-1.1231611938729698	-1.3559230531791013	-0.7258625012191312	-0.9083753205253289	-2.096173042727081	-1.1306714983049968	-1.078822610038686	-0.13440629805962828	-1.2251800267757973	-1.0088958714762204	-0.842132029791393	-1.0468009683882706	-0.9518202519227515	-0.900314388386257
40	-1.2126656740089312	-0.9147959328443235	-0.5827748164722081	-1.0015720103725798	-1.578552361317578	-1.4093402588547828	-0.699815331122693	-1.0083922122291398	-0.9388226843019113	-2.0656168408694136	-1.1900076836105096	-1.1784163683703046	-1.294907328197348	-0.4590979206891863	-2.1028776115730685	-1.6028895337643723	-1.6327819782994968	-0.5141121732129473	-0.7052494865731455	-2.506996863711335	-1.3686280215994782	-1.3618142570445375	-0.798361716638963	-0.9685353016242024	-2.5293586190259707	-1.2894240585197247	-1.076483366155737	-0.21959686223853997	-1.5019439420926606	-1.134980794902088	-0.6329980476610193	-0.9702237819971368	-0.594583033014203	-0.6747035963189981
44	-1.8818774175814799	-1.6844621854215192	-1.1901574104778074	-1.3611416782345902	-1.9894533107119765	-1.978441114198947	-1.1993622749565205	-1.0551352474275923	-1.1137224407687485	-2.400131219526189	-1.663350458713957	-1.4609591924021308	-1.1541866034931245	-0.8258138874184994	-2.402519935264176	-1.947139735074179	-1.5659258326095278	-0.6202250107364811	-0.4836907672590991	-2.7253098419046546	-1.4820531569255948	-1.2641988960773085	-0.8557960369437844	-0.8519946911281865	-2.709531777216707	-1.267245647091955	-0.9365139579970103	-0.2064931834491062	-1.4522502385666969	-1.004976985301422	-0.23565089643110068	-0.6190623029337831	-0.017153663517439265	-0.25338506634634816
48	-2.1672422831177167	-2.2311963978701885	-1.7892312958366292	-1.5352508982997675	-2.2475221100329494	-2.4057464538870117	-1.747799749729991	-0.9904819701936703	-1.235738512733942	-2.4834053453687983	-1.9806419560970772	-1.6845951037790328	-0.9833121274917408	-1.3115755286481239	-2.3554317891733456	-2.0588386006826696	-1.3607224191642986	-0.6952291113466744	-0.2826553874032003	-2.577561848808444	-1.3368755545241888	-0.9888899897403839	-0.8228112438408752	-0.5775515422544385	-2.4884262022134216	-0.9733699535590177	-0.5735887274565518	-0.02272586705013327	-1.0258543465463192	-0.5816450700379876	0.3182246080947229	-0.06638590229678151	0.6511701925049707	0.3155888609070874
52	-2.017778153093466	-2.401168340342662	-2.1801459734232727	-1.462247248772475	-2.2944214286096085	-2.5574479038519025	-2.1403768008552233	-0.8319894054387964	-1.2937456336736086	-2.308491701019763	-2.0551240392296455	-1.7427363351691054	-0.8717778303070597	-1.7536712840627011	-1.9553053329692123	-1.9192513179006332	-1.0324926350274841	-0.6877309066575062	-0.1933387811070966	-2.07740497064617	-0.9655444597662141	-0.5699098691856581	-0.6872742158703903	-0.2652431421735719	-1.9065658998036934	-0.4934965955672428	-0.03784719845037778	0.2995194785185358	-0.3624289920716338	-0.007402638420399194	0.8932155348160756	0.49999266736633247	1.2117445438308978	0.88672595992325
56	-1.602907057529892	-2.234362358174085	-2.2600238266151553	-1.2160152166182723	-2.1988842431818716	-2.4581742224619196	-2.2565374317417555	-0.6673208458264683	-1.3163621392393714	-2.020539755488227	-1.951093311152149	-1.6336995321988526	-0.9062662101752766	-2.0075237700321975	-1.4054461682121486	-1.6708223777548457	-0.6875314099119467	-0.615525720949609	-0.29548665806553714	-1.4342126810103086	-0.5632240758027274	-0.15849539597549372	-0.5183148967054493	-0.08065532127520858	-1.185352680074594	-0.06698883307948472	0.48409512516823444	0.6282283051842007	0.2744143300280719	0.4521632481126242	1.2963759866409057	0.8598026611554704	1.476303335277209	1.2684015003605214
60	-1.212827441014443	-1.9266953419678372	-2.0738050885294044	-0.9694486831984345	-2.120100016009567	-2.2756066264873116	-2.1210553592536145	-0.6193546041110236	-1.355862256441584	-1.8389688683810368	-1.8468429995638542	-1.4617313109686019	-1.1285965414163148	-2.0196247049839458	-1.0134470437211993	-1.5414793452444913	-0.4789829838103681	-0.5561497793461314	-0.6084366425411462	-0.9449819302542256	-0.3860544850616068	0.05085269721424348	-0.4233236898224763	-0.1360097226046828	-0.6087025388608178	0.042080320311638414	0.7678130845711629	0.8133023956745752	0.6494730098539211	0.555364070920686	1.3764650786933388	0.8778959490545829	1.3609422410936753	1.3206001486814911
64	-1.1029314966965669	-1.718218679858387	-1.7907600357619686	-0.9038122869560694	-2.219042533994014	-2.2261493149819302	-1.8870524120371033	-0.7883157710199479	-1.4609116278957202	-1.9356956433061976	-1.930388326539507	-1.3735898698459228	-1.5128827056835121	-1.8504499150286857	-1.0184473965680718	-1.711754913776684	-0.5218676911529613	-0.5921393617938712	-1.0588448020904677	-0.8268187621222306	-0.5973479136644184	-0.05871916547493638	-0.4676904070490231	-0.4081938852494693	-0.35806864409642136	-0.2860930852819416	0.7008863073773133	0.8002375344099534	0.7126485091336578	0.2459401631106358	1.127768752111764	0.5939764961505	0.9464090442604797	1.0513924333730162
68	-1.3701654638029328	-1.7724859669757087	-1.618592377390803	-1.1130355568440913	-2.565529578407304	-2.453591817383157	-1.7515912011745811	-1.19811176951229	-1.651549215915383	-2.334878677195208	-2.285940641353799	-1.469220157728564	-1.9702742050017321	-1.6308991867850853	-1.4457025491453621	-2.197497362310739	-0.8143362978402388	-0.7449037413863582	-1.4889299831945486	-1.0814204188700176	-1.1458029718080533	-0.42647221576781985	-0.6069367512638051	-0.7256427388943991	-0.3915343274721642	-0.9109963155634198	0.39834424752752634	0.7058925610840036	0.6706067902799946	-0.26021957331761814	0.7416890840878032	0.23455391765026282	0.4729571032504019	0.6601719839594467
72	-1.926736707591207	-2.1115503257845707	-1.700683708665476	-1.5576146801723203	-3.095279924207264	-2.9479122087437606	-1.848582263094009	-1.7759256318077228	-1.909367437310353	-2.891349785180512	-2.8351945805493415	-1.738500471494192	-2.378138297752492	-1.479150410732362	-2.0739889092534276	-2.8161959577030213	-1.213790413653003	-0.9415942406723247	-1.7106219486916538	-1.4725542031303025	-1.7503210261976245	-0.801023362044688	-0.6792982203499088	-0.8433811047241525	-0.44245695956100417	-1.4440841638345068	0.20397794195174104	0.7992604354706173	0.9185388661081889	-0.5247054682835529	0.564509986405865	0.12937982347724902	0.261224507625994	0.4909722494604112
76	-2.5689938003529034	-2.626001589820789	-2.0479264207633205	-2.088164085838122	-3.6374878791524075	-3.5442411810083163	-2.1743380968510224	-2.3734550416150237	-2.1827185098852837	-3.358419886692924	-3.3643138323720128	-2.0594880528905026	-2.6230106287535113	-1.4284514152701548	-2.538851016310354	-3.258529654858941	-1.4878745041475308	-1.041079399341437	-1.585536237528278	-1.636697168986328	-2.0101020285400923	-0.8359674194210625	-0.47462597369525455	-0.5723054394577777	-0.1495061363975501	-1.4003654683043218	0.5546571598354346	1.379166122769161	1.8495440436396764	-0.06700711680422342	0.9638198589786371	0.5627361521818279	0.5850548133383998	0.9006319023281738
80	-3.084494344553099	-3.136408797928497	-2.5339846547045988	-2.518447154362357	-3.9910027880041308	-3.996254910869899	-2.5822210246694834	-2.8173873353397836	-2.3987309872146603	-3.5041279704314916	-3.619074097079147	-2.2569603863000136	-2.640396111497703	-1.4091352188772732	-2.515712970104124	-3.22855400223992	-1.4172008001786258	-0.9071616507514766	-1.09444546423203	-1.2702774969454456	-1.589395399849162	-0.25286486681038434	0.15220275482850879	0.10872557731834404	0.7456210236797742	-0.42344349515817237	1.7647231772690506	2.605928414441171	3.631490221391671	1.4024934733267203	2.1572608893288305	1.6275918442641386	1.5489276608461084	2.093941206413746
84	-3.3310151016058644	-3.4635114582354545	-2.950841896236364	-2.70596861156103	-4.0049786466572	-4.082148064797327	-2.845396273104761	-2.9677104875023685	-2.4805922445610813	-3.213793031207852	-3.417102566674769	-2.18517255231378	-2.4328994689551755	-1.2984431949257866	-1.8857918930125759	-2.5815930301337153	-0.8982522464961692	-0.4873267101858628	-0.360746084732972	-0.2960542432939778	-0.38593128226116713	1.009150025680901	1.1853458851451066	1.0230941746630293	2.236573690489669	1.5241482219361975	3.837651243057444	4.378486622246165	6.068147643981158	3.808955421367809	4.083658208073543	3.1564001957356895	3.026721469866808	4.002305497555062
88	-3.2580225385424724	-3.4797012718084708	-3.0987288873638397	-2.6030340128981857	-3.6276283172571344	-3.6940433885768793	-2.7611973215961516	-2.76412939327454	-2.370695346568891	-2.5311684544553614	-2.7248449256765803	-1.7946129991998117	-2.0635802693718697	-1.0119333241663053	-0.7992945889319873	-1.3938983643625198	0.0023400455188530337	0.14764648638641426	0.3860677172927135	1.0782561274961708	1.400914784709185	2.733782522928795	2.4241211353133982	1.8666840744573028	4.014726151820578	4.100474824089435	6.405272467653925	6.329406722301034	8.624546029250505	6.68774555425154	6.382820113279459	4.765130507836146	4.689196574769803	6.267973884016196
92	-2.879196159722916	-3.1327412049354373	-2.8694972919495516	-2.2589046898076783	-2.9123003409290087	-2.87652754057377	-2.248908990904082	-2.245064729744354	-2.0544497914896485	-1.6296011168344442	-1.6705352025770428	-1.1536045045337178	-1.6283208090679013	-0.5810283407800537	0.39110550185641035	0.06280240400670711	1.0664206716315823	0.8262671807408718	0.8909277893460825	2.4384531913227456	3.333873501943496	4.490080345261537	3.547962895018695	2.3412234724062397	5.579185471753754	6.6865453551273735	8.833130814185305	7.948432902295417	10.616241428274693	9.327929473214379	8.500320413109067	5.99394510663188	6.111980422801155	8.348000505351548
96	-2.240471595829559	-2.453047269349864	-2.289983743607995	-1.7842097237362702	-1.98991834614934	-1.8055509283256383	-1.395293828302478	-1.5376807412425462	-1.5806244571833181	-0.7354230266123211	-0.4944073545371113	-0.41800904168449676	-1.2196780412397619	-0.16390034515007995	1.2903645006026165	1.4255956375368863	2.00526213139655	1.349980708528577	0.9651172136735428	3.3418190394905745	4.904086577431604	5.7906551214884	4.241087425968309	2.2837374152698837	6.445425970970516	8.61045358391255	10.451171848613328	8.781223274948683	11.481987924196803	11.028762789537863	9.880476926653316	6.485110743361777	6.923858148259906	9.702433561624316
100	-1.4152212107213435	-1.554009672056117	-1.511520620344544	-1.3035589423646528	-1.0272957060626386	-0.7239990216095782	-0.42976167689537903	-0.8229778388226019	-1.0638881894907595	-0.04276961822440311	0.5366252647202857	0.22823320271565956	-0.8999730921911347	0.02385088050304144	1.6350947577202324	2.373774760928792	2.5630831653733197	1.5777875145177511	0.5550080523783414	3.50815962859392	5.724325165601179	6.273005469696852	4.315602768492578	1.7260931686690721	6.352303012068666	9.39594075691718	10.805886241333482	8.60734842034617	11.012080164763088	11.35823819153805	10.165701840483973	6.117288097195713	6.932349664351747	9.986844037590819
104	-0.5231080042029609	-0.6211318954044489	-0.7525751571728063	-0.9171732640951877	-0.18795970034827758	0.13784728909498511	0.3612937322077856	-0.2835326783651119	-0.6552429778721903	0.3443927756197496	1.2147986858214779	0.6340287907805178	-0.6939738971355186	-0.17267151133334108	1.3973193133361215	2.735158674963895	2.6005945140029776	1.47827517613069	-0.23409178793932478	2.933865301354299	5.664911255839075	5.824474320011412	3.7740127945029056	0.8632928111214816	5.3692674501279845	8.928816772806027	9.82059762382598	7.5109715272097155	9.425810790105924	10.303008053516214	9.31595895322507	5.039639460237559	6.17899130214857	9.166129089101402
108	0.2558717423177768	0.12216665564925766	-0.21806664709824597	-0.6809362751934904	0.3987694670622804	0.6317709072374819	0.7495214920193833	-0.047175679236752616	-0.4846864330452358	0.42787733566020736	1.451599355847393	0.7261857968115767	-0.5971702322187915	-0.7436205725968732	0.7767086605489174	2.5306827958109577	2.132491821627084	1.1287376852147866	-1.1672844857308684	1.8820174884963485	4.882428156923543	4.604727733430332	2.78701328527609	-0.04207926232919632	3.8582699201446693	7.478384475900389	7.800234298085843	5.81646917781971	7.266302567256156	8.25311944785184	7.603836040372472	3.5993785767278723	4.909933077813571	7.507790546535373
112	0.7082810384034127	0.4776545154909682	-0.025999858909767127	-0.601131020458761	0.6623114926782576	0.731738505900188	0.6599997265364806	-0.14226619863354156	-0.595895110056331	0.29436686560696906	1.2973310914663752	0.5282719717993286	-0.5914285764067192	-1.4874541721936358	0.09587577706210945	1.9495320270908443	1.3130183186759141	0.6687784178061257	-1.954418058229326	0.7607976775034564	3.739462843036791	2.96683787550506	1.6055287082190737	-0.766772566289946	2.3135385454894433	5.5748491146480035	5.290337549204216	3.9300975700335123	5.16486738808301	5.83571718649914	5.494544492200607	2.197506899053879	3.4759817035652985	5.463879571471144
116	0.661870775935901	0.3457329860541406	-0.17198719040840257	-0.6415930374159304	0.6059786066014597	0.5322838412197416	0.20212264307966282	-0.4856330740111685	-0.9098339057839449	0.07152236980023545	0.9159433222533528	0.14969994089954794	-0.6588117463644617	-2.0858483261851553	-0.3478538683215062	1.270520207058358	0.38028469585727154	0.23468977153652412	-2.345738881864444	-0.049755684905793005	2.656418316810034	1.3191337552144293	0.4543511856051929	-1.1951504915580355	1.157467243133279	3.801344861923523	2.8625314163415285	2.17041825700191	3.58685254145066	3.674755087157682	3.468103876894514	1.1373294563188878	2.204867118990741	3.4981450946226227
120	0.07939669469814796	-0.22104892078856955	-0.5421230779311975	-0.7371379714474687	0.31133580129219973	0.2094932789281726	-0.376924901249055	-0.910719630803071	-1.2420940367810063	-0.11670346528629232	0.527197240452097	-0.24818542537017244	-0.7852725366793342	-2.2458431664031555	-0.40093973177771774	0.7648836951017828	-0.41664755239197476	-0.09275425947136152	-2.21743344700772	-0.3402003339284455	1.9626184652368204	-0.008105317110220894	-0.5402919636436759	-1.326385733116652	0.5895730242149014	2.592802041183296	0.9264585948441444	0.6697869879978237	2.677904360685841	2.1830830518918094	1.8634443236033609	0.5331398831258445	1.3007328477444076	1.9360163162942796
124	-0.8890569187605961	-1.021716830535037	-0.9682790612569601	-0.814115522236548	-0.0796846000328474	-0.044623806959975185	-0.798524437318789	-1.2314032285117942	-1.3785685266021517	-0.18350960267942112	0.33234199797645364	-0.5015292751047625	-0.9550799703326429	-1.842340941546046	-0.09215787774898647	0.6129458531163093	-0.8870490767017616	-0.30634239238642613	-1.618674870218964	-0.12547737328320618	1.8022934152875982	-0.8437179901755725	-1.3629366125028246	-1.235887405136215	0.5494163618521454	2.117469782251559	-0.36013609079988074	-0.616502045028565	2.2705228271379645	1.4653673135000103	0.8033335188610601	0.30770048421420454	0.8029262999289827	0.8937857128465574
128	-1.9403529118186091	-1.7812513068049578	-1.3011007276110325	-0.8181946853007426	-0.4074191142763125	-0.09261178201896628	-0.8707053043316793	-1.3186484541978933	-1.1798188656583286	-0.09549389755457827	0.44710954910881257	-0.495547621191108	-1.1423766584164354	-0.9850273703501116	0.41621860756693163	0.8595355727429062	-0.9454998350113715	-0.4551645803880666	-0.7593583445450542	0.40317442911399465	2.1226406043820587	-1.184603092063791	-2.0672640748282674	-1.0258377764551136	0.7968100289254428	2.2759525718447144	-1.063636061843996	-1.814070220181876	2.031282181379684	1.3568899597242066	0.21906962935451038	0.2673836641713414	0.6150667651859973	0.30484124941154794
132	-2.733751290095012	-2.2651801052123663	-1.4677760563985918	-0.7378696184602395	-0.5488173947783097	0.09950094644935722	-0.5661330208790011	-1.153526899286416	-0.6601147038959622	0.12919139829442855	0.8649554230786487	-0.20455302246424326	-1.3093556132637139	0.028568502443425892	0.9295095181839147	1.4181544744926242	-0.6266126020823535	-0.6094250663629609	0.06451770646972259	0.9924563144422257	2.7337458064677063	-1.1468365163458492	-2.714617245496104	-0.7917647341765233	1.056237933353153	2.7978982854774896	-1.3679133619104256	-3.0128183288801815	1.661150570490141	1.557745810390495	-0.058083981128910514	0.2094185198026518	0.5778591618253476	0.008519951232618601
136	-3.036635391197979	-2.3780302941364315	-1.4885328970520575	-0.6109495743585321	-0.4605547178084636	0.45812001708714783	-0.02142921457244711	-0.8300462344193799	0.005943183772161975	0.4385687697781878	1.467526074519035	0.29798975511655995	-1.4162323439127604	0.8485233762298768	1.3199778761916072	2.118501419440727	-0.06312237664021475	-0.8263065198063242	0.5832285866317374	1.4473117553409451	3.405388823494505	-0.8913893081094132	-3.328559628665897	-0.612985788228208	1.1495170564239203	3.381118765877558	-1.4544459544653892	-4.195578087704303	1.0448428366030533	1.7886437132499169	-0.1924329842238931	0.008765095822735106	0.5474621043688287	-0.15041534564665834
140	-2.8255097794721085	-2.1929125730461916	-1.4430613481327434	-0.5032309281041588	-0.18482951773231732	0.8504187443243041	0.5449439273427157	-0.5021032678325004	0.5639884457653971	0.7776538113987345	2.0852489418788074	0.8734437205196811	-1.4379080497677634	1.2337744204842622	1.5816025694016127	2.7824695040070444	0.5709654674419652	-1.1264713974168583	0.6627472622351103	1.7067372755828705	3.9618251223673484	-0.5536453113882822	-3.8817162415728994	-0.5514993057632073	1.0606904003066333	3.8145799540531935	-1.4220708572723482	-5.2412338124507505	0.28702047394766045	1.9021227311747746	-0.2717210941606957	-0.3432215443528703	0.45224207525514065	-0.25435057218230467
144	-2.2878143729622273	-1.8963073444173013	-1.4078642094352918	-0.46700951339115054	0.1833075131318204	1.1606518000862984	0.9519929265782299	-0.299310802657704	0.8102073052931378	1.1158878775079712	2.580090516252011	1.3826895917315174	-1.3730251754427465	1.161499497342154	1.8136535837159478	3.2962698853239587	1.1304001779626642	-1.4844717941951842	0.3607838740776642	1.8439483596022903	4.335866440316417	-0.20268508740750457	-4.313243378239746	-0.6441915018983531	0.910786209191117	4.036379327119913	-1.2741261688488754	-5.99016951002276	-0.3701720526409212	1.907064909888493	-0.294344156237367	-0.7588251809988845	0.3050424746918016	-0.302440195512123
148	-1.717809672786971	-1.6744070010825873	-1.3980839217173697	-0.4981100844681772	0.5530713186605445	1.3578032220891494	1.1521799535271824	-0.25461879308311675	0.7057086211506911	1.4598193131783241	2.912127249041018	1.7538276866501967	-1.2378164498548554	0.8275729992953141	2.1491866057493625	3.6485927012831842	1.5533293446423684	-1.8313780976787661	-0.09913904194835597	2.0020453879354334	4.567525852115566	0.1618146445242042	-4.560019958427242	-0.8842219688025578	0.8696440436341328	4.116143693068429	-0.9604953503200385	-6.327328189133675	-0.6898904425369111	1.9155589293754096	-0.20451599307877005	-1.1116132708140518	0.17638219848446443	-0.24425290463291635
152	-1.3629732097546243	-1.6063985784027295	-1.3488031591693674	-0.5187126384990313	0.8862747527634395	1.5159145555370026	1.2497605053819505	-0.28403371500782887	0.40839835898285504	1.8438876820740622	3.1549489418483625	2.0146694132484098	-1.0503010723299342	0.5393823371620553	2.6704411439230675	3.9190866848226644	1.8743534040811891	-2.0700070805739053	-0.42621630322612286	2.305696481605434	4.757567393688981	0.5818233475300607	-4.582852352015836	-1.2036560743460092	1.059053418346655	4.1852450265121295	-0.43878251203381274	-6.236154540529637	-0.5603849873699539	2.055331940230097	0.053979016704174	-1.2946871486401037	0.1495838757553021	-0.028798397557744146
156	-1.304983970208345	-1.626690025990964	-1.1509381503610672	-0.4092794646420227	1.208595034408918	1.771482582388093	1.4312504493817402	-0.23483578801469399	0.19557829151842696	2.302898162749584	3.4481224926676184	2.2694511356276084	-0.8155880549820064	0.561711667550015	3.3556952391778303	4.221917141745469	2.1879241411282444	-2.1037087387377182	-0.39269301196135004	2.7930774618202276	5.0007648341760405	1.0974324913927624	-4.379581440358636	-1.4805898629000536	1.4942311010781981	4.353740204309377	0.279322325478098	-5.801894173278871	-0.03572355574290796	2.3949410854908306	0.49467721456565056	-1.2585368124658105	0.2788195901030093	0.3574165990865472
160	-1.431457873545035	-1.5721086223964689	-0.720627902118883	-0.07193379085975884	1.5808852871081966	2.2407562676122876	1.847948188884489	0.026484372027406954	0.31607937733002806	2.8420057224999185	3.911882867473299	2.630050652539448	-0.5223060237095328	0.9924234722830374	4.084292878329509	4.634563434343774	2.5810613567036613	-1.8723835897856254	0.06665573997357903	3.4004340085961258	5.333785043601359	1.7101235346533004	-3.9842390913506756	-1.5790430267521303	2.088512892218467	4.656633842155483	1.1198625536301383	-5.168365465466756	0.7151182275836907	2.918432943605176	1.0793868276047052	-1.0153669093245676	0.5711340293769644	0.8833954311955443
164	-1.5108604393006784	-1.288002130117553	-0.06609041227105356	0.5035799729030823	2.0464818425961915	2.940108053413733	2.513153308245352	0.5301122652021225	0.8490675070306576	3.421444168989247	4.568662155060696	3.1354622761718534	-0.16181363124524556	1.7228367285146353	4.696889388623672	5.148833738678912	3.0688419264560207	-1.3866450751581154	0.8295780995404959	4.002295483974765	5.720377430778383	2.3668034016934634	-3.4615089805946364	-1.4084361756051123	2.710145943474922	5.04849671042882	1.9713622281847152	-4.481770504126512	1.5109158716201796	3.5495009332685963	1.7353792146737645	-0.6170527323402545	0.9916082595585025	1.488180514393035
168	-1.3282476630054447	-0.7315859776145929	0.6896921974888887	1.2104692428545034	2.5891704493955903	3.7567019367737844	3.2759170449517607	1.169329044250792	1.6513816076546979	3.9671742815945654	5.316719041752356	3.710186710527088	0.23710867702701427	2.4992630418619646	5.07728718429412	5.671366200433374	3.572231760542749	-0.743842599898101	1.6478530126929036	4.481208789955566	6.078207000645214	2.973203413132421	-2.898897163701496	-0.9705681776337794	3.254698745139609	5.441203103632888	2.725505345139024	-3.8511314294858123	2.2508628311548864	4.201323021771829	2.383593314828563	-0.12422095952857727	1.4845536909768988	2.1029014534309187
172	-0.8096887448849012	-0.013644389773729176	1.3456420864463303	1.8540885401644576	3.1250243108051405	4.486532199976306	3.8856677910929522	1.7376706556317243	2.421306842412789	4.398477543216201	5.968880161474216	4.186646927753707	0.5835736975241156	3.047645322734512	5.206506239143653	6.069571956569114	3.9501774211333283	-0.11250912369694076	2.2592742386043527	4.7841958878844455	6.32588766408238	3.4274580392133216	-2.3958034454892636	-0.3689689328891675	3.689617147667034	5.755083069576258	3.3089477932356757	-3.337843648112672	2.943660967070534	4.815193640949494	2.9594242498066143	0.41264414683109846	1.9922746369606517	2.665688031142099
176	-0.06825771165542081	0.645861445226809	1.7039695935143577	2.2298765126196147	3.532315245293187	4.921548830958073	4.114312161548395	2.019673103955381	2.8477690147979895	4.655964362787056	6.33572862932853	4.383534897227316	0.7398814540302638	3.1969282546391034	5.159233080235907	6.235224708073489	4.068314065198465	0.3175389460652804	2.4935085710512976	4.935525881704034	6.420881255151138	3.656095733948567	-2.0468633123217908	0.22883684875409827	4.04895543029861	5.951854213946401	3.690892687062007	-2.968968145503954	3.662057628922528	5.365277276798215	3.415286293943759	0.9526116227894365	2.460850471005578	3.1225895802815025
180	0.6480326636165603	1.024759528433849	1.6590127903060243	2.215580934652778	3.7061233426937195	4.942694174685204	3.87162255263354	1.8920310687933322	2.7677435805060155	4.718839633471817	6.311540587702587	4.200610627059272	0.5828712567872111	2.943027250488882	5.0495166651076415	6.133396610033461	3.8697912595320845	0.4054734100594995	2.329387420495205	5.005540835140544	6.37185095131985	3.639677992214505	-1.91638993733077	0.6656307561281292	4.390671242118967	6.038420185102355	3.8736853501747186	-2.7518281867168524	4.462201584040421	5.837860092682695	3.715967884218547	1.4567868672783877	2.84027814148011	3.4272184285419294
184	1.0785666676946666	1.0107231114618414	1.2483885256719744	1.8324110461701155	3.6072256474020303	4.5712580565434	3.252296916379804	1.386113759355929	2.2466173115275434	4.6036825063821905	5.918448433238506	3.6771037485744817	0.0861483437628087	2.4298419891044967	4.959035384055567	5.811532482733297	3.409634581540426	0.12179291962629836	1.8825836134109957	5.05754946385445	6.222262366797622	3.417900792075586	-2.010997528720937	0.8667858817150794	4.7456464647639995	6.046434387200041	3.8790352246576716	-2.675506108204713	5.320332036890939	6.207347854201	3.839412202678242	1.8845677328212695	3.08736395056392	3.549295654872508
188	1.078238484521362	0.6584424955910104	0.639508126551596	1.2405025927695212	3.280017844501954	3.9541256327932817	2.4909944471410195	0.6805729848845016	1.5408956965643243	4.349646080479381	5.2892017230962445	2.9813942833967753	-0.6255863293112018	1.8712394190274058	4.891633021402256	5.367779718198148	2.8348925042103823	-0.42966762076616094	1.3418302502132784	5.106492506486008	6.020015701353656	3.074710838184367	-2.264966005328874	0.87207335013511	5.090347277187171	6.006318554018853	3.742338886349232	-2.699802391865295	6.1258010709596205	6.432075007411695	3.788695087404069	2.199513906647689	3.177502385700112	3.4929747493292798
192	0.68558269566058	0.16023319919185508	0.056189887083762075	0.6691395027432634	2.8304335999552825	3.292309037479345	1.850448603726504	0.027031561291515013	0.9655089950026623	4.001430501371969	4.601404178446048	2.3358950555953517	-1.2952200141630503	1.4557254277669074	4.780920493453018	4.900874602342057	2.322164529659559	-1.046762463787843	0.8933563805913243	5.115354525048838	5.795537933976072	2.712762825792534	-2.551443808789547	0.8113679269332739	5.360686288650626	5.936324104580094	3.518743982967832	-2.7459666659644393	6.737507803118823	6.479779227109368	3.6110553650284696	2.388264173199949	3.1253364007243962	3.316296092243612
196	0.09911606435785307	-0.25167003210423355	-0.31687840739354717	0.3173423103426628	2.380875581452246	2.7532429625616692	1.5026164016933188	-0.3543371847266462	0.7396497707766068	3.6031815914735197	4.001713265806069	1.916989321637118	-1.6319059092327999	1.2792488304265182	4.548889625508566	4.473076332242945	2.007385010419511	-1.5062744579432383	0.6677102429698029	5.032533632923957	5.563111768028468	2.4292917190253194	-2.7202088764176553	0.8378931858842484	5.498738751833572	5.853400692466457	3.292274943622619	-2.705652945363097	7.070219498903562	6.367488368170464	3.4066946420489472	2.480002396997873	2.999725334223297	3.1333005349205973
200	-0.4246812452084531	-0.4216551770054914	-0.40792381660467386	0.272156357078069	2.023563141482181	2.4092447696893364	1.4629965983646993	-0.3626710167311333	0.8919187165629716	3.2016727843512456	3.5572314172578676	1.7842402413143181	-1.453046675828175	1.330486294248267	4.177912224711795	4.1042985812514114	1.9438342999018605	-1.6498821932145138	0.7205927353785542	4.844736087011381	5.34111832223885	2.3006079138845164	-2.6500654153673335	1.0542550060357718	5.502361283715295	5.793519005453337	3.173664323423425	-2.473364346935287	7.1578321276191295	6.186026557562936	3.3127772724435367	2.5495290691856165	2.9169497416283297	3.087784520936393
204	-0.6993469578252305	-0.34826779277610387	-0.28091150451308716	0.479737548808997	1.7908784105861937	2.2245297375781825	1.603172894244919	-0.05233234526415382	1.2679722277099328	2.847844116650217	3.2495222009632254	1.8694529486187081	-0.7979665974497445	1.5223548373887232	3.7473933602134237	3.7905485534333248	2.100681776465087	-1.4426523410613272	1.0372954580820695	4.607824313927885	5.1695003379004145	2.3715431630340356	-2.2960925044263125	1.4655895196151718	5.443274007405736	5.818058952901145	3.2745633042630398	-1.9911268899237546	7.151536446635268	6.082893356224202	3.4596140297327214	2.695116274704885	3.005761854212328	3.302337638146774
208	-0.6998854261847719	-0.18535655690125186	-0.09953913812540063	0.7804208378161563	1.648539419780404	2.0872826523534087	1.7265107588093143	0.39759626884212845	1.6275960165892625	2.5826401645304857	3.002190343906404	2.0241558500683308	0.06269033237365114	1.7446408227741603	3.4021589670115704	3.5243227392861445	2.39240502707133	-0.9755857562229484	1.545293923291196	4.427698124197113	5.102194296352817	2.6446740560517217	-1.7094631151908564	1.9796820829000377	5.434883103954021	5.990092739240484	3.660801163013835	-1.2832131353405205	7.245339852160156	6.199389442050683	3.9115764995999265	2.992512695386526	3.349761477596132	3.820309629331696
212	-0.5686334953256604	-0.16289167065025387	-0.0502137764020577	0.9870198940152775	1.5163128337723861	1.867871398978231	1.6662950473677165	0.7649735193012325	1.7725557044099198	2.416699880220441	2.7243561675906562	2.0984299129911586	0.74049860052071	1.9082634400826106	3.2725860989915425	3.3022043621613926	2.7196373870849917	-0.4157741357319637	2.1279847568191275	4.401140678738042	5.175593839929708	3.072630636086958	-1.0197005246166657	2.451130383978727	5.566941247236328	6.331428035009554	4.308648575394901	-0.4596032488663162	7.569310646019943	6.593646509689313	4.624127376325689	3.448474398489484	3.936786403253319	4.572665679830862
216	-0.5371689186839095	-0.4689101266943048	-0.2624764435816955	0.9678878759742868	1.3027423587332916	1.472287174322383	1.3549592460755167	0.8806467630086668	1.636680837313701	2.314636701462012	2.346750730311596	2.006037468613831	0.9172487235752829	1.9636768053067801	3.391082278273057	3.1153547685169314	2.9994499607651295	0.06798856688261706	2.6410071783143976	4.550294864610243	5.370822892934116	3.559943428588301	-0.3865409185663906	2.744761460050124	5.844219669845594	6.786883813888935	5.09185694362623	0.3195990911997732	8.109654406099798	7.193521481471893	5.4446272712573	3.9819242853720227	4.645771968556198	5.391759381986481
220	-0.8018974045534676	-1.149495360333277	-0.757250843520407	0.7012212258754607	0.9409586763466893	0.8727972485440795	0.8400747158775199	0.7003124338588648	1.2987768617263968	2.1995441858071585	1.841239566922667	1.7501720145860622	0.5154676424363622	1.8998826694204816	3.657225361173498	2.936712496018741	3.1794645706011635	0.3707806160625414	2.9431376382907275	4.793517577466623	5.599434361625726	3.9843723673360567	0.0608615612937213	2.7900357175957295	6.168441280049962	7.225600701209016	5.817971214864257	0.9075406766866464	8.702625252686186	7.812652568165573	6.165590747525421	4.446020591954809	5.282942758573473	6.0732354964463395
224	-1.4177374803988285	-2.0755841679621683	-1.4412293397755525	0.2777251892230514	0.41519066586573056	0.11228737206719439	0.2498679452786442	0.3208155623919229	0.9222761965354596	1.9844206521477175	1.2257679669903774	1.4049783909611324	-0.24798911747310032	1.7384172634102957	3.878358354313311	2.7226252487107487	3.2397289194327756	0.4775957155090457	2.9425773546312533	4.976350294900523	5.731338009669167	4.237046231062741	0.26994454792532807	2.604029172044843	6.3801679450122295	7.490137081308949	6.304786189373693	1.2318160502804663	9.111520744207535	8.230797746858393	6.610208494663367	4.688476550662735	5.658452973384678	6.460232241532499
228	-2.2581288757532403	-2.990008823475123	-2.143224710775401	-0.14280344509786813	-0.2240974450413937	-0.7082235795259942	-0.26505613260106126	-0.06456201507242063	0.6661765558589594	1.6225275952382283	0.5635538683014369	1.0737544271062305	-0.96191572900145	1.5305787286261998	3.870787849190213	2.439143889944659	3.1933493533572457	0.4438675332783748	2.6436774663935934	4.954304205783821	5.659919724479607	4.269746292778277	0.2772002511178399	2.2801444472918946	6.345867617797804	7.476212482650257	6.464196188818634	1.3234441246951238	9.152638412255579	8.303364732759164	6.712106687765473	4.62768028998249	5.6722612237770615	6.512105448493817
232	-3.058642856504964	-3.610745897713577	-2.672817461894973	-0.3944270302827777	-0.8602545835710164	-1.4501289092644967	-0.5840912446533937	-0.24998396571940656	0.6189993008244146	1.1531624764891795	-0.0413664168565145	0.8493614771379475	-1.2262688844238052	1.3557141985043357	3.5724813847944383	2.1007053799043587	3.0886750143270896	0.3525809636750957	2.1664142553945878	4.6866669536519225	5.371997819688962	4.126697529864294	0.18701596510877033	1.955703611204596	6.047257884970179	7.201205235419779	6.351178153215305	1.302480098296942	8.806293465315074	8.044409731581908	6.5499009920690465	4.307707298846985	5.367122159758646	6.325144274954618
236	-3.529519310623122	-3.7479853535438385	-2.883453838697762	-0.36588969734320037	-1.3372175659750465	-1.9676288316639896	-0.6484198553880437	-0.10920064868774625	0.7801087478969003	0.7063665968227054	-0.4627395558595117	0.7893687466718915	-0.8595404007191209	1.3083413806307767	3.0953321378759555	1.788667674317056	3.0013534946958704	0.2732428007379694	1.7142367319695757	4.281262386956965	4.974513041334605	3.933663119874974	0.1236410286881187	1.7686982110190854	5.616634831553003	6.813727838479364	6.142196162928725	1.3207763400110024	8.247243860403296	7.630374412345264	6.310750468533439	3.894877900780392	4.915375220286403	6.087090476880109
240	-3.481143942626972	-3.380822650003062	-2.720023625182161	-0.0392660199604484	-1.508008833892534	-2.1460676139054304	-0.47007104635766406	0.34502604516656693	1.0859303447009163	0.4563751805227207	-0.5890101179510638	0.9063109732633899	0.004567589599282993	1.4709883891160063	2.6826174191456214	1.628124948205664	3.008470766101241	0.24198026894033572	1.495627757111049	3.9574544329862933	4.653504836731254	3.8403158090907556	0.17744070246719695	1.81553625602107	5.290442930215914	6.5286440684471785	6.045982345575205	1.4881319962123103	7.772522906706833	7.316021423942152	6.197327121346661	3.6107664017113277	4.543653953524714	5.985667213586374
244	-2.904178850470998	-2.6594335965723186	-2.236159080581658	0.5065628873433355	-1.2895503011570402	-1.9405443619371443	-0.12232820658793289	0.9623066162609001	1.4519131146966986	0.5424439297332134	-0.3701769104194581	1.1677459448895544	0.9855179761800192	1.8738696527854135	2.5904967719477834	1.7264594988149369	3.1499373833283006	0.2669302814420021	1.6299612480972678	3.9401037593545625	4.579814422488594	3.9405350585630683	0.3692938080046955	2.120030874621802	5.297276960350026	6.515181048156462	6.189569934476598	1.8182864143240631	7.6579217717422665	7.302326660793134	6.323180659542095	3.629507770911447	4.428508747364012	6.115110381899697
248	-1.9714224288757862	-1.836757536065453	-1.5781856735438455	1.1251847715579852	-0.706333933477451	-1.403583284649042	0.28112155128074534	1.5165119132854332	1.802533860424015	0.9919460390795919	0.14381782674241705	1.5002293548853807	1.649977203018046	2.457573646062679	2.9510810300705987	2.101426119267163	3.3935606393965605	0.34323725017672896	2.085233683089783	4.334990967296167	4.807526099464947	4.209781159262682	0.6430994255995356	2.618278019970294	5.7319841240169005	6.794335348141362	6.5372762515003355	2.2157137338010022	8.010736445228936	7.621454219649279	6.646084768681675	3.983494510130021	4.609062183187455	6.422861559864156
252	-0.966032323782469	-1.1639755934891616	-0.9399999356378977	1.6519643026605508	0.10037893776584321	-0.6847532970306246	0.6153060778341662	1.8012330486597212	2.079137796874705	1.689156766441466	0.7989854792449627	1.8002911760653584	1.7260322527222656	3.067614309195326	3.691653242327421	2.643744223595573	3.629847994222966	0.46167126181389956	2.6855559281256287	5.055285441033018	5.225769029774952	4.499953258597206	0.8895664788674944	3.1688752094371035	6.485633356885848	7.207673531454473	6.892282468560573	2.5129904683562367	8.698600747081112	8.104413965744376	6.977682572867664	4.5307741050770085	4.962301241743854	6.726813299361644
256	-0.17384508208252195	-0.7997015694454862	-0.5027739988984643	1.9564254234510035	0.908148703666465	0.0057928976456595735	0.7770357708386189	1.7149012045478542	2.2337589207519026	2.4094896255694556	1.3794006074411154	1.9572850416357839	1.2216212718638229	3.4955089004001523	4.554604995672358	3.143880836178675	3.7096247579375645	0.6028792246856094	3.187604419289719	5.843380913286432	5.597708687954547	4.602742660345744	0.9906486247800416	3.5919599442392784	7.274765949955736	7.482815723600382	6.987248403074226	2.5429866249730084	9.395990347981506	8.453419664020936	7.068188649451902	5.006103026148646	5.254116998758556	6.796815378194915
260	0.21442158466085465	-0.7696129660249011	-0.37692007327284033	1.9819722125558157	1.4856129847211725	0.4635033297757352	0.7163525205645832	1.2988405194868562	2.228677028751183	2.9067337439582	1.6844447808652887	1.8885441970827754	0.3927971114731874	3.5588323980124925	5.210058675963298	3.377038947162273	3.5132415205946397	0.726581571651886	3.3908882055501586	6.382432921507976	5.67222498415313	4.354525078269797	0.8677289464023347	3.729666700483399	7.76237247414579	7.36740825700333	6.622138006657174	2.2152175847391447	9.730198835602067	8.386050203131457	6.72739074915877	5.136358248140341	5.244705663790862	6.463803275001267
264	0.15653724928911525	-0.9835514401399098	-0.5640851841036233	1.764927144362957	1.6750031667381255	0.5624510035619423	0.457316725291538	0.7144297939382731	2.0530443139693935	3.0145373268311637	1.6097881753332586	1.577342625450271	-0.4069652845121385	3.1856238761581226	5.406785951314998	3.207669011600511	3.018565170296336	0.7724360208082705	3.22515343805478	6.445654375968719	5.3137550219844485	3.73052619945889	0.5161652551970521	3.510618916231144	7.716711978503015	6.765151483621539	5.779613003443768	1.5642571409786088	9.460082983928086	7.781327227973666	5.925367817223722	4.771268355721039	4.80292843559716	5.707353577509263
268	-0.2464102649427924	-1.2943556276066999	-0.9565844511676201	1.4230494463277998	1.4503227435688169	0.30286511702365393	0.09327383315855681	0.171708046956463	1.7477832988480746	2.714021675887012	1.1922320097386219	1.092100855931065	-0.9046109891940431	2.4650568899860463	5.08621119168736	2.6588704518899027	2.329026216348778	0.6840023381129954	2.7731468607505523	6.008405670255039	4.5813555601800156	2.8767011092989176	0.013053884696785114	2.991455547409459	7.1296005069018324	5.801615700379184	4.656291949913915	0.7491372208754865	8.59979436610499	6.754003507728053	4.824141490200585	3.966373195170807	3.97859882303911	4.680971610648724
272	-0.8018356541416363	-1.566915269710301	-1.3784552777773644	1.1143501968859382	0.9226515865873073	-0.19282898258161982	-0.249370887245956	-0.15556544026198965	1.4139343464438918	2.1339981502060446	0.5910645112373504	0.5680967555008132	-1.0149193976527238	1.6322761732852098	4.400845993375016	1.9049495410507553	1.6386792618386847	0.4481615710864421	2.219639772533155	5.261485086508507	3.709006538563515	2.055513615186914	-0.506120263252351	2.34750651720544	6.228214725028443	4.777837741233018	3.586802950386332	0.0009129862860077538	7.420835476259309	5.613665089739212	3.720661153936312	2.9706501885752687	2.9937050266976026	3.65924953490496
276	-1.2963199582749583	-1.7221710638434644	-1.6533907610157141	0.9814847682968305	0.2882893376224354	-0.7347093205975824	-0.46280115725973153	-0.18899078619448262	1.1886275976688647	1.4853825531650529	0.01414699196969009	0.15687276383370882	-0.8284783938471664	0.9833397244422021	3.6312312988154205	1.1895779341227641	1.149152395208105	0.12535054950060556	1.7573287442661742	4.518011558569924	2.99573468405637	1.5304177960857126	-0.8933710433339019	1.8102973653864087	5.371305928974157	4.032293786358744	2.896091215451134	-0.46123152854817934	6.330054743997396	4.727375495419261	2.926068298581626	2.122765774135771	2.1552224104826587	2.9289169237575394
280	-1.5623109301223166	-1.7455719665324907	-1.675686712802684	1.0966588231055312	-0.255595146964395	-1.1474183768866775	-0.5039554225595746	0.04082686071220872	1.186102864131843	0.9656010245739631	-0.3764193644556688	-0.03809317936816418	-0.5138620125194566	0.7497787456655844	3.0495595855012856	0.7106180769145105	0.9786534284678583	-0.15678398271554003	1.499104734450598	4.061134328125528	2.660324089963015	1.4451887571086954	-1.0420989963923906	1.5686553677054804	4.877577769362546	3.779243459696609	2.7517042090560326	-0.5128821717664679	5.679382786716845	4.351391781311155	2.6350662641753444	1.7002664761531017	1.7258827642735464	2.6705400876331447
284	-1.5245492419852338	-1.670474167420947	-1.4558763467270976	1.4281562530699723	-0.5932519420904396	-1.3452661003480364	-0.4144405116108038	0.42460027229873015	1.432282921035933	0.6751395446897847	-0.5357846604171407	-0.010323411759002019	-0.20677149243602103	0.993782636994419	2.795560114478144	0.5284721838006237	1.109151479781754	-0.2545923286209033	1.4429627620505339	4.007049550430048	2.7337207725169637	1.757539983126725	-0.9284148788853784	1.6782648521012895	4.869331824406558	4.003692616844773	3.0879187505960886	-0.17429856911998937	5.598585591486268	4.511425006920294	2.8422448563341534	1.7905887320133167	1.8060578062235286	2.8803703712220265
288	-1.218491789602437	-1.55341648663281	-1.1190733881353045	1.8445037556809052	-0.7311339359897576	-1.3644739354969901	-0.3017303339969627	0.8261647799614061	1.8322856379978247	0.5839183911839815	-0.5487072453950429	0.14451505207291684	0.046607654424057864	1.5721107681636755	2.82223295452921	0.5458718524502363	1.3999009097041153	-0.08370724299277635	1.4990816078484837	4.2516870391312445	3.04573249047921	2.2608442249437726	-0.6217257960834915	2.0284190126704824	5.211535917475682	4.46853731934547	3.640467634546496	0.39594766397644826	5.935440048491017	4.991494643006818	3.3457426940369426	2.2483227196195514	2.2822222652035187	3.3700964365749426
292	-0.7791269997952835	-1.4569152556829097	-0.852964101068366	2.1598508303470716	-0.7789139131907495	-1.336569305860106	-0.28681364583081204	1.129079100619198	2.1950433198822425	0.5627657756902065	-0.5762472138161118	0.2755966179565292	0.26658150486397947	2.190704340172128	2.939240209787994	0.5702146277336253	1.6616780715950714	0.323414831537048	1.5562506874847242	4.530434597021225	3.3147232448812503	2.684373371976271	-0.2570087307163192	2.3878230988297244	5.581536278937761	4.833024012761166	4.0759138958067185	0.9648676490264982	6.336729033683914	5.439960942838905	3.840187063058366	2.7660570074817095	2.8744375633146424	3.8501789472647063
296	-0.39894381064780826	-1.4405065738548308	-0.8264169076081695	2.206319803389539	-0.88221227899974	-1.4177768194642808	-0.4461743522346478	1.2620856730067773	2.3136351050137356	0.45963540557209137	-0.7669223527618884	0.25121438439839844	0.4713162171862006	2.5323138173064734	2.92423867441022	0.42252942813052713	1.7501412585894358	0.8158056119348872	1.5467725953150504	4.557983386929698	3.2927060044125467	2.82036422971093	0.02251913206554208	2.5142545636594416	5.634798989374574	4.821975695833494	4.150526036273859	1.3214768137946342	6.4291333989901664	5.539788232168164	4.055951108228946	3.024281494134443	3.262529126513272	4.05977057385651
300	-0.2649968557819818	-1.5547373255576977	-1.1142877312183712	1.9041430902089804	-1.141710397698818	-1.709201808428821	-0.776911793177799	1.202340838257716	2.061205143492857	0.18189874245494966	-1.1778848141495397	0.02257737697921148	0.6247216447316284	2.394114726697751	2.643661730767412	0.03471207609949422	1.629557605443868	1.1868405312137207	1.4699425660214178	4.177013386670851	2.8912105487306685	2.6151070528762492	0.12780442801632935	2.275555128074356	5.182937608984653	4.361028183416953	3.8210475348321524	1.364823695551649	6.008425220578475	5.160668360078475	3.881592740749237	2.8456237244286497	3.234745732723555	3.886000861847116
304	-0.49561059349815423	-1.831612820769299	-1.66249823150511	1.3002858129097208	-1.5617316921858517	-2.2065453473647993	-1.2006614177907649	0.9672295426744048	1.4557998143633992	-0.25652807886206397	-1.7447386936006346	-0.3543414762610592	0.6435774548494273	1.7764527752847854	2.1225609725768395	-0.5134965168386167	1.3771215642492376	1.2755597797613938	1.3691427673104588	3.4414768132105205	2.2262043896735637	2.1825547163218544	0.0630850864844213	1.7224494175338627	4.29524515974881	3.6121115593312227	3.25543116701276	1.1437908382148059	5.144363390332043	4.4212870486212585	3.4128522786758566	2.2826788367813458	2.792420141799304	3.41691969962506
308	-1.0959378453241484	-2.2690193595819457	-2.3108122290443	0.5559781775742564	-2.0530075975083046	-2.802540056782299	-1.6042195518045324	0.6052864774680754	0.660667238951635	-0.7454718332542781	-2.313550943255525	-0.7507862429736791	0.455883322995276	0.8841756559936842	1.5275498590049406	-1.035363909968355	1.129839298256744	1.0522135469573688	1.2872081962511492	2.591028445377838	1.5605461558042624	1.7381846860869694	-0.07761223594620645	1.0718405219673248	3.2697985089717254	2.8924574778962215	2.7416417529504566	0.8301889279386119	4.146762360593664	3.631132593523922	2.9039754794235377	1.592090245041943	2.1550924723573766	2.900167934724899
312	-1.9497978638058713	-2.8181283402817603	-2.863460295123363	-0.11747202992582756	-2.4808037218402106	-3.3371977721835164	-1.893918271051446	0.1867648805432879	-0.08516303428367557	-1.132997509956839	-2.714519970716076	-1.0322779390975452	0.064743324950789	0.03719313805845727	1.0813708278056897	-1.330319282034028	1.0072495911916806	0.6382129772285414	1.2338265149436645	1.9349657248281211	1.1768829792826845	1.4905644617594527	-0.15782798786846752	0.6065460428182888	2.490534299284515	2.5208480294478486	2.543277018801621	0.6350113137425147	3.410889140100491	3.1414654175598953	2.6433877878207164	1.1060737343519025	1.6564226108692044	2.6238701277290026
316	-2.8568689751021625	-3.3855607424135847	-3.1721422592182837	-0.5446278439122699	-2.731694453018296	-3.6689205077046396	-2.0334961362996316	-0.20689582772470855	-0.5698122367777625	-1.2968820300737711	-2.837796680915086	-1.1224881382258654	-0.42909261475946453	-0.46681713940062364	0.9532555913699639	-1.2790209022654726	1.053748843393617	0.24731253025080188	1.1862611740679667	1.7047960715167265	1.2459228007331316	1.5466160735182655	-0.06601614488385092	0.5420320020342108	2.2429642620677726	2.668118946968481	2.7747108866255097	0.7080024462944359	3.221833459349173	3.1783800044875687	2.812577717355711	1.0680593225216102	1.5792217214767157	2.7748124529399507
320	-3.5982246308079344	-3.854068984791506	-3.1926159778097807	-0.6547748429933062	-2.763360016521722	-3.7315006161892184	-2.048942560744886	-0.4991286384378499	-0.6938095671302877	-1.199770089935044	-2.6756451062359785	-1.0336205933223657	-0.8687434174538505	-0.47380667805256294	1.177446839220836	-0.8947465993225555	1.226001617197307	0.07508382927295978	1.1210063667604904	1.9464865873783794	1.7523368552788388	1.8725763512063422	0.22897361161119012	0.9239527559794689	2.5786757404071943	3.282918206509402	3.354011050339309	1.0684754821503812	3.614666691237003	3.7375371361782497	3.396048537263204	1.5104541740429152	2.0094022700121963	3.34260796656683
324	-4.001215924651319	-4.112352837670286	-2.9853780194249255	-0.499873487879405	-2.609348052112591	-3.547789087874969	-1.9961644360688728	-0.6363070591120155	-0.49543779963338663	-0.8990955330083223	-2.3112275542080463	-0.8449746348981994	-1.1169850798062266	-0.02647638500502722	1.641713376668671	-0.3079133920048047	1.4296302759315462	0.2005329723063555	1.0490490171649434	2.5055298741978267	2.511170380927971	2.3255844057495576	0.6636767966680356	1.6085144240776243	3.296298495553379	4.125192154959647	4.053479184407062	1.6017478664012268	4.361226070837107	4.590458381507131	4.188585747634066	2.2378182354694367	2.785538189530913	4.1211762324234
328	-3.979924430335568	-4.0832729236506875	-2.664080374667276	-0.2119063431634895	-2.343613857074277	-3.1996524253170398	-1.9139434050874962	-0.5991621598375112	-0.1106592861004263	-0.5125910626821198	-1.866702313478558	-0.6462395174876647	-1.11423706727044	0.666949210867232	2.1453158801274212	0.3016376785768933	1.5785163601122245	0.5541684017495104	1.02242350320171	3.106306545044293	3.2592008031574173	2.7325606277139847	1.1141447992805606	2.3316361845276132	4.043584813399328	4.88365362841703	4.6157050016216115	2.121819013960549	5.08615873960009	5.3949098450827755	4.8938536520424005	2.9235551283456616	3.573215714016217	4.806623923563904
332	-3.5416726976621398	-3.7424678708002004	-2.324930662007312	0.07524955253675875	-2.0298371263753983	-2.7758941580306034	-1.7940804913047328	-0.40312731164241866	0.3054160468019882	-0.15947273333340825	-1.4417494499045493	-0.48350819823261304	-0.887828288220943	1.331101414180796	2.495414250749245	0.7865524868180094	1.6409339863355556	0.96632849926161	1.1041318150300232	3.4849073798885883	3.7739171886529275	2.9736082478787136	1.4597488604883775	2.83105372667796	4.48810480892009	5.318262563629562	4.875364291279755	2.46726345393006	5.452597127499385	5.8559498639077745	5.268062101414998	3.2712266362569378	4.032264699292167	5.146102892280776
336	-2.7642767359560527	-3.1200394551658706	-1.9948171326817716	0.2986070208162954	-1.6841115909018356	-2.32642626175024	-1.5837397535392832	-0.08539980628386741	0.6514087898974041	0.0960889903265133	-1.0729744407266688	-0.335501759397309	-0.512362538474628	1.738577242276469	2.597892277834263	1.088168260688003	1.650820966367356	1.267573949474549	1.315954920307294	3.510818949418505	3.9630837340432477	3.0297937316693537	1.6413429934069717	2.9594435617114727	4.470686424412064	5.357979760947499	4.826328265402583	2.577934020209482	5.3218803271397155	5.857115730756638	5.234455095426849	3.157001725809244	3.989348401487922	5.060715662576925
340	-1.7646923020631349	-2.2913443984354926	-1.628787394226025	0.4932190465395469	-1.2754752603753157	-1.8491737795872665	-1.2211124866173046	0.31282409946616124	0.9091420746737836	0.26968395641902804	-0.7331204395858164	-0.13380630280567285	-0.05273621143497101	1.7902253820996832	2.49717258776568	1.2439745633189219	1.6811268287175989	1.3831912244206808	1.6022535522062245	3.2396750368340346	3.8870022198768144	2.975508205530777	1.68338310293523	2.7359778811996196	4.068280686597475	5.111968504396987	4.604335296450122	2.5118014749052593	4.8089952347456615	5.499750123443567	4.908574568753281	2.681905978107378	3.524289122266576	4.6765828014557025
344	-0.6771797520706505	-1.3662340606527634	-1.158824798519256	0.7566446642845717	-0.7606948594914784	-1.3140438761913302	-0.6845505220296106	0.7547461967486239	1.1212335796658004	0.4401316929672197	-0.3647515466540878	0.18647371185429526	0.46112355473444133	1.5340471228969228	2.3495817125127005	1.3507264818421238	1.798680896986172	1.365725633034113	1.8423298550821459	2.8773910926650954	3.711953630612349	2.9262404367953025	1.6686334567856407	2.3204598368232867	3.5423273950786998	4.798475253387944	4.40089463076503	2.394905799541213	4.2116131676198725	5.036959158578067	4.5242571716523	2.1098053402085317	2.922664873373544	4.248727787734907
348	0.35564574509474134	-0.4770017552253586	-0.5609455094480066	1.175078389062021	-0.13140360977852067	-0.7068594676291087	-0.025961400875468055	1.204635140238618	1.340640422297276	0.7008956057018748	0.0727068407488021	0.6361718161733616	1.010483858418317	1.124193903945741	2.3442196786822445	1.5057959518561896	2.0258851000181886	1.3493056263235554	1.9109222840700384	2.6755015782517217	3.6216161159631097	2.9713187142693815	1.6814020829664766	1.9288356255470283	3.2022564330314127	4.630291927091375	4.355521667927926	2.3357384145892777	3.850949992947574	4.736780631503914	4.299741257302156	1.7235276655551273	2.515628569927335	4.017615308154836
352	1.1939539879218353	0.24304580627113395	0.10446665409654139	1.7563614800932015	0.5573711381191403	-0.062336351565094705	0.6373976452947173	1.6199248988260373	1.587414618298987	1.1045829029805443	0.5711163864021555	1.1554307908450248	1.5453344544495409	0.7463570814362472	2.610170357789836	1.7592515901017738	2.3304531515410982	1.4609188996623643	1.7568128064623012	2.8108851838669424	3.7326574231320984	3.128446094243767	1.7566105082984442	1.7362424091372224	3.2556610025224337	4.716259944452451	4.484890926481914	2.35683583618213	3.9089598557008935	4.746580588754561	4.317709435052201	1.676760907708114	2.4958672460483946	4.076825131613744
356	1.7308449701478588	0.6942257863637035	0.708716688750976	2.4096512733656783	1.200857159443713	0.5387814627395916	1.1733120650232065	1.950984473071064	1.8407328082340662	1.6318602520750172	1.0754557820824036	1.642548556949155	1.9651319931006523	0.5522382245426222	3.154946319243999	2.099266762201692	2.6474118165886327	1.7434449151844065	1.454046364927824	3.3078610813548743	4.053674687641432	3.343095294141283	1.8653254461877227	1.8137760116560073	3.7184004689749783	5.025633322425021	4.685527312846695	2.3856627880899395	4.3441586384766335	5.027644621553244	4.4863471871593905	1.9200172375840632	2.8117375302850784	4.326106537386957
360	1.9319680880406456	0.8492851235881831	1.1205685110410757	2.986921064464975	1.6908690886722502	1.0071197722756875	1.502448912641923	2.1562311594882906	2.0639111943588273	2.197521681005746	1.5146456918622275	2.012890572234224	2.1524472182289234	0.6232159718037588	3.860784282473526	2.470957272966755	2.9183287546863714	2.134595865582343	1.1844887703554006	4.034418572730332	4.498824585046589	3.5284714609706165	1.9423793505265665	2.1181781238482813	4.421368587775106	5.423636899606194	4.803404795917002	2.309236520658996	4.923363196340455	5.388577447637825	4.602003562752396	2.2372441235324096	3.1988639750779417	4.535798538200309
364	1.86799549584834	0.779249606549277	1.2847205368030843	3.364614955036658	1.9700409124226703	1.2960803476035663	1.646652575150158	2.2289838734617122	2.241313213411663	2.6896605423730784	1.8425911618441815	2.2533802929252635	2.050064320156727	0.9656547879634148	4.539043891890846	2.8140554357052516	3.125790588116438	2.510823720314832	1.1519546479705003	4.770615565653108	4.943508612549358	3.622402182016423	1.937331194754705	2.529719584753819	5.10418652199476	5.754218563810618	4.730748164630716	2.0586991258142473	5.349457727277609	5.597316727811493	4.477954853196204	2.3739926755095406	3.335222951097804	4.487020004387916
368	1.7112110809991263	0.6436761005362815	1.2640944687399258	3.512595167828327	2.066276068238965	1.4355392419810806	1.7258198217688225	2.2159933987935823	2.3985838829517263	3.025248758307416	2.064993853123794	2.436120027113548	1.7293978885856554	1.532014723724503	5.018098341670119	3.097333185005303	3.302746526008901	2.76269292133908	1.474883195014376	5.313969121867942	5.290688978188925	3.628024568934601	1.854494447794353	2.913650505339052	5.544485078164607	5.924042686764421	4.475442875053132	1.670079942301398	5.41587971273613	5.510651097689727	4.064863671530419	2.18585109158819	3.03216838071121	4.106841553809689
372	1.6753021436355642	0.6319094284315901	1.2123700349715916	3.5066187293210773	2.0834734387247207	1.5217544994080614	1.8965464782515364	2.2064809743486045	2.5878391200532485	3.191481820631858	2.234652990421276	2.677251570617909	1.3890191281535254	2.2462708893329837	5.222862707303041	3.3311498081027167	3.510192385394208	2.852187387894744	2.1161830371833967	5.569869027380304	5.513610349086064	3.614151707107444	1.7539321139875796	3.1756119647911882	5.657752499601046	5.944295868170807	4.163710583664887	1.2803218332390558	5.108644949412702	5.152879701956049	3.4943761737337007	1.725015516694254	2.353879207390156	3.5221357256655677
376	1.9190038394161504	0.8762398936083247	1.2902963128891656	3.4784221561348203	2.153627151773918	1.6681337314451055	2.2647011222881606	2.290228599488114	2.8500347065494713	3.25275038851611	2.420607799140628	3.064544431578565	1.2663811413263155	3.0205180568728265	5.20877598401097	3.556564322075226	3.7980160617305114	2.8203980851490766	2.8927817271629808	5.586934075554992	5.659203991906952	3.6772653963707045	1.7151784853546492	3.291694155965394	5.524412618040724	5.91512678560285	3.9769115347590684	1.0608038875499992	4.609481799885614	4.706068503895907	3.0206394119292828	1.2202756374067711	1.5987732370065764	3.001936904957459
380	2.462104314309907	1.3808075154728416	1.5736955364549623	3.534012070316369	2.3773410260259893	1.9451212833886014	2.8209853101079214	2.504316800470421	3.18067597539852	3.3223338043255364	2.6714167527462878	3.5966768173963146	1.505937810910397	3.7628481293089258	5.135591493991885	3.821747770197206	4.171724308925416	2.746288531045414	3.5668888001985732	5.525078282711895	5.816545948601987	3.886995782575195	1.7861411526406956	3.309116832007832	5.338708864084532	5.9671845285439264	4.057374467142589	1.1240587206117316	4.203429688331452	4.419541824626641	2.8898365424627754	0.9609842872198966	1.1489967078763448	2.8175828385741535
384	3.161195270186474	2.0078649470180308	2.00744556873845	3.6921656038526165	2.7813982893338456	2.3426878393153845	3.434970847040423	2.8025519777112238	3.5210566431792785	3.5109851271677193	2.992344610288684	4.1686906709325875	2.0622100778012324	4.380217541126072	5.191884981398586	4.158042897216794	4.582200038785061	2.6910750797993166	3.965233792784157	5.572766766783388	6.067670806824158	4.244709004175718	1.9517171333627932	3.3210272705153585	5.307888494441888	6.192198260885978	4.433677662145883	1.460049744734444	4.139002312700659	4.486627567407706	3.209833852293287	1.1461476058632745	1.2703976599090092	3.0986401956526377
388	3.7679746055838246	2.537021392138948	2.4353513656164654	3.8803598782798154	3.310008755909999	2.7773117948983623	3.91598080600055	3.0712776106539725	3.7858207130216774	3.873192777391538	3.347188225878386	4.617461669707997	2.7041926315697866	4.789943206137757	5.502793775016693	4.565407264627019	4.945057856472449	2.66614555639424	4.061093320130026	5.852294907099376	6.444521410883689	4.67717121850744	2.1424477046280708	3.4228506001838164	5.550620065026559	6.596630556617814	5.003384577516594	1.9386862467456076	4.5082735901496855	4.94945143403704	3.888484706597925	1.7756535962096547	1.9694840858325844	3.7613179588721155
392	4.049313535003517	2.7758126188767567	2.6909997395285106	3.990863551554287	3.853481759832661	3.1415600697355597	4.113506306753067	3.1903192916430942	3.9131321808246367	4.379134643942527	3.6832656767358043	4.807538020393872	3.1321198861198676	4.940767275733769	6.065398677771057	5.013166891792433	5.181219564707985	2.644331448554418	3.9739987749855383	6.35843132321042	6.912870866488329	5.069737421587351	2.277460807772303	3.6659216788242714	6.042190536502748	7.100016576007286	5.580987916207212	2.3767375886038065	5.203885542128786	5.678534493414544	4.674904334663066	2.6410348348695036	2.983821146107323	4.54827879711045
396	3.9095067879199714	2.6658193997788526	2.6982533863607827	3.9627251525011844	4.29780672895621	3.3672876273016388	4.002208699612191	3.1093389909442295	3.9035966297775446	4.926416861493878	3.9631006617623212	4.708982932599486	3.147373668353694	4.83083533021054	6.744747621673541	5.453079209865111	5.256734834750481	2.602226250754229	3.884557714191458	6.95919464261649	7.388463955344945	5.320644365228774	2.314953798171417	4.025352467864305	6.628918631029703	7.574656944224218	5.983473762664177	2.6297786169413797	5.969740852542599	6.4334311322862	5.2783932552585435	3.421013585036477	3.90990590062038	5.154578672746438
400	3.447287550805713	2.3218784273653594	2.519682877854721	3.8350164793464447	4.566398609076421	3.462890377838463	3.701059570504966	2.8915889190147475	3.8241984747656033	5.381199823144733	4.181501854829685	4.420588482186255	2.7732627321797034	4.514945495650419	7.330168705553161	5.835355267096978	5.198879705654608	2.5561165745095606	3.9181172748824853	7.455477695715302	7.774080256861592	5.385985360852378	2.2761385383359443	4.396539677010156	7.0998058139838935	7.902979830815937	6.107761844473183	2.655307286234226	6.515886767148821	6.969142896222965	5.4996337751772595	3.8292946718810326	4.395225036968309	5.369142518792851
404	2.91339182118138	1.9791743705371228	2.32358979592183	3.73124288570586	4.644594657615567	3.505388489456019	3.416028729397207	2.690839045406602	3.77192567826672	5.637343392444322	4.361470688298648	4.124957551078404	2.2487027588336796	4.090445031329113	7.6327647970133015	6.122853740492208	5.08181904463424	2.562630646911327	4.068013657789556	7.673646907505787	8.000553110904061	5.294112192139023	2.2273828927070873	4.62914227270585	7.2814993674497215	8.024936655764373	5.964004501543899	2.5147015984941286	6.642314894118439	7.136260491473641	5.309106813378021	3.7398886586179914	4.29507826674386	5.160312639559353
408	2.5944857531846606	1.877260561018124	2.2911438884109745	3.7875461482742794	4.582045066709036	3.5950274376702542	3.3378634368546876	2.673248761103479	3.8204572104317873	5.667129979130593	4.53570460128038	3.999542941485987	1.9000128459643422	3.6672687437927944	7.578316669404187	6.3019761880074965	4.991403567109831	2.682765238664291	4.204966057651304	7.548413257614452	8.054972628283755	5.126489149501928	2.234710210880116	4.5933551672359005	7.1147737323420985	7.9567074574808245	5.65567015173643	2.3201587141586417	6.317808612131342	6.931103212023352	4.839721667468377	3.231749288028972	3.7187786008404786	4.668542850151539
412	2.68235062875628	2.1420171206753005	2.51846741994153	4.0700526134728845	4.473621357113395	3.8005607032188378	3.551360359762315	2.9265742228052023	3.9817495245539822	5.537803159083577	4.72747896908233	4.132431973514366	1.96226894360074	3.3363754665062713	7.248884659585288	6.388026698196734	4.988662230294243	2.9344975874244796	4.16709803482821	7.156855565121595	7.984898070202619	4.97878359491269	2.321626180509307	4.252017010443888	6.679780943218182	7.776685695087436	5.3244266375580915	2.1643736307812094	5.683147416071354	6.479331000181789	4.306934345815489	2.5371861393766917	2.9518315717557155	4.120182026951056
416	3.196527234590067	2.7308745315268355	2.971483461507125	4.530696857457574	4.432042110697377	4.129964818064052	4.008437146556915	3.4080009374405464	4.203890313025113	5.389059053166394	4.946031081109884	4.493453968147307	2.4514255461789096	3.1499032894715753	6.853288156372648	6.425496085156577	5.094823824417079	3.271247617091846	3.878657092792171	6.688716871540348	7.87989042199972	4.926846491772334	2.4600672659752063	3.7033996488529395	6.1623568379266525	7.590900878814554	5.094069468034707	2.0798799939095742	4.984425055317148	5.970909580414404	3.907912959722702	1.9284741829820229	2.3072848261753984	3.718618383555727
420	3.9957375425545547	3.469717732252378	3.518053284345919	5.031743036917652	4.555840003908987	4.540829647043808	4.577802169686057	3.9646742243804187	4.40627669175608	5.376439080969253	5.196781622163812	4.975328432873074	3.1643137851932486	3.118020049805979	6.634651167331147	6.480162127346439	5.302907930337031	3.6040542034708283	3.4212620171952737	6.3639726478119085	7.837891082048386	5.012219416361476	2.5996498995949624	3.162223807934121	5.7762055251198525	7.494150619659411	5.0380639902708335	2.0478241391931444	4.470228183904188	5.58157299539885	3.750794878072878	1.6021360118470243	1.9887454459524112	3.569891920613354
424	4.858777033936381	4.152317990309862	4.01147936761857	5.421937451978648	4.895374285736072	4.976507651162333	5.132820116435406	4.416209209736374	4.528814304361742	5.602721200148922	5.492733941515481	5.471814618600767	3.805755605625766	3.2219495691969025	6.757005197631364	6.619355185008926	5.600162968801621	3.853877773091549	3.0075733585717686	6.334444506864731	7.9279045858494435	5.24335526096224	2.710384123634843	2.873286955254803	5.673733696917875	7.539118747750223	5.17269514685231	2.0375213571604407	4.295777786853178	5.4125194412907565	3.835278024527059	1.611114497885452	2.0242781587991012	3.6659483817050633
428	5.585887894832536	4.641752231322695	4.369457233841228	5.616322980052325	5.424604402197745	5.399343476968554	5.620466218109492	4.649085986797343	4.563686359327409	6.06581447977196	5.85372923326763	5.942121013897733	4.159649838435882	3.4286541852216543	7.223340969921997	6.885357362529474	5.982184871828808	3.998537291921876	2.8702325748456445	6.614960176932864	8.163660982501531	5.602269635361244	2.8064157891943884	2.994835130759691	5.88456629221077	7.722644309573242	5.466435895469816	2.0428621717374105	4.473672855526351	5.469297395248969	4.081657399362775	1.870160098122538	2.292680257730826	3.920210590001712
432	6.062940105389569	4.913554179183824	4.599058616470769	5.629400239083029	6.030948146852177	5.795714363724161	6.06689833062982	4.665651309631496	4.550417411759591	6.648704035185071	6.287608130792796	6.418369277008066	4.198598374256735	3.6982002164930203	7.868494967621753	7.2706813628688804	6.44449089330564	4.079741944503109	3.128828756062259	7.077540856612128	8.497226693634456	6.044784053799667	2.9301495478083823	3.5101294428894843	6.307885154057031	7.990011671874279	5.8500952572941385	2.0846304840861793	4.886461722434599	5.679031834569294	4.3790326007909295	2.2205257359708597	2.613291256982396	4.221857537100844
436	6.267226203354021	5.024257647227079	4.75832222690851	5.545607075995026	6.540872557338424	6.154363139826717	6.519766791095323	4.562308299943681	4.541506755806747	7.164417248757289	6.7663731404177705	6.952217084498121	4.071102132055439	3.988608111801681	8.436470964112557	7.711191157899278	6.957260114270544	4.162964333514184	3.715118637241931	7.514731865029812	8.837758041956825	6.496302111436549	3.1072575967539278	4.221924771139981	6.7629666157681685	8.255872705596355	6.225070937652347	2.1782472078641018	5.349969850384226	5.931942447944428	4.626530635596965	2.513574355454982	2.842033140636446	4.477846611161565
440	6.232665999889031	5.038586126957748	4.887732970295159	5.4538140159240465	6.780068380403946	6.439717753364079	6.971262914222984	4.456958759499214	4.564984786905918	7.4363503268365925	7.215866070648877	7.537748794598164	3.9818406004509694	4.258014668204624	8.703526474912914	8.103505114123136	7.443486671728243	4.276608456304652	4.399179924348461	7.739747504720491	9.086644149726887	6.853514654022223	3.3046474373352783	4.8398589965695935	7.0717825711042055	8.433047273325302	6.475915892463361	2.2939722480077154	5.693319306304462	6.124827369485028	4.753912436880581	2.6689047746032157	2.9232954905136754	4.628126132724285
444	6.010102256859642	4.970517622796108	4.965352522711493	5.388612256750286	6.6508459876943125	6.588382704313198	7.322144489875178	4.411097515413342	4.606535899929673	7.379483204330022	7.5337462235023125	8.068963030470112	4.045300473490212	4.469750393072875	8.586294152516027	8.342562654413129	7.784454802886424	4.373697269841265	4.904574381843214	7.674138526614653	9.17465112277129	7.004637223678516	3.4265615853581632	5.121058451120863	7.134691220389956	8.460298516847807	6.496355517198133	2.34696149233499	5.8206162305741325	6.1912875019161095	4.725857722748532	2.6862778595813257	2.8835298942243033	4.641884315215183
448	5.64730070595678	4.777660357810614	4.9175224180043715	5.3139796122853955	6.190752013788799	6.5398049189439025	7.419503193242653	4.394588459363715	4.62132405067969	7.044248086310442	7.634324531353846	8.369996049729608	4.2072844399086335	4.602106082741151	8.181078890172397	8.366355874873076	7.862172106919943	4.346742142193255	5.0501699320127305	7.38093755765887	9.087867713871747	6.870995981034971	3.360794058897623	4.99199007681294	6.965712052878356	8.322431543318935	6.230034335619552	2.235833639222006	5.732056603264764	6.113591178717498	4.542457569097803	2.6174764567093782	2.7853414942036507	4.512617576649949
452	5.195791231388724	4.412484634703053	4.679750907526806	5.1609878409736645	5.575314030876077	6.28541944824217	7.152651768745489	4.3186993489901315	4.570731628322073	6.597272379431135	7.4977927018645705	8.289343812994758	4.288991440434765	4.657478797597686	7.712174872954168	8.186082819297948	7.622802715129273	4.095753182560829	4.837848174278528	7.0262923063264795	8.871799446595	6.454092486298977	3.0525896472154375	4.582428443783264	6.67258451684475	8.056198099777243	5.710139260180452	1.9123786639568032	5.502562985832705	5.918721660929467	4.242402542847313	2.5234494145578577	2.679325573832277	4.262450684276188
456	4.723906028264934	3.8896849057220924	4.265589703280714	4.891770350503471	5.051855551362722	5.902116760611283	6.548617346442405	4.110881318203786	4.457379806708844	6.243921740979998	7.194402199700871	7.805172423683726	4.116827477551566	4.661741721781259	7.4145879558283045	7.885693530200401	7.124996167313848	3.607429256868069	4.439183223960597	6.789901239418427	8.612016656113193	5.859485134589767	2.559927695486877	4.150481690418258	6.394381506988063	7.738405208123538	5.070961939406525	1.4359390699372245	5.234769807950469	5.664087758068938	3.9025127789196854	2.442153209242481	2.5822932654987687	3.949329843086762
460	4.312685478766057	3.315783492299838	3.7891020679175678	4.541289318063155	4.828827845779573	5.538293824518129	5.797011837628356	3.778340806958409	4.331082333120244	6.1305265271854825	6.863706094578767	7.070464116365103	3.649114837970098	4.649994361581426	7.41370676076217	7.589497547061505	6.5372814967090624	2.9931220932731715	4.092302312055625	6.772067529746655	8.399961450349753	5.27366160014964	2.049015993667064	3.9377467532875152	6.230398162370343	7.459152202847139	4.512336719564476	0.9705890392593981	5.0111150615058655	5.417070375117158	3.6218864826311283	2.3790581166283435	2.484967463895128	3.6611094382358353
464	4.027137746180111	2.851743452501578	3.4175832185290247	4.208042134151105	4.973459231217636	5.350790010294265	5.176306234642265	3.4186205777640764	4.262360085216359	6.276569827445421	6.6555847953605705	6.361126406821779	3.0203668994940576	4.645275104238604	7.668156604480098	7.413559418080657	6.076651557839082	2.4563841757745446	3.9703757662666583	6.9491410079983185	8.301166513465397	4.896565901791412	1.7242001251557852	4.036427964509927	6.1999182544577955	7.292567711537988	4.225146282972668	0.7160509210627812	4.870114791018351	5.2365159856194	3.4909119517881013	2.32196735749514	2.3795669018748615	3.4907803447327694
468	3.883558978766123	2.6314883165678005	3.2832152760582125	4.004125108146171	5.3760914666818005	5.426785932191017	4.9197821492913905	3.1714174667396446	4.301600445377296	6.573455317113337	6.664113027913501	5.951430305713829	2.4747838911516737	4.644429195122088	8.006285647205505	7.424892406791058	5.916653141342405	2.20002698342862	4.098060120726391	7.200865727363995	8.339953401490028	4.859956729062796	1.7277774767168828	4.347510326853182	6.252844317861768	7.277572613461833	4.311388958536176	0.8053570965460756	4.814527022604009	5.161863313993915	3.5569980054695165	2.266388172149624	2.2861204089619873	3.5013062865549487
472	3.843962659667486	2.688762896425027	3.407458058337303	3.993889321734026	5.807448849320755	5.736734852612084	5.094687448990178	3.1401405255191728	4.444859493477516	6.852426988467108	6.888903600466077	5.980351432960146	2.2306375447221853	4.620916831747613	8.235310533712234	7.625461082279544	6.109598621201943	2.3211064280081777	4.358441341840232	7.391653519088113	8.503440835464469	5.170578943549547	2.064109081778982	4.652034747776225	6.319581015843908	7.413662891743726	4.737922656494926	1.2271150319589001	4.837028491205646	5.208446966372641	3.8028168582271795	2.229649538132883	2.2533605041832483	3.69599460622332
476	3.8462252519774474	2.939242593973779	3.6876435186742142	4.159222115506053	6.042133316043908	6.150263770787995	5.568366513498599	3.331894389323371	4.629009711976204	6.984096509466461	7.245260697192094	6.3854970770788535	2.361975902316003	4.54681204601552	8.259219148764176	7.965178469574916	6.565617544763741	2.7547330786772917	4.578427303198883	7.458071689849378	8.75887677842307	5.709799275287512	2.592964642653833	4.753220069328619	6.367873175756162	7.671341399851696	5.351082788308663	1.8207775308415162	4.943917261992906	5.3694867952202046	4.15357207203277	2.2473931255819815	2.3366951883447964	4.015573014611409
480	3.8539776704759405	3.2323307909419325	3.9572355647312305	4.411561001129946	5.980879768530102	6.507255537769978	6.084848388567899	3.652117243129144	4.7592582582477	6.950211030578624	7.613247852177323	6.943768960587565	2.7683474947653552	4.420074928568167	8.132635096044218	8.368669488758837	7.099726182178674	3.3008520519841427	4.63480089924796	7.446063976561824	9.06735417937764	6.28859423003347	3.095656863979872	4.601150024241367	6.426223261821	8.004384020623393	5.943753227486141	2.3491191804704115	5.1554827559961085	5.617281422737894	4.506408680028661	2.3510355890043915	2.5616757805044363	4.361164558843854
484	3.887978782374349	3.4378952893242993	4.0816693202917	4.6388091923896955	5.699944004926651	6.7004446814167435	6.405726416627388	3.9537274737671875	4.753180491844588	6.844907266501229	7.893393973448782	7.3918709568317045	3.2416968263797115	4.277434815097732	8.018728235980243	8.757376648727151	7.518976669401418	3.720470419073512	4.518517959630657	7.4739627649435345	9.384555792956665	6.727609140576676	3.378457776122924	4.323079098277169	6.557598097457328	8.354780176049763	6.339856608596672	2.6100492411519585	5.481356606949479	5.902005180716545	4.766752707844256	2.5413224632950815	2.893645040835728	4.6307954671291665
488	4.006199826616275	3.5084054381483534	4.027693738305172	4.755203235064578	5.393263803216814	6.717243177620669	6.429651720979825	4.109178532716141	4.5788321379451755	6.800578577037953	8.035084704139631	7.554689865112032	3.581181517142468	4.1803731812790685	8.07274053442786	9.05558393099427	7.701570491419662	3.8499877355647496	4.322723377758048	7.640615443966136	9.649859404042209	6.920369607619299	3.3579184924223395	4.13882254509247	6.79793165397945	8.649516083813927	6.4533104733614985	2.5276727612573997	5.88731525842087	6.151063426700282	4.873582827661206	2.773528330476152	3.2346801676144676	4.750573623107273
492	4.238531578806793	3.4769003303482573	3.863087644360411	4.725948321808362	5.239583479050376	6.61521671532333	6.220825179606426	4.0628414051475845	4.267181862547934	6.882914525774167	8.024536112552493	7.409761410125158	3.6838261988138568	4.178496827066277	8.321428277940608	9.18408868378262	7.626553039369072	3.6729743387948686	4.1678476228390124	7.934712866777079	9.776467298620016	6.849313718669059	3.0826060694113817	4.2140545738637085	7.099567395405393	8.79668996497311	6.294234259926458	2.172142976998776	6.277981742267295	6.273749335661771	4.801248538293052	2.9633283540295454	3.4512009533532058	4.68443011054844
496	4.518655288731873	3.3959135923477732	3.6902472879700086	4.56160925667152	5.2727966175468435	6.4501848057973685	5.932381138128867	3.839061250530691	3.8959870240075727	7.0211877645608025	7.848464946004843	7.056048375434702	3.5590777307297685	4.2715539824404605	8.616362549962084	9.058289505023083	7.345818501045876	3.3115742122964273	4.117627133463854	8.20652387454419	9.660097097802982	6.5567445589463	2.6866631440041813	4.543061721775722	7.322747688878783	8.695818879107179	5.930242046642569	1.7045036511301968	6.515681250334154	6.179283126488653	4.547281253778007	3.0179417057135596	3.4245934399926488	4.427447307852532
500	4.669584739339582	3.2662591851738982	3.5610780626033804	4.2950158010762935	5.340739236699035	6.212325557282915	5.68096636291524	3.5100457579684305	3.554492941465221	7.025618058586482	7.470048408721728	6.6197752785442425	3.276177636458061	4.394830692639471	8.698883988352371	8.607488610470329	6.927816373500156	2.9481379911375996	4.140642155683579	8.229754427158879	9.215096450427966	6.100211128092099	2.3101119936792465	4.938352095533569	7.291766625114229	8.271382310964912	5.436784730536133	1.2863845792717223	6.474865420206491	5.81026552640715	4.125568856313676	2.8799576686626436	3.107480518124825	3.999432076846985
504	4.471176136172303	3.0131118221503144	3.433198920165014	3.9613597293021168	5.188797460807017	5.8209872098822775	5.458146081495385	3.149682275449306	3.3080887710973417	6.693039400368546	6.843537313349171	6.1653776013162425	2.8953337596272406	4.441393841020445	8.348971345803198	7.813825110734634	6.413825972576177	2.7237555911914155	4.140174378432563	7.827046374586752	8.425018289275748	5.524576173185575	2.032461638087522	5.138383852383273	6.890892011410764	7.518064479920079	4.868693339453336	1.0067403291080053	6.106250747522652	5.178484426775437	3.5738825707802806	2.5619864399122214	2.5577089721953596	3.4484569939332537
508	3.7843837642490605	2.5325500901177667	3.1992142119697577	3.5939204602102808	4.620219218986923	5.186520563382345	5.138539301296455	2.8037500310681844	3.1789591232147445	5.939013466145569	5.961783394066596	5.670316681850819	2.4348549781360296	4.3154916654349975	7.528703670567046	6.74814842427726	5.814412579161572	2.6684033803326312	4.0274095433596	6.985494596010782	7.376910191030854	4.865000235672378	1.8527427864981165	4.96640967068856	6.142754062402414	6.529938204491274	4.263806809150694	0.8617573954759441	5.470385060804084	4.379309643179146	2.96550463881409	2.1485056822891675	1.9258612345709563	2.856939785419977
512	2.6695697240186513	1.7883844330457985	2.774543516783403	3.2339286722550367	3.6437361148391467	4.305249203302654	4.585505950794537	2.492720836067935	3.148237458863598	4.881184088780931	4.90853975964082	5.08072899489334	1.9011020612402179	3.9911379713381403	6.435253603900252	5.5784654476466855	5.146149145485006	2.700882904863055	3.790470352139577	5.894283756633256	6.255566581191076	4.173103798820615	1.7206464962432486	4.447144973971013	5.2216439115297515	5.491184697592391	3.6673242953215848	0.7913276533174889	4.719472873216312	3.571270456834239	2.4095969139297804	1.7621997550342108	1.3987921441048028	2.338109010515299
516	1.4169614279258123	0.8890894628965613	2.180946821428453	2.9330398962355333	2.5107030805141113	3.316595545978208	3.779070844645775	2.2319335881149094	3.170923701863572	3.812343349368289	3.8681578538507835	4.3986520656156625	1.3449608053582678	3.5377774149266132	5.420809255265188	4.528880584726564	4.471182335055344	2.6905190876742555	3.5094728381242963	4.8703918334065675	5.285017477043576	3.5330722242799233	1.5867940147391526	3.802731742794655	4.381371010208854	4.615754592685939	3.1437070290349487	0.7353765349895136	4.027455796563829	2.916910640981456	2.0209431597230485	1.5041265449695354	1.1170548172404378	2.0046751448562845
520	0.4488183546655639	0.0818563846667227	1.5669728477970086	2.7399728229009592	1.6053928096293288	2.4728646215947516	2.878903620127097	2.0489361234432666	3.1971969523770722	3.0653059405182925	3.0715243738827196	3.7344937230237023	0.891945657862342	3.0966858785646765	4.8151121017956475	3.7998473548319667	3.9044394394525406	2.5441296036383356	3.3067562496621075	4.206048001160535	4.639976012912872	3.0465104503008544	1.439433928670161	3.3270926391523887	3.8317046068725067	4.059012879614039	2.7599961687976706	0.6726672632400329	3.504420986864468	2.510400765756574	1.866811151559643	1.399398680968506	1.1069405050940377	1.9170501183746353
524	0.13668604160608042	-0.3430878809372989	1.1477417916884123	2.680559151557434	1.2478513686146149	2.0288267084397167	2.173334354635539	1.984343642946862	3.195803872622899	2.8436632084576474	2.699739449360571	3.279089919394434	0.7072930914187548	2.8212745118436415	4.750794398710964	3.488056174054833	3.574773779426712	2.2676348628965983	3.268666020723852	4.023107041691996	4.372624386238017	2.789690010656905	1.3077473607424448	3.216313115582593	3.6336924938012722	3.8474409483092167	2.5490438873783696	0.6211298688465318	3.146447650594802	2.3323330820325676	1.9219909857861721	1.3822228873641045	1.2671163050131191	2.0405478425959145
528	0.6205085500309617	-0.19636590729250042	1.092739460093576	2.7412080695561656	1.515348788250223	2.105464691568368	1.932613963969801	2.0705048985658125	3.165493957156822	3.108989469308149	2.7923574377131586	3.202171556017467	0.9039391256398313	2.806024782725649	5.0875201096833225	3.5455412775168744	3.5572500139069905	1.965939278407452	3.3835828218863515	4.212232579086815	4.392236221668238	2.76708816783372	1.2346178262057046	3.4532198818759405	3.6712951567464955	3.864831914680714	2.478595965803304	0.6064304694123612	2.8493776249471265	2.2582783642019595	2.062924618280996	1.3308969702497324	1.4198576176081363	2.2415177765520156
