time	FP1	FPZ	FP2	F7	F3	FZ	F4	F8	FT7	FC3	FCZ	FC4	FT8	T7	C3	CZ	C4	T8	TP7	CP3	CPZ	CP4	TP8	P7	P3	PZ	P4	P8	PO3	POZ	PO4	O1	OZ	O2
-200	-0.34056612763250854	-0.2570207112498888	-0.22405961099321806	-0.31487095276490273	-0.277060716644773	-0.2407576584697897	0.097315050415867	0.02566536136942246	-0.05180869238409202	-0.525874672992515	0.02504616224402694	0.2996092729156632	-0.8866693951155009	-0.26697561077423937	-0.6509997232213434	-0.07473529111351566	0.8699380137414229	0.34911841065954585	-0.2644677453516465	-0.614729760525288	-0.18472050083729835	0.7024663072970302	0.4301143277753023	-0.1465498056287995	-0.2618408196514155	-0.23594467282329568	0.7109016162089912	0.6464288218389934	-0.14424467050373713	0.16473035472764289	0.8572916366867125	0.35395669847768313	-0.10734356912690987	0.7762268762064143
-196	-0.4195356358426298	-0.16118298430279177	-0.23039388598447347	-0.49716558926945104	-0.39345639844738345	-0.3087631456208997	0.03357847398982463	-0.20868639595272412	-0.1931520695578091	-0.6594241840879826	-0.2632355683356382	0.06065545588318896	-0.6571622474291122	-0.2647372775546403	-0.8024724701648087	-0.5766470417722556	0.32565891660485324	0.4391605544923462	-0.21731403415172848	-0.8335832932407109	-0.8339416363641958	0.028311649265930883	-0.03689446663482246	-0.3349299720414223	-0.684755144774608	-0.9273247099351889	-0.11823284596156156	-0.12442510543641756	-0.805459199302318	-0.6144685133678971	-0.08151514062566455	-0.25453540618528653	-0.7899451831900589	-0.17196898118946966
-192	-0.30089539213505706	-0.012814829093646072	-0.1640839423566858	-0.5435810671433673	-0.2881543927070046	-0.27532303263770086	0.021755464320091806	-0.36209899095666803	-0.39811259407619165	-0.6026763304753062	-0.4035744358840724	-0.11818838089667139	-0.2482680523087837	-0.29060703442635244	-0.7541408519778133	-0.8352381565940767	-0.1665168549386628	0.48475131270091	-0.1475368287414656	-0.8828727580668285	-1.1599807709971113	-0.5363559709358704	-0.48474275943440637	-0.5269160257387567	-1.0155783866036967	-1.3831816876775407	-0.8233785608484151	-0.7952293733546351	-1.4294284546048461	-1.276343580838211	-0.8643243291013601	-0.8892104007205052	-1.399239894195225	-0.9446288919441124
-188	0.01536272182907222	0.1883259410871753	-0.03690840294579382	-0.42083588136279976	0.0012665877552389723	-0.11920418560211071	0.10788959982573804	-0.3821329464801228	-0.6277757271175638	-0.37818741702917735	-0.3489409676324975	-0.1773247416310792	0.20789569563829133	-0.31451481501326894	-0.5366989360610421	-0.7943707684488134	-0.5028206097305611	0.46491479756277526	-0.08448636510499077	-0.7793299536102314	-1.120501277001939	-0.8889923669304673	-0.7991423586696154	-0.6851113421308863	-1.195590612253946	-1.5270581206867853	-1.2790948120248076	-1.2138501375069173	-1.859645361973548	-1.6762915807363374	-1.3004146781513999	-1.3800314629998254	-1.764590735748694	-1.3519400324066868
-184	0.46825349212679457	0.4415217328845171	0.1442354913884649	-0.14480917119181844	0.39706197280771083	0.16689185756032038	0.3252643636597587	-0.2623621516756272	-0.7814184407532433	-0.03870794539811572	-0.08949626214558373	-0.07457023840196872	0.5896669015301856	-0.2839283041938097	-0.203827902160059	-0.46913739920425956	-0.614821134445498	0.3971119811045511	-0.05951756596439667	-0.5542028532341036	-0.7681702356017553	-0.9746229623983224	-0.8985276795589808	-0.7578591685234487	-1.1838701933534834	-1.3590229715367534	-1.4226088487947326	-1.3137737479418903	-1.9867094705013137	-1.7400748685773144	-1.3247238364152205	-1.598536725776705	-1.7954791738955007	-1.3366023268332283
-180	0.9614041423366344	0.7423357944819835	0.3814665963555387	0.23290301800576454	0.8137748816925168	0.5644293413216875	0.6682046634969664	-0.035062305540729574	-0.738901613277275	0.3453880837780186	0.3339302829417734	0.18974722873941727	0.8212097266444487	-0.16695103007127177	0.17333556667910713	0.051394790281236113	-0.49627178782097825	0.31773090282329486	-0.09310214943029535	-0.25437658960968346	-0.23146536887857305	-0.8046168068598343	-0.7671399097147692	-0.7026015502356842	-0.9831800435992519	-0.9545359587411514	-1.2701762882588725	-1.1335703105916843	-1.7939045383938002	-1.4916834793576406	-1.0178436015180214	-1.506824966440994	-1.515409823406319	-0.9908874009864089
-176	1.3899351323321207	1.0682756873815986	0.6711583120567088	0.6424275620453237	1.1777060002156652	1.0147447560439729	1.0717205974223394	0.24515661535355796	-0.431506215436583	0.694567976628495	0.826804874240033	0.5552363381672548	0.8781868197203525	0.014391249009395226	0.5084577786006059	0.6224124415895704	-0.21215799397309584	0.25244483287971264	-0.18815773678004383	0.050287943206422527	0.32334041513823375	-0.46009346726603373	-0.46930226565129207	-0.5205663429468658	-0.6601983888170155	-0.44737189895212903	-0.9154542065395609	-0.7979789356111818	-1.377565976479561	-1.0546281311111236	-0.572443305000795	-1.1819629639347757	-1.0626053783291423	-0.5195295201536155
-172	1.6640509324975887	1.3673415149498942	0.984670398133453	1.0129234765228143	1.4335119688080984	1.421133991468134	1.4192324840953103	0.5192528353932667	0.10299527619107277	0.9322120523758525	1.261194106732478	0.9106358266727284	0.774866698216074	0.18441586149862046	0.7130352836726288	1.0852504941243248	0.12143251269199332	0.1991935963369893	-0.3275544039085698	0.2735196643122521	0.742309806856927	-0.06942082924005061	-0.13103467192945367	-0.27340227296466335	-0.33435952579003964	0.00845359356802221	-0.5007619845145062	-0.46458190562254514	-0.9169158316350527	-0.6116036757286458	-0.2123674297931466	-0.7903538922382518	-0.6428047998411547	-0.15517717560690303
-168	1.7263590053840994	1.5628930290817233	1.262977835327523	1.2871047225880805	1.5451506337255176	1.6762766795751813	1.5837060173104256	0.737960575147937	0.7171221357359799	1.0048242782018932	1.5186485013766575	1.132486340524536	0.5498114214367192	0.25674173171072195	0.7256604414738528	1.32199549341216	0.38245740436313846	0.136274426831462	-0.47284677505320116	0.3424638203080762	0.9332261657995006	0.2383639955462982	0.11028733821680575	-0.06199281647050879	-0.1283136602976822	0.29198744819354294	-0.16448984998658142	-0.25760075384905606	-0.5952594861260511	-0.3291884652409615	-0.09551222598280043	-0.5126261698178038	-0.4438375819444508	-0.0585321372759743
-164	1.5628758629440713	1.5781831701487714	1.4327239954061572	1.4271383249490681	1.497544761691475	1.7067137913528883	1.4889689646321331	0.8673900343929974	1.205592390831294	0.9039659477299125	1.538813587118287	1.1403305501757517	0.2575967901401885	0.19314110230319811	0.5458250628042057	1.2998987403475268	0.49488830441458964	0.04830840590320428	-0.5678216204612246	0.23789669513243897	0.8956676102912995	0.38698142669249097	0.1680661286640756	0.025306912075164303	-0.10335363421571885	0.36403623131394436	0.01686513978455184	-0.2170785063984932	-0.5086094724211763	-0.27906793285483894	-0.24137568412874416	-0.45360004787362984	-0.5444129691683971	-0.2449154549614056
-160	1.210251805110912	1.3747088874441107	1.4394822084323071	1.4151602947745368	1.3039559092978548	1.512701745982431	1.1599241465847177	0.890458462374306	1.389623638459311	0.6788037402181006	1.3494809831880419	0.9410318708502887	-0.032255358912570156	0.038268774651229145	0.24984688993793044	1.084263202790758	0.46186268213011245	-0.049417033666776036	-0.5523901567817711	0.019045311909512943	0.7176898103713876	0.38692918322147724	0.04963656502351013	-0.03466173997710849	-0.21778915767519474	0.28699147628805044	0.06403849257751894	-0.28724709080652433	-0.6114132388890692	-0.39682701129859943	-0.5192985521556941	-0.5848731383815832	-0.864873526296934	-0.5739205465131786
-156	0.7496126871256594	0.9811525320076913	1.2783510652691779	1.2522520987365606	1.0103385422947215	1.1757230728982837	0.7263763528604424	0.8086791614142446	1.1934572428135313	0.42527544391071875	1.0571745607387888	0.6327646358726682	-0.2404754900821354	-0.09430315321716484	-0.029533730745255855	0.8089871982176661	0.36106446294223593	-0.10827574106535989	-0.3844769885369641	-0.1908632214018905	0.5360919223601821	0.3288506261152276	-0.14479136430423675	-0.18095149054140952	-0.3402906647673745	0.1980198616750357	0.08401874431616667	-0.35061359316996155	-0.7375964503739235	-0.5093212114826422	-0.7105847579181652	-0.7580448369914552	-1.1956981390328492	-0.8151369074268404
-152	0.28618431019054	0.4926093208273565	1.0018067334631129	0.9578486060754696	0.6864514929606327	0.8236598351664	0.37055742647074347	0.6427459700569099	0.6756535751450298	0.24845778879378594	0.7986825088363342	0.3625127067950095	-0.29826670809780953	-0.08124262819043948	-0.15870517452225108	0.616042493218507	0.3035404376472541	-0.07181807589280018	-0.06085897966755099	-0.25962796741739363	0.474959759705154	0.3358094981775074	-0.27082410386373545	-0.2991805963115209	-0.3190521291783728	0.24178932546127982	0.21227519160558955	-0.29219829962390353	-0.6935906392705805	-0.4252077926390695	-0.6199240072811253	-0.7872317413481548	-1.2995026078793497	-0.7638583164003006
-148	-0.08107334354912418	0.03819581856620826	0.6977844220663887	0.5703026041890916	0.4030362059431095	0.569882093421263	0.24077308117158638	0.4302958835228297	0.002543914358228079	0.21329826062709256	0.6760424358465627	0.2559597187732432	-0.1773473466925532	0.13718506659204127	-0.07040670496330766	0.5914716109601384	0.37516641522100874	0.08371707030855888	0.36963823344366054	-0.11669554531913778	0.5895506128685224	0.4954535352595676	-0.21608260219377798	-0.28902399466975964	-0.0723721532186527	0.493089525646777	0.5327315913101639	-0.06443516148749767	-0.37571903968364856	-0.0448857470213599	-0.1834455425876105	-0.5580382929064269	-1.038067815067119	-0.3518123319803353
-144	-0.2924485497243612	-0.2713127427403704	0.4474895585206186	0.14481121265089683	0.2047747219399256	0.45897886041154806	0.3763913204703728	0.21723861937511682	-0.6210240706023226	0.31140884678418757	0.7095402461257584	0.3568373313477601	0.08692549892175049	0.5113424049818727	0.19802695462774605	0.7305418830546985	0.5917378649076779	0.32147270359891245	0.8099932054096451	0.2031649196978962	0.8439995029121359	0.8079677799806463	0.03628731137293146	-0.13046780195674854	0.35384803921053193	0.9112474299312244	1.0181598637624012	0.2820895009071315	0.15637250205137201	0.5711793885115239	0.484706191984929	-0.10160705421543645	-0.4551356125307789	0.3067994408014099
-140	-0.34797841222644993	-0.38992777368326687	0.287393658627657	-0.2509442561489584	0.09239815897263062	0.4493168581108843	0.6854616386273469	0.044548865295230236	-1.0269874308406386	0.46311899902719383	0.8333880284249197	0.6076596959984606	0.3984106172993162	0.8927493072858196	0.5195161091085749	0.9483664011853169	0.8903532601765431	0.5489130602329326	1.1392451495971323	0.5718045816289946	1.1327215404522257	1.1778515547578392	0.3912406553880973	0.09679335331320695	0.7993831018292553	1.3520005907256258	1.5247019490847629	0.6168836339634536	0.6971733552496941	1.2157157628836768	1.1335024805061014	0.4123285104354873	0.23309348464766344	0.9594302153205915
-136	-0.30472254676177746	-0.3529648473888024	0.1967731411257389	-0.5471835718644965	0.02625131227898815	0.4433269191516269	0.9908947323576979	-0.06542280299835174	-1.1330498428348197	0.5575104341736288	0.9354987120851143	0.8820070602082963	0.6340142472472293	1.0978615256247726	0.7406688909904035	1.1273584337381661	1.1602390975269157	0.6575663073150244	1.2511175839307702	0.8321932533234135	1.3335998024648934	1.455378290316612	0.6849367601267801	0.25647020275213317	1.0705516311319558	1.6341122347582353	1.8486404372271628	0.7902484516219104	0.9995588635003738	1.6287937123183553	1.4891753159118246	0.7632361035150612	0.7429301123935383	1.3328419890131322
-132	-0.2528279119307169	-0.25801861221019895	0.11525016993988677	-0.6918785554583747	-0.05067432658991317	0.3457320621821489	1.1190493078588761	-0.1183036413782148	-0.9527955627227489	0.5104721175657045	0.9173610783304008	1.0478596660860982	0.6933679563182619	0.9931897495943351	0.7614149432031919	1.1749912470715793	1.2945886817671834	0.5755897149812544	1.090961811172283	0.880783078830924	1.3646583522674596	1.507072206506898	0.7658903579448527	0.23672203659849367	1.045039293511737	1.6275936324034774	1.8206572486686632	0.7066682559291521	0.9103572941683962	1.6261200863790606	1.387549158407786	0.7998086789918771	0.8696907140708741	1.2666139570682204
-128	-0.2813713841486906	-0.22047249917156328	-0.01849411423305386	-0.6719804389200201	-0.1814926560111202	0.1156401333273452	0.9827898119908928	-0.14528417550599546	-0.570697902192244	0.30960109751735887	0.740710912264864	1.0269368861019967	0.5428010211591612	0.5598412738016856	0.5864392504191025	1.0609399053490332	1.235977050521731	0.3050477199005286	0.6784087402381713	0.7203120571070155	1.2141908376555932	1.2786382404469807	0.5719403014048055	0.025423586304372407	0.7401198130041188	1.3153239455392947	1.3887844050629923	0.3729101112010553	0.4599169481109771	1.1909031837913542	0.8535999634172244	0.5252032266708155	0.5939931258463503	0.7897263149349962
-124	-0.4469507921378541	-0.3257513336063442	-0.23090892971867724	-0.5246299491988131	-0.3759632995173214	-0.21910510901922337	0.6130829437989467	-0.18784581077356055	-0.10506096455751573	0.017962962343640188	0.4344708312509365	0.8171900490155899	0.2300996625574438	-0.09512576436821371	0.31634575048685676	0.8141598084875044	0.9912001465567558	-0.07699648271432831	0.10698224577119371	0.4499126959408771	0.9292500591658626	0.8159931281468772	0.16273334581296897	-0.2708964937046324	0.3016011409297382	0.7945554832425059	0.6452936513821121	-0.10349108252622387	-0.1488485928592093	0.47939455388150304	0.08613091685483648	0.0973878947421792	0.08822700359003814	0.10044492755802356
-120	-0.7571314554172233	-0.6012818798143067	-0.5046477901115375	-0.3331860891513092	-0.615624247427174	-0.5937697872429408	0.12048822610952328	-0.27802190114399417	0.3195258966961738	-0.26811462573069894	0.059747442452263474	0.467446981680375	-0.14167632126801122	-0.7822144607822089	0.08074468353866246	0.4855897414345262	0.6101076587532054	-0.4568931150821888	-0.4809318172710239	0.19671802173062203	0.5720402583938414	0.23488907456698865	-0.31075277846080124	-0.48128500459274876	-0.08267675319301755	0.2178351277573617	-0.21605686788846118	-0.5645590410283913	-0.6489478333301311	-0.26245164804953147	-0.643009422586152	-0.25777551466709625	-0.3818147470847928	-0.5384571538681875
-116	-1.17364203633585	-1.0158209775073201	-0.7981576303357674	-0.20419426210824598	-0.8760421253974592	-0.9584583615899824	-0.3816765239139076	-0.42455339324573266	0.5885880574624749	-0.4808392810602437	-0.3384952834643055	0.03132218487103238	-0.4649915087404075	-1.3074035611522483	-0.0457817389405226	0.10631825748065286	0.1497634794507181	-0.7391592841559885	-0.9349716282126963	0.03249854213734948	0.17630939141105512	-0.33856707725875623	-0.6814613325079911	-0.46476024271926286	-0.29138323591098025	-0.2890871755930621	-0.9873631571636723	-0.8741372205598918	-0.8512629249061267	-0.821390030694439	-1.1192727060669303	-0.3678898206005559	-0.6017753466671563	-0.9299076176053644
-112	-1.6256575543367713	-1.4977320394848865	-1.0771262618526611	-0.22767864110206945	-1.14903402038388	-1.31240403320841	-0.8422411658957012	-0.6100208743906315	0.6113921984495166	-0.6245493873086624	-0.7590936403182751	-0.4657484877271438	-0.6757465583906447	-1.5467010697415007	-0.09317301935275436	-0.32958283937212224	-0.35148268849323727	-0.886280057576811	-1.1420742244496087	-0.0715905724148475	-0.26616474918876215	-0.8218614438287773	-0.8454222657793323	-0.19154533695497789	-0.33421951447981574	-0.6827149373937421	-1.5314212998826173	-0.9757965182463421	-0.7373443823318048	-1.1085242005017215	-1.2761911121572607	-0.20052400180733945	-0.516085682996478	-1.027205226212098
-108	-2.0277378507917088	-1.959310765088006	-1.3374757732955616	-0.43844082840850046	-1.4493652545575624	-1.6980725483937482	-1.287148472397235	-0.8006002882771405	0.34033322248363673	-0.7756556252923292	-1.2350856034567208	-1.0264972422432435	-0.7785629014385534	-1.4858866892492901	-0.18220898463022228	-0.8484413006342283	-0.8765688516420095	-0.9252938604835292	-1.064065096076006	-0.22505520227354897	-0.7829923609992085	-1.1969250410378083	-0.8044894317342708	0.23336690605371901	-0.336356191978007	-1.002280232760013	-1.8217869951028836	-0.9084650255154894	-0.45429819707612135	-1.175024029626123	-1.200651404210468	0.1295934316224235	-0.24091644524307043	-0.9306120252955415
-104	-2.298487895884498	-2.3161332548792544	-1.601625796089035	-0.797155139817821	-1.7970929100440753	-2.1555504744466742	-1.7742800667789185	-0.9626547073855095	-0.2060913885396897	-1.0338293287878422	-1.790768261202927	-1.6475789505369183	-0.8350068905729321	-1.2159093587694183	-0.4506629694050931	-1.4566143714368431	-1.408805843611076	-0.9199959612506893	-0.7573726158093755	-0.5423547611848546	-1.3768652642773505	-1.4895197115484673	-0.6504739506511071	0.6205732210703797	-0.45146569495657896	-1.3172798123480163	-1.9204097937735627	-0.7717209438867054	-0.21625849550006607	-1.1486666173544122	-1.0541503402798105	0.43566706666623595	0.023416420385725376	-0.8015748838214023
-100	-2.379338020039502	-2.5020174916993705	-1.8912604999476215	-1.2045947282895622	-2.1892976705589806	-2.6708099774640064	-2.3233592451564204	-1.078155991693201	-0.9290556884197407	-1.4546900950897728	-2.397799247409884	-2.2816805781931677	-0.9238792038480017	-0.88950043692125	-0.9642760729285961	-2.1075432247357275	-1.9095075082252215	-0.9297271347414403	-0.3650972535929123	-1.060268399422689	-1.993798966142289	-1.7291016535018697	-0.5070115315034273	0.7897484282581521	-0.7598493080028296	-1.661280389406134	-1.916661496091681	-0.6661445481647958	-0.17656162336594655	-1.1391164035647423	-0.9655640100896511	0.5655417428043221	0.11985782503622856	-0.7545621972106668
-96	-2.254867071180787	-2.4834442075970937	-2.194729799451516	-1.542931314387554	-2.580128663224571	-3.154708377502656	-2.8695318626434343	-1.1491709918572282	-1.6576188760868262	-2.002497906397426	-2.961209289703841	-2.826725952641035	-1.0932831736618445	-0.658623574501381	-1.6644211965499986	-2.699848883488102	-2.3129718245283497	-0.976801750577941	-0.07235912215322157	-1.69907652902781	-2.527774089153262	-1.9162197064657212	-0.4611804473677358	0.6559407098421695	-1.2131509750254672	-1.9949278781114845	-1.8664890480600902	-0.6394326074668562	-0.34541332634501726	-1.171219345950426	-0.9574912762309433	0.4787887024712132	0.02569709339210464	-0.7899835685811973
-92	-1.963346476366269	-2.270823711384031	-2.4503676829461067	-1.7217799381654357	-2.883720867505682	-3.4693624885704137	-3.2730979836795813	-1.1881240576310734	-2.188945287899958	-2.550402634857239	-3.3469781791107276	-3.154499761246469	-1.3299449648657835	-0.6160572751703739	-2.3811836182556676	-3.110258094564345	-2.544891350996642	-1.0382862064850247	-0.03476975849432997	-2.29002117532482	-2.861241333413267	-2.0165848681080756	-0.5205445872515777	0.2656854980436556	-1.6560866790920985	-2.219896787760778	-1.7654085114729479	-0.6650042517084769	-0.5953452572096662	-1.181547877189608	-0.9454501247377542	0.2578352385210104	-0.14184640312144836	-0.8045624474239363
-88	-1.5862429101949507	-1.9188424300385063	-2.5592861110921348	-1.7075939135354194	-3.0006394310532642	-3.4892284782053156	-3.3834175978114516	-1.2003939121456884	-2.3534297883696844	-2.9286582395998675	-3.438003054521781	-3.167084685912571	-1.5581639965771834	-0.761723039611258	-2.9047160075283576	-3.2437264837384783	-2.555503600344238	-1.0635455819934554	-0.3053533427158428	-2.6535570554494603	-2.918796055100231	-1.9839240262487028	-0.6171429737722166	-0.23216174484288693	-1.9103710603165471	-2.2345919552651803	-1.5677500923629175	-0.6637233478954877	-0.7455707173597108	-1.073785779149303	-0.8054144362142047	0.052297409491823044	-0.20337986894757476	-0.6687602383895151
-84	-1.2191452949261044	-1.513354059213206	-2.4252712665360803	-1.52328812691426	-2.857591144976438	-3.163851968406695	-3.1195902745639774	-1.17249631585687	-2.0808997101698172	-2.997005455079773	-3.188702813680867	-2.8472456860181827	-1.6668597417708928	-1.0052301858317887	-3.076998464445071	-3.0732803267133693	-2.3469536245218996	-1.00474691137317	-0.7944529036491065	-2.6840872696820712	-2.7030281952323945	-1.7947320892797722	-0.6518492682211822	-0.6590518338730108	-1.8703303289875866	-1.9972803542255404	-1.2354981868068144	-0.5551580176642177	-0.6720240695198856	-0.7950443605377194	-0.46683099748049894	-0.009694315468631049	-0.03293284020453797	-0.32309764542067654
-80	-0.9301479435324921	-1.1422563762435822	-2.0058171698472975	-1.2243086068713813	-2.442066901717064	-2.5481753284968955	-2.5239694054775654	-1.076706764363791	-1.438717123213902	-2.706850760301479	-2.650473111136568	-2.276445383046473	-1.5588138064128843	-1.2057121961669899	-2.8575937675808016	-2.6505591802434063	-1.980315918690979	-0.8461391308402361	-1.2921386924545213	-2.395309203776034	-2.292923206262317	-1.4736344777094843	-0.5547962174713446	-0.8839554168317952	-1.5561758240510752	-1.5596829613408045	-0.7849003056736517	-0.31110173385275774	-0.3790419390168423	-0.38465118311088037	0.026106694647321835	0.10795729580087077	0.3585960259920625	0.1656342144598961
-76	-0.724701402741838	-0.8567452409094359	-1.3448897566218747	-0.8663411118568884	-1.812848563385644	-1.7807748272758264	-1.7518985227222672	-0.8896999336668096	-0.6171427353536381	-2.1211931651919875	-1.9519224117588814	-1.6040592153104913	-1.2010014026837053	-1.2348304955777263	-2.330771440343395	-2.080921644679039	-1.5536568125599375	-0.6155097469048496	-1.5550607403594325	-1.9028780412314614	-1.8046437456344473	-1.0914431782822738	-0.3269681326240393	-0.8688222743986893	-1.0966459485022924	-1.0494290563790718	-0.29862058087294757	0.01943847904661996	0.005905888028433087	0.03515759846632364	0.5225383626142807	0.33388897692304836	0.8216236212967241	0.6244621857135761
-72	-0.5420687780999442	-0.6467875225903461	-0.5713012204051372	-0.48811486240173796	-1.0837033959684408	-1.0256928179593858	-1.0059939597480123	-0.6174026712088473	0.13469471003380704	-1.387865659070744	-1.2484590975712104	-0.9862315033808239	-0.6543539745976098	-1.038058755161136	-1.6600928264666275	-1.4820959530604356	-1.164795157352754	-0.37610435390882624	-1.4274762832840915	-1.3625884021689258	-1.3412164415829313	-0.7393889408517282	-0.043549056986292106	-0.6692248565943663	-0.6595160944499943	-0.614481089947913	0.10202900294531672	0.3253034345043103	0.3018192343244207	0.3161242298251083	0.8341307619015906	0.5278006778742795	1.1411925525463171	0.8559347965564712
-68	-0.29323068187112916	-0.4490450311290724	0.13962934875998045	-0.1176097464572334	-0.3879240741472338	-0.4103269864689831	-0.45073175316499026	-0.30841225307799286	0.598411379733816	-0.6802086812965542	-0.6669976694433121	-0.5267473445944683	-0.06659364683504103	-0.6627392156080859	-1.0162447665306031	-0.9477485990437798	-0.8766990281858702	-0.20306158014527778	-0.9345093345889856	-0.9007024742274097	-0.9584844088196836	-0.49291086072451384	0.1809657956561195	-0.3994060446668744	-0.37258148099291594	-0.36016639976167253	0.31057110350398454	0.48293667909762716	0.36455994752394105	0.35442778378647605	0.827866850193315	0.5472282753479651	1.1433956594209427	0.7376049738381049
-64	0.07791104893087225	-0.18659867299175137	0.6280858500835472	0.21034942514240357	0.1616037185880378	0.011376783223038773	-0.14988587758845534	-0.04260975111693854	0.6671255810106771	-0.13486599888129785	-0.2692079239247312	-0.2464851879810859	0.37699031734653077	-0.24173216460708455	-0.5168007003133982	-0.5286404477123998	-0.6985841971879656	-0.1504865731969851	-0.29280075356944973	-0.5726291522827355	-0.6605576260101698	-0.3810842921649146	0.24961736735264112	-0.18157552136830996	-0.27636390854678555	-0.30858740132622314	0.2877654724008271	0.4183561791347922	0.15229669174843766	0.13893365824907974	0.4929849492977826	0.31282883803540895	0.7805787305197677	0.2866021387493606
-60	0.5446835146503496	0.17770370796160434	0.8087244609441594	0.44510003811992854	0.5044511543889199	0.25809112126038514	-0.05600154013203767	0.10398548815222629	0.3824430396437839	0.19156469356331982	-0.0442984028532261	-0.0922102255281283	0.5286310301785491	0.06586225314201	-0.1964236790943031	-0.23197175503814507	-0.5881912097385622	-0.22402638140383965	0.18486699415262522	-0.36180844811644397	-0.418967752590966	-0.37471410537527267	0.13315948810336456	-0.10010861580130812	-0.3247327200320269	-0.3962680091389848	0.08558797814694824	0.15044318101569817	-0.26132887535873217	-0.2439599627057461	-0.050503581634804555	-0.15437596997385508	0.154243856279044	-0.34232580575344723
-56	0.9878517960403073	0.6024789198923086	0.7001157981362471	0.5317482934877868	0.6446820481236161	0.38960194489342487	-0.05314880968622574	0.10083869074157682	-0.08675125964435074	0.3293212047845412	0.06972961110152992	0.022721575515720276	0.3480541995320905	0.15470002552551954	-0.017305182249366058	-0.03384596473374004	-0.47301378726744014	-0.3714945604958585	0.25288262899448255	-0.2124060685040247	-0.2004048819250566	-0.3977057625743044	-0.11045320304163571	-0.17537087157795256	-0.42448437106725706	-0.5077517019803793	-0.16985022978814937	-0.20714531786594725	-0.724897502022654	-0.6472732408393944	-0.6027424916308399	-0.7380779366932035	-0.5297056423164914	-0.9218758917421588
-52	1.2415965764169667	0.971238670281165	0.41377648606736006	0.4423225808896973	0.641919015217384	0.4684306073282975	-0.023813228994089948	-0.013590455952246788	-0.5168933259311453	0.36894374992681345	0.15201683304076258	0.17132960216657833	-0.06453228725591395	0.031099717985550508	0.09582646166926292	0.10706965598253612	-0.2803072028235576	-0.4978558110542074	-0.12048882960655011	-0.0684387458623078	0.016505565452626388	-0.35616606383999444	-0.35692727475649905	-0.35794860034214676	-0.48274230835150533	-0.5242211805459756	-0.32808536208288847	-0.4887820469913468	-1.0698771449733804	-0.9188078618693811	-0.9662660335940432	-1.266197559020871	-1.047237274386925	-1.2460043398869785
-48	1.1770141095008593	1.142496821379999	0.10817087414372295	0.2077282512903788	0.587242601819357	0.5366781936447126	0.09745065843296923	-0.14308811688059667	-0.7201004010139525	0.41828614367735795	0.2688537829286924	0.3838170757139995	-0.4958688008186693	-0.18301884783790198	0.22056373898132284	0.2392528051057836	0.03499410665140782	-0.5028183447540653	-0.7072241288449239	0.10554879877144825	0.24178451238622636	-0.17457723573477196	-0.46905207515547903	-0.5415605888998724	-0.4347792852868703	-0.36483085063376125	-0.2749564044686131	-0.5476141558172668	-1.1638514966190525	-0.9493765210977752	-1.0193248961462396	-1.5664682348756143	-1.2407101361421051	-1.2070860832255939
-44	0.7794834355701404	1.0238290999312543	-0.07523833196240812	-0.07735104839346012	0.5703763947391373	0.6123012884893356	0.3046468190607815	-0.17889326765670582	-0.6136329158549007	0.5585824833118522	0.453539876984881	0.6422009451864598	-0.7054960113833141	-0.30895820182043465	0.4111397554030882	0.4066177894339753	0.46929827214010217	-0.3280686727823935	-1.1172193260596024	0.32389396347286525	0.48159626004698003	0.1716500367360818	-0.3591808071604774	-0.5972378238857962	-0.2491718822387146	-0.009977387239180437	0.0206862892433263	-0.32177171029867324	-0.9423417425205656	-0.6997442823863002	-0.7503365259299842	-1.5220318994241455	-1.0659503909854917	-0.824819681946156
-40	0.17748855009566958	0.6323147400150395	-0.06391569955901107	-0.2851569347334629	0.6496492607880769	0.6996433717229502	0.5404006825154717	-0.05558807016285529	-0.23904214739051804	0.8161518553155133	0.700372455736002	0.8974112845651564	-0.5321921692763085	-0.20260979184018216	0.688421068837618	0.634291587658669	0.9644179319828033	0.007995580302853586	-0.9966081355682179	0.5911509379720564	0.7414358835574366	0.6400109513336516	-0.031529087493686575	-0.42040702594472357	0.08029835650913061	0.4971378731097004	0.49441659325702814	0.1352646645468715	-0.4169610430203794	-0.2030082637906608	-0.24552726683615794	-1.1094651194217702	-0.5899704679852602	-0.22105061952094135
-36	-0.40024009245911063	0.1048061099982608	0.1257946339053834	-0.31077626269078346	0.8341658690372747	0.8005839566045133	0.7359010558622128	0.21252642518268353	0.27244684031364846	1.1574617595059737	0.9709853505415091	1.0944714518570866	0.025537671456829617	0.1682403232379919	1.0400562260118058	0.9152123904963176	1.4200139009863428	0.4091199626130064	-0.2277265483351867	0.9095382667466054	1.019400474835624	1.1289949388609877	0.41635104908728815	0.02064193407449965	0.539851306505964	1.0663690540093371	1.0124975417323248	0.67698913641714	0.33293127929553773	0.45086616163861937	0.35656610041239445	-0.4086728383713527	0.05014985414598778	0.4397802639825113
-32	-0.718362866018492	-0.34766444476088826	0.40873634712020057	-0.12148076265181718	1.0858414145711361	0.9199871397632848	0.8493301846995195	0.5391889200902474	0.7691796998631227	1.508291002280188	1.2118999927440797	1.1959845989549165	0.7972973564998961	0.7064934355064671	1.4272469246115749	1.208183762361006	1.7267897085461588	0.7419875245434402	0.9823496316903378	1.2751073805086908	1.2968335118930465	1.513350721353107	0.8375402071787797	0.6556708796159525	1.0921161147200888	1.5885972936576345	1.4279081785390435	1.1321810455347672	1.1801184386022134	1.1418135137340193	0.9210197306267667	0.42112213266861087	0.7059261781035719	1.0162659857840897
-28	-0.6339273436753662	-0.5226925002252807	0.6800735575671896	0.22778774740405536	1.3384544815603026	1.063663718399102	0.8852658249438737	0.8132562616796355	1.1464701861999844	1.785111542009445	1.3763352597773457	1.1961114376386783	1.5094379148520605	1.2358856169968764	1.7930055811435672	1.451615568310731	1.8100546552734962	0.9018622017978765	2.1838054601846633	1.665475483504124	1.535793777403011	1.6942124323985501	1.1038832636619373	1.3220689263343381	1.6694586234858277	1.96712982157919	1.6405948359076399	1.3842864001610187	1.9775720784803161	1.7494825080570413	1.356757041366693	1.192689296572184	1.2663754192804315	1.4310967886078974
-24	-0.1548442985678341	-0.3115206948998262	0.8660500027725404	0.6215047820612224	1.523791547742762	1.2309260337269272	0.8852064587178273	0.9581416821130904	1.3788413966652444	1.9243434619002278	1.4406157695637836	1.1186977596648786	1.9043856811126036	1.5914077718609878	2.071881289019491	1.5883077342940466	1.6635992485006212	0.8693670608505609	2.899593345950715	2.0307564684140926	1.68881606629279	1.6410208899074186	1.1634097069930929	1.8176532937888572	2.176999325024235	2.1434371417288443	1.6332353312265138	1.4200578892140758	2.5912992888830133	2.179307216864111	1.6278638798622067	1.7503982738170583	1.6785678821145626	1.6738686519323351
-20	0.5685821757266384	0.2558611028887113	0.9531357860342679	0.9400171017755498	1.596236224912762	1.4106733763364634	0.9014018751274383	0.9709877943319387	1.504902716651841	1.9007214259796432	1.4111760819092298	1.0064128611904362	1.858402247505251	1.699543233395223	2.2036919538173163	1.59146463469196	1.3589428628943776	0.7253658753201164	2.8613943981406638	2.2993738593222024	1.7192479328617698	1.4062491619845352	1.059520122714068	1.9794605920406114	2.5134785111864253	2.110793585216413	1.467705484499356	1.3221359219548965	2.9312002584838304	2.379871600818184	1.7378257469170382	2.0140235373192543	1.9367406319357614	1.7717565253347891
-16	1.3156138625307503	1.027298209457713	0.9848922466207469	1.1154750557392992	1.5482748707781766	1.584958906940441	0.9699920987434797	0.9191875434556417	1.5798485239195912	1.7317318872598773	1.3194912638728895	0.9048618055386247	1.4389100038439082	1.6053782660960405	2.1525986140262705	1.4783191643584233	1.0198788617133834	0.6082915648361291	2.1419262831968924	2.4024264751814046	1.621768708902864	1.1032357188027324	0.9002947784581754	1.7555664733431944	2.6067292624463514	1.9130424212793462	1.2465132443427858	1.2108372419304176	2.972014181262865	2.3500740468773023	1.7043584542158905	1.9921737859019464	2.0554418511947854	1.751605387080002
-12	1.8828680467751457	1.7878355934780923	1.0248438094013488	1.1502586574123435	1.4054585659782306	1.7314466194307025	1.0905195447091662	0.8914213158035768	1.6225171048207745	1.463598247647543	1.202014324014461	0.8418984987937527	0.8667694904378076	1.4299697839873295	1.9202649544871242	1.2972810235648902	0.7666200976089954	0.6304859503086582	1.1081998320256727	2.301840299516781	1.4254902565251897	0.8515065290887086	0.7907835225167081	1.231532451381341	2.4429383216214804	1.6244202811236477	1.0564848157911895	1.1652517289305808	2.752066605295352	2.131249660833101	1.5395988187065757	1.7592254832674281	2.042581791489095	1.6146907765629461
-8	2.147130960765539	2.334555143184184	1.110050079404119	1.0938074561159652	1.2093855112059335	1.8254796220466856	1.2233080833067076	0.9356149411421328	1.5939860303688826	1.1518478364473326	1.0788282128752806	0.8141527751394386	0.4046927382265248	1.2862044540356659	1.5513789614609523	1.0987808676634672	0.6596538407837224	0.802100596786994	0.22444713059024685	2.011105293918419	1.1801513403660464	0.7209981065666482	0.7699739317527495	0.5963379129612494	2.07581591082047	1.3225098814952732	0.9294769740479496	1.1740307778280936	2.3521323144654893	1.7915849640435773	1.251703378378144	1.412239309560049	1.8913233232430562	1.3425612415749584
-4	2.0818664975056334	2.5361175473078563	1.2216758697182992	0.9969412659270266	0.9988184546048432	1.8424922181341041	1.305222507996134	1.0228835318489249	1.4229701721504486	0.8461233356094104	0.9443616247176143	0.7888324240795566	0.22662712576391922	1.208972451018683	1.1269532413640062	0.9086807943290315	0.6750764829757715	1.0104594205140207	-0.18119080318957853	1.5979254205414317	0.935147104286472	0.7064870578094923	0.7906649688785492	0.06467647834184218	1.610176320779056	1.0671787235019219	0.8426930883112472	1.149395701367464	1.8670967770166857	1.410765286698475	0.8673003890074816	1.034394261609597	1.5976841409399902	0.9323217249219623
0	1.7351095632614815	2.359458202127047	1.2906407085258083	0.8739490486968111	0.7983064631333957	1.7628529027300104	1.2777156797574765	1.0599580976427718	1.059946772760293	0.5831486568032954	0.7759853581863941	0.7221895438080553	0.3368231943686431	1.1424095601802684	0.7430934291198106	0.720147846311074	0.725520728186852	1.0744506093554493	-0.06139013900754523	1.1643100947547966	0.7230614405496285	0.7444896679201489	0.7539694290198721	-0.21010661072136286	1.1652229994918717	0.8915237165830423	0.7542212586434123	0.9944934819862157	1.3818449939171826	1.0666884156952374	0.4539231348498191	0.681035338112857	1.1899449795243642	0.43452629337275994
4	1.1954979866361988	1.8644845438613546	1.2368200986153055	0.6985641700273717	0.6180053337706497	1.580702658477066	1.116365906757863	0.9449071264252215	0.5280474411030266	0.38621380827668916	0.5559958205490653	0.5880157932694312	0.5795984849601469	0.9886192058398529	0.480842648722665	0.5091006742975301	0.7160215955776258	0.8498835542202171	0.36556088832112704	0.8109721520929646	0.5555750117580135	0.7616414408527665	0.5798572287224636	-0.19233648430424538	0.833439944070388	0.8043693879799962	0.648737309725316	0.6825907809189884	0.9585012173294677	0.8230990150651243	0.12034502595081195	0.3866678764594417	0.745053766276879	-0.036606538948381284
8	0.5679522738422424	1.1774612635448352	1.0188595030810084	0.4354957927199063	0.4583677041878866	1.311650511291062	0.845847544918731	0.6336152537561103	-0.06384779496762213	0.2624334686329209	0.29053476379474474	0.3975250114894794	0.731772838175492	0.6838978511709679	0.37354802991015335	0.2590931647434967	0.5999672397724598	0.32598993099877766	0.7683384399088868	0.5975160583669052	0.42682185661318955	0.7203717809609297	0.2695083909382854	0.03521366035988365	0.6497059448051152	0.7934827784531915	0.5569843039755247	0.2947245232770408	0.6312848313605658	0.7124588471544614	-0.02018070215852128	0.17580097869356584	0.3710337271859411	-0.3398695579530996
12	-0.029928902088538385	0.4608977723406022	0.6703253967527204	0.08778730757722081	0.3204219929234646	0.9985244248929086	0.5357090817277563	0.1800903673393524	-0.5564907775180306	0.2028613085393381	0.016871785702427516	0.20047897049832533	0.6315263493805858	0.2563067370142494	0.3922987868418009	-0.017380563498365115	0.40411397712721703	-0.3422407499255675	0.9006218887478769	0.5206977711882637	0.32186815061367635	0.634867308921101	-0.07884728143573734	0.32463431276375115	0.5867670163598948	0.827828703220755	0.5345688448760819	-0.010965983355671078	0.4076887656885956	0.7200689297615905	0.09014319605718127	0.06636696292095194	0.1601423468122856	-0.376953898908665
16	-0.4617134917046163	-0.11285430909512473	0.3002425722648028	-0.27446737816178807	0.21560355966492764	0.7090833169200639	0.27795839239514636	-0.27556711365743985	-0.8089570382674858	0.18759030056321474	-0.20651924557996842	0.06523998065212601	0.27057778766982304	-0.17378012792104197	0.45996054890852023	-0.27611890365505487	0.20767849631327817	-0.8932028986314151	0.7269095164066122	0.5213974105068708	0.22323468271160937	0.5475456104759482	-0.3164726189729408	0.5388716445669091	0.5758398756747451	0.8579570629393048	0.610309360870616	-0.08848544932913173	0.26990541747613184	0.7769626955443087	0.4001971771149807	0.057379200909704504	0.1329183575135345	-0.161923363396
20	-0.5864269718623097	-0.3908598115112665	0.05478440583821656	-0.5257540331917943	0.1689121569898815	0.5221284614731952	0.15479116102715101	-0.565395890238925	-0.7604006509656099	0.1957864309374571	-0.32199790992502475	0.047009296596572485	-0.19816282341516853	-0.4507951725068711	0.4893963026565287	-0.4580794859288029	0.09090428031381609	-1.082527753957859	0.41240584746188813	0.5183258043554156	0.11496996105492452	0.4861595916394626	-0.32696336425246925	0.6110846980878968	0.543261407434244	0.8235465863416127	0.7425660472241694	0.10277935836591905	0.1803273852087033	0.7766796330869851	0.7447940688402483	0.11488424212537333	0.21347173994527333	0.15915392299047082
24	-0.3039113573507548	-0.27696481277157153	0.05496191964578039	-0.536509691314358	0.21220219081708522	0.5037734495795347	0.2087535405848941	-0.5680915698967308	-0.4492559123617553	0.21837523524463026	-0.2944741837696162	0.16065402288406808	-0.5400724397375224	-0.4622876930486103	0.43007260452406487	-0.5141469227207637	0.08657711722449851	-0.8065986016889677	0.19997249493178637	0.4541932929015815	-0.011054842704935942	0.4349157501207391	-0.09731376146542697	0.562895356187621	0.4488343585126457	0.6754389388197355	0.8208649733799382	0.4608077395248963	0.0976226774373567	0.6212452634385255	0.9071883536322686	0.17698009267469683	0.26333779030116994	0.3649086942996414
28	0.38546305797531616	0.23082365037338018	0.34058511171182154	-0.23739018976357767	0.3716320982133305	0.683397768202565	0.42825621258376556	-0.2617518597193128	0.01811158466236724	0.26901054314405587	-0.12100984870637754	0.37485533858071135	-0.5633332715116802	-0.19440410982163867	0.30136957688537047	-0.42240166557477365	0.16696947770878318	-0.1597185577890025	0.25626262957722695	0.3326878241245673	-0.14417526089507143	0.34482407482825544	0.26628655128005313	0.48002099869651077	0.30966478508014056	0.40775519506503005	0.7227231245867375	0.7866910080121177	0.0016888247294553572	0.2796166532132558	0.7259247880727642	0.18247535778705096	0.1586937900351277	0.26901268891126234
32	1.3422706093277672	1.0194543574343649	0.8479354360152968	0.33735972557723415	0.6520173533190244	1.0392379734503951	0.7545549850486671	0.26996046236544297	0.5273575173414934	0.3826209893103115	0.17427830354081691	0.6314478500636148	-0.22288915458671882	0.2671245031765124	0.19107645701803608	-0.1882501984850182	0.2749692194672074	0.6084559544460046	0.5810770973793569	0.22525709810605465	-0.24305842755463328	0.18196955277276403	0.5925779327690213	0.4614654767783321	0.19913421520978175	0.0854006631006339	0.40106242793867813	0.8957183934485199	-0.08130981007551233	-0.16854077535038486	0.19746153006767309	0.1143171337340897	-0.12401527135055732	-0.16665346878414308
36	2.309347385297998	1.8777503919876517	1.4307285511134047	1.0509412262132056	1.0242814991839573	1.499522801427997	1.10558151919659	0.876649496726187	1.0054199670202744	0.5965602978903449	0.551625667609812	0.8768386222635818	0.35235911518780183	0.7867540697261308	0.21311294978695372	0.16534504252649837	0.3738626232244836	1.211372849267017	1.0252227757318737	0.237742751236534	-0.23827432035846002	-0.02331199863627798	0.7376965861768934	0.5693823680807277	0.21593561714013296	-0.16067415435279012	-0.05691932872468164	0.7258391958030829	-0.0767461134045814	-0.5415998683606802	-0.4920435833428992	0.025499064410918978	-0.4717468011389709	-0.7870388607181487
40	3.002073518802939	2.5609142715647084	1.917605395243961	1.7143756107915518	1.4252746069209368	1.961718792730852	1.4063616955535871	1.4050888979722669	1.4326572382041773	0.9219985581007968	0.9647263860187373	1.0860457392929102	0.9266847348658513	1.246715184878775	0.44340914375888696	0.6061319693520797	0.47874289630181893	1.4585748874078455	1.3906047309098368	0.4505154479096465	-0.05805008471257039	-0.16691577392397614	0.6642296297469316	0.8023979643590275	0.43308016548487055	-0.18208308471961332	-0.44626468307357686	0.37886580729197566	0.10428714725867291	-0.6299054606746562	-1.037213203672487	0.02026362712035568	-0.6808343512511817	-1.3039936986425469
44	3.226976386505988	2.8788933681282214	2.1783313696223123	2.1572890227210935	1.7702354148039616	2.3202340544294477	1.6091963012121333	1.7506393149999215	1.8094882919402704	1.3186223473635477	1.3599727119442067	1.261126276646895	1.2768930164523635	1.5873393972374705	0.8649526812649959	1.088483211630201	0.640248297028548	1.3311678137549081	1.5406472644055276	0.8596670009843042	0.32520413316636526	-0.12219089983845885	0.45764124277919827	1.0954074831962761	0.8460937717056765	0.10585045787789489	-0.5440379367444172	0.06403604133650874	0.5009970652329068	-0.31148731629883625	-1.1645036906405382	0.18895788443064968	-0.5731759652925243	-1.4436957799701309
48	2.972286216860933	2.7720541884052885	2.170423979047794	2.28806018251666	1.9798589894852843	2.4954197343765507	1.6984327988658612	1.8762905550314986	2.1082098430812124	1.6959303574659292	1.6736826854411055	1.408625003119284	1.3008840051231765	1.8058056785767653	1.3591546978013744	1.544173475181537	0.8899981357038679	0.9668719148066552	1.4594277106631386	1.356979843528301	0.8534288980871509	0.17296080247602805	0.2723346047678198	1.3454967703227347	1.3513114418244727	0.6530853493414134	-0.24173396764758445	-0.023383537248343873	1.0461469862274462	0.3523082724259368	-0.7855769972040783	0.5330401049507424	-0.11752188921105629	-1.1028857203294948
52	2.415633910755969	2.333604091474549	1.9451560925010623	2.119202131642937	2.0077998587461003	2.451877349385166	1.679663773110636	1.799548979030489	2.25513672259307	1.9413347195248705	1.8345957948141969	1.5111591777795386	1.0554625961358723	1.9208495568416053	1.7490808919615588	1.8787721348058117	1.1844742268221122	0.5703392610455359	1.2324058978436745	1.7640645459459454	1.3742909396760008	0.646425245560316	0.2391234481257864	1.4500522576915091	1.7716898873420985	1.260265943206379	0.3673878004812027	0.18232925190191418	1.5589389761665966	1.1038371296669975	-0.06527118368358714	0.9310272312499986	0.5201544748525077	-0.4240055669569852
56	1.8347022487094968	1.759827132550272	1.609749670732831	1.7468810037377427	1.856171841703387	2.1987709943570843	1.5596138199530396	1.5605690439877984	2.1570756380933362	1.9662738988823762	1.7769223406751404	1.512474056239964	0.704249559054918	1.9299558352381088	1.879466052078535	1.9863195369161777	1.3902138436503868	0.30293899698066645	0.9748293732826584	1.911326284351306	1.6837487178253592	1.092336651905201	0.38908305665964277	1.3433421816288338	1.9286841105403918	1.6460316139624558	1.0085221503544222	0.5779845103929938	1.8117017700230607	1.5863281448367643	0.6451896412772417	1.1794992655538499	1.0380780670659944	0.2625590258168233
60	1.4610334597893335	1.2480276791534153	1.2666734425035562	1.3001834121302553	1.56840598187237	1.7744847491285602	1.3302086558136041	1.1961120336851245	1.7643643573084087	1.7461041167997018	1.4629732333440064	1.331277605510307	0.4128184308119817	1.7997996761657815	1.6923705296703515	1.7861672594750413	1.3346353735606065	0.21463270431211606	0.7682451586400488	1.7261409715940614	1.6135643679888247	1.2611440388309931	0.6422102435110213	1.026355263979747	1.7358083681150638	1.581084485830533	1.361754771609202	0.9589487290013116	1.6567599731577813	1.5233818254156104	0.9917790864699976	1.1058309050297006	1.1563823193918166	0.6135996564631999
64	1.3529370989019722	0.8919016696346088	0.9577438807148637	0.8834849573717709	1.1979969709667424	1.221647974744615	0.9634754037373497	0.7299214583087978	1.125794527072498	1.3272191252577974	0.9019424892541862	0.8973346925968134	0.2489709996851675	1.4932452402561023	1.2540750471877689	1.2646330563087564	0.9004053450739545	0.24749043521384606	0.638352392492319	1.2812938657835986	1.1233386965046628	0.9983243321009028	0.8648104645829209	0.5791466817538902	1.2669131723842375	1.0260318491780123	1.2474747864698748	1.1524496049394655	1.149442908246007	0.8925004578945106	0.8220891335712446	0.6949327570535995	0.7867863754435175	0.4726706433283346
68	1.3648973668924054	0.6364411695624215	0.6435773952447827	0.5390405045251314	0.7741703967575658	0.5690253958640692	0.42640069019427	0.1817533369243872	0.39039972325940686	0.8004882315452456	0.15618035157826246	0.19627872059857535	0.14917291663177457	1.0108067963828946	0.7216880303281814	0.501406847164703	0.1146202308025879	0.30061826033987354	0.5736799225628278	0.7763049582908729	0.3502871683336733	0.35836666731954586	0.9621126627472907	0.14864225648067905	0.7592881302736861	0.19968175837646726	0.7602229099153385	1.1388111085749737	0.5905364140859737	-0.004063943856379857	0.29863485618533525	0.1497637476716189	0.11728568345498838	-0.016477717045070547
72	1.2345081536595948	0.31992185035041704	0.2312717878939925	0.24387086866319302	0.2867659323127898	-0.1682331408783146	-0.29108229206026914	-0.41540408029581	-0.2534063750068016	0.2568859451483919	-0.6695636493944142	-0.7027760130305012	-0.027595410053795733	0.41649219288575995	0.2673027806685854	-0.33770531330676934	-0.8232742527203215	0.3077752880432088	0.5603848681606647	0.4558545041495999	-0.41703045262904515	-0.3771847476972972	0.9482372975250594	-0.09131246037078801	0.5368566499507196	-0.47108733535084096	0.2675238542954992	1.0856879922158715	0.44196319468493145	-0.6260648950028952	-0.14932522139995233	-0.16474473434815864	-0.44728568083367914	-0.45272102837702405
76	0.743004856617898	-0.2164129311342892	-0.3614210477287044	-0.06212891622592918	-0.29346772954280237	-0.96719056123682	-1.1460895509394098	-1.0035440896446395	-0.6720647198875198	-0.24396684704220026	-1.4494354688289306	-1.6503421026524396	-0.3889091899112719	-0.17435342029420545	0.0049786399924226276	-1.042528745880136	-1.598178978699666	0.28191742229809935	0.5963445886814474	0.5050666915539612	-0.8369244911998045	-0.7989462593887994	0.9511699652498938	-0.0009747970009757078	0.8796303250038784	-0.5101686703199191	0.2609924965467915	1.271858808167344	1.1345308990444594	-0.41471648111541715	-0.019868453914428003	0.1176246252666479	-0.46847048283555154	-0.36164644269235346
80	-0.13701909745908322	-1.0088003848355311	-1.1356816263135878	-0.4290744055405316	-0.9643706654996158	-1.7640860036180104	-2.024026627198784	-1.4999346695223552	-0.8520442225878698	-0.6708247644653879	-2.05613874869974	-2.4486966071294027	-0.9106357074634391	-0.6366252287050232	-0.03872200091837633	-1.4169677460181425	-1.8976126861345866	0.30441716236504174	0.6788526756313377	0.9755037998365892	-0.6425530894269037	-0.5441654906839145	1.148481842956075	0.4670787739882047	1.8982617807145519	0.4079242934418309	1.127182242408655	1.9400380800857004	2.853592626996421	0.9539687609429008	1.0168402169304058	1.1763137549265166	0.312547653124391	0.571746049867973
84	-1.1958157986013387	-1.9153051327985968	-1.9755775878618775	-0.8567726590459634	-1.6443955856767916	-2.4344146190215405	-2.7470202376628294	-1.8134067012779114	-0.8920419193634113	-0.9904218887118885	-2.37530850764428	-2.902234070126177	-1.4155461752438385	-0.8820618964813512	0.09829684322096724	-1.332191344712407	-1.536340113575643	0.46927046657338467	0.7847325185990326	1.7750287011154071	0.2560330622884541	0.5364622460172366	1.6678348737569562	1.2350639073660774	3.471112719355179	2.307036155598023	2.9500696584606034	3.1567926327159	5.4088640076452	3.4015271577785464	2.94639157505009	2.887095444065765	1.840699429633076	2.339954608731465
88	-2.0720443673271847	-2.6592094831085293	-2.668620818076223	-1.2763527599534834	-2.160773033408708	-2.8053455281955038	-3.1142694871476015	-1.8654891205418627	-0.9190437770528065	-1.1343276472062884	-2.315847629422212	-2.868411295324486	-1.6434644419184612	-0.8802753664680091	0.3696845164502118	-0.754840550901065	-0.5266166912134504	0.822086034129724	0.8703751542051019	2.7235269477746344	1.7415465072531031	2.3040380419733903	2.5080728467561038	2.1133894866991167	5.277605520275181	4.879860865670258	5.44665478284886	4.755778300675919	8.264312723275241	6.450018389629576	5.398846612650961	4.84503029553725	3.7617118263637965	4.601907241646682
92	-2.4275820193988986	-2.95442580430837	-2.9814741536205727	-1.5655662973931503	-2.29727196113415	-2.707496874649213	-2.9656982346998317	-1.6117768246965238	-0.9796009038988158	-0.9986359451830018	-1.8247939302149208	-2.295769685671024	-1.3822014296920395	-0.6459554417513824	0.7639902214788554	0.2530886226463062	0.934433934713535	1.327573415265448	0.9026634074309244	3.637470236177599	3.5381121546108267	4.381841648482812	3.5209617525850354	2.86323355905521	6.914137822814476	7.592409114742143	8.065282801292392	6.389413340649288	10.725873920063327	9.395066237571243	7.798055152278356	6.523655398110653	5.57603977702903	6.8228792971964936
96	-2.117502445596813	-2.648201697339202	-2.760332338993355	-1.593763824253721	-1.8892873477919587	-2.0501763768886216	-2.2470605316649745	-1.05915748805617	-0.9825857256876971	-0.48912107820997325	-0.9098677016174472	-1.2408014504576705	-0.5909497126918027	-0.21025079435671049	1.3042033877823374	1.5552009304835903	2.5472476418079535	1.8809328031734645	0.9000356174633463	4.39621161304614	5.311402307451814	6.3022317727236485	4.4613447076692925	3.2863099492071375	8.040549257958842	9.873474096165625	10.196228955275062	7.660079936714845	12.204728095711902	11.567131966950583	9.592633223156417	7.493534069215411	6.848116380567834	8.489599206471096
100	-1.262022134455607	-1.8020521356861565	-2.009507651023893	-1.2791078058373357	-0.9196079350141811	-0.883790669594052	-1.0477534506093766	-0.27346208622554447	-0.7394523005889645	0.40923273460063675	0.33939242277287723	0.1401166316309502	0.5564290867108438	0.3996024121685911	2.004840607349763	2.9715673848467565	4.0177235501894755	2.3557343423494617	0.9472873186990277	4.9604153507879225	6.774281007829446	7.677438239741088	5.079895483542905	3.303307286505532	8.49288461448282	11.306216211383747	11.393601388775426	8.263979890939655	12.435225455359445	12.562946287861688	10.454895946809492	7.590987186339971	7.3658752255435775	9.293808913608142
104	-0.18104658975190857	-0.6674078686076207	-0.9075385905240845	-0.6350663288295035	0.43848404177585354	0.5870117530307246	0.4117965985868547	0.6237221940505581	-0.09304947382560809	1.5805677135616352	1.7482233003346956	1.6241686303140412	1.7339900688261365	1.1500390739015451	2.81818722967065	4.310540188396717	5.140028463737764	2.656520836798789	1.1550714940472258	5.341828332765622	7.755079249829487	8.314900377261289	5.2109575140042415	2.978577606310381	8.313976266851025	11.742437333024094	11.507618875059825	8.079018572436912	11.545700044092097	12.348374335583605	10.357436153964734	6.951542836758123	7.176393490792481	9.201565719260955
108	0.7667658309651033	0.4286130059864902	0.2503657632705514	0.21493238156412892	1.8633476448697792	2.055841440732351	1.8433219147872826	1.4723736010570891	0.9397270655748049	2.786117546676667	3.0863325517933307	2.9742681905040005	2.60166358290897	1.9666255662856633	3.6127316860539	5.400598512365776	5.826301559997034	2.7481868197674277	1.576736088586568	5.554958806318095	8.21358583283935	8.236777284807165	4.81789873814115	2.478088611068257	7.698466758364754	11.30553910262081	10.682567569464656	7.1692833719444655	9.959145520815047	11.20661923440132	9.513067221465212	5.904205307358939	6.499717695992134	8.39821718002945
112	1.3545601333751083	1.2292622296768678	1.1628329724517021	1.0701581212681421	3.005511753123482	3.2202865996118675	2.9836244507800607	2.110342258847313	2.111709827813587	3.7449386025291918	4.133226384217926	3.9978141683732864	2.948894016450022	2.709341757609643	4.211790551042276	6.125321849616836	6.08859680545907	2.6530945234071712	2.1356949752292262	5.591966614909961	8.219206789246057	7.617566089471108	3.985840787361036	1.9849154899073933	6.892605287315862	10.304573986739799	9.247563338773729	5.72448872074603	8.188092211077542	9.583687758091113	8.237235048477883	4.797364222812136	5.5921053745226486	7.166007977513038
116	1.5719814260848393	1.6444555479492842	1.634876127883748	1.720246310659237	3.6299247650052426	3.8933966061521743	3.6786329653369783	2.4172732769017324	3.023952476496113	4.25144623636696	4.7535185693889	4.594656932674509	2.7668244768859	3.1871800342199896	4.474693287042329	6.452671988408277	5.99703262722345	2.421727651203841	2.618899815623021	5.4346623283503295	7.910019854601874	6.685373289395469	2.8736035751270506	1.6106518466338735	6.096974357470389	9.106750465288915	7.567137699095498	3.975480784869492	6.625218851528546	7.912507037212782	6.813133699381743	3.8481042287946026	4.637061107372136	5.766503319486389
120	1.5825474222282068	1.751583929407937	1.6426184135926554	2.023298258441468	3.7090568448835786	4.067772855025271	3.921737422578423	2.3536703527153904	3.3140652096045913	4.268693436335623	4.945724474817934	4.775672900540242	2.2202277127477354	3.2206947722182586	4.373707283421562	6.445572359977715	5.641779885353043	2.0981116241888613	2.7577998568525324	5.09117697384035	7.451652031204698	5.640492901866302	1.6535953241560668	1.3493434156682476	5.414347158113535	8.024639109378406	5.926294311819772	2.1296970790499117	5.427240358001637	6.493257506189108	5.424596295966076	3.0911748331226576	3.7143700029054423	4.382452476880927
124	1.589586849967697	1.7107313828191852	1.322701689241676	1.9604059408283439	3.420218697495759	3.901243199989175	3.8293108843443706	1.9792673537827374	2.8564817833306795	3.9454290767239297	4.837254035180907	4.640880096162543	1.5451407393545098	2.731848709838585	4.020087231976721	6.243010028335815	5.112454401459969	1.7020345883312546	2.3667752683012004	4.627887237308628	7.004089337785125	4.620807159201504	0.4668911385669255	1.1012663813443255	4.856869208471227	7.25348947601043	4.489168155780198	0.3464459470108214	4.5334076766951155	5.463665948424808	4.169254769289317	2.4411189494489496	2.84722542043901	3.12792443439401
128	1.695453997146087	1.6511977869306746	0.894987580900774	1.6402299362732462	3.0492029113078503	3.630924215686313	3.56931733183917	1.4384412729185778	1.8556542349694645	3.5439183622530277	4.623427379379214	4.32732485632309	0.9351996159783865	1.8133014394755038	3.618167391225113	6.011638626179494	4.492701519113562	1.2365473477615019	1.4665751420186892	4.166547287911876	6.69353292682604	3.7088811303912244	-0.5946202859170936	0.7519957404224077	4.392030704853571	6.859931928481118	3.3212358867715457	-1.2576435772614618	3.782716503129613	4.83697699279269	3.110781900181309	1.8106123163286068	2.0737531132792912	2.0881347603529665
132	1.8360739900008944	1.5968024690366986	0.5572048411606368	1.2476658789605422	2.847042553389301	3.4560086639886505	3.277808896372155	0.9116030312410567	0.7672231774033103	3.3107917225217918	4.474998939659966	3.9478099246488267	0.4760516571900376	0.7250769716076195	3.3659472380533138	5.880697712356035	3.8560311696925575	0.7085216623537635	0.31157931606781475	3.8378813169856962	6.584568007057205	2.95299886911605	-1.4862531386044442	0.2566068762022581	3.9899055857058756	6.802604658118043	2.435084336808546	-2.597866051790628	3.0484976691526486	4.559062469415988	2.3152377546984098	1.2006077736106024	1.4800565205399498	1.340825554323481
136	1.827635879670636	1.470593567950011	0.40340775149537883	0.9588987207044712	2.9153528139895393	3.449860087267724	3.0074651165371296	0.5497217760512033	0.07850658873764196	3.361144295789439	4.4627079851011535	3.5520961194955647	0.15537266394011157	-0.19114258837124742	3.3592414771144337	5.891673550035843	3.25893973481396	0.1489799614959626	-0.7064307910249664	3.7187800313519497	6.662755949364682	2.3812479912718625	-2.1969921533428987	-0.3185041240756914	3.647256126732115	6.968059045365106	1.8254847480461234	-3.6192948726828376	2.317734474052458	4.549071300465383	1.8442894173788342	0.708918986914833	1.1701093882582212	0.9409703588570358
140	1.4923191032879206	1.167916056545314	0.40105870264838905	0.8635798670899951	3.174201718899363	3.542702189084101	2.732020132796526	0.4206016947140685	0.06502629055056515	3.6342351344859374	4.537083614338422	3.1310543934925525	-0.07337081413818179	-0.642941234872701	3.550844183539863	5.988232597491029	2.7350234916298857	-0.38029864334411373	-1.2332844703054455	3.790464153256536	6.839156133550662	2.0013868758216176	-2.7344596316917342	-0.8230705836496381	3.380876294183224	7.2094998177657805	1.4778121672512439	-4.3047823797259515	1.682205911203888	4.71276425125449	1.7144381956684078	0.45939126494770777	1.1977683275499613	0.88353752866833
144	0.7821727375309715	0.6459014399433523	0.42993876229455963	0.930491981541267	3.4218699845704474	3.577594509628941	2.396116727501412	0.4907496559150595	0.6549523456249993	3.939446439333639	4.571033466242453	2.656958096471757	-0.22599470558328785	-0.5069256412105227	3.7840735816784323	6.052535518623846	2.2965142668916783	-0.8011484125891111	-1.1185693712603564	3.943878879126525	6.9826330962316305	1.7952866508933623	-3.11432527709497	-1.1084818812040378	3.20226954605323	7.384828548859983	1.3594921792992407	-4.68150614510172	1.261989232691774	4.9432277554638855	1.8620477867797993	0.502718924206831	1.510920759201039	1.081096527231126
148	-0.16705258148455143	-0.023970907493509695	0.36049732474862994	1.0380309793967408	3.4540054710920964	3.4095694932684957	1.9798473069749378	0.6547007544200375	1.4820196591153156	4.068564881543047	4.443937767253036	2.1369566863466463	-0.26584356956120087	0.12615232137777743	3.884485711780751	5.975039467031174	1.9506182621344885	-1.0447421047536372	-0.4810495364441581	4.037435998259824	6.9773845496445395	1.726400371007469	-3.3492042933781785	-1.116216060681276	3.100590698043343	7.396135788363906	1.4192935192514062	-4.808489787359242	1.1209953995058792	5.134035574348597	2.1532270853991955	0.7614989857521131	1.9522188852612457	1.3871548140789476
152	-1.0872483226028622	-0.6761360747432684	0.12651815978532394	1.0496649715624973	3.173582307432421	2.990477792819032	1.5348175725333444	0.7946361879313281	2.0953459686782656	3.908375491764991	4.116856564618144	1.641721125272472	-0.13719505037001595	1.0036852334431112	3.75437473302905	5.718222603665903	1.7185717777731448	-1.0772771808128514	0.36114239601508297	3.9731540579619145	6.778266412787645	1.7594867900294635	-3.4407286557111885	-0.9192802286780335	3.044483177127872	7.219195824516203	1.6013545949559918	-4.749509322572851	1.2249104945728035	5.208938585481507	2.439721339741785	1.0568393442174182	2.324403518530249	1.6583590465637783
156	-1.701264019485544	-1.1276448936602335	-0.2413726740941906	0.8960220195082391	2.6398007803071897	2.398778432511782	1.1710134715078917	0.841747818252141	2.205212825929565	3.4971308619896853	3.6601464655972755	1.289605614267252	0.17669989124031518	1.8296068860590924	3.4212970647263132	5.341630922182624	1.6431806046007573	-0.9125779248085416	1.0541331741421585	3.750199546882364	6.43646477027903	1.8813079548067335	-3.3783378515779385	-0.6878230554380963	3.002121202518639	6.9110164467847595	1.866649742181999	-4.546053874935891	1.4623757563862863	5.154355036119806	2.6313249998415285	1.2023160427255521	2.484769576474973	1.822377438712538
160	-1.8469046307663963	-1.2642929522065267	-0.6320913418069853	0.6200630649170352	2.0399403520578976	1.8052515938003322	1.0028712724161135	0.8087760785664047	1.8289378835278225	3.003844730422613	3.2230601229355536	1.1926339834619721	0.6132006629720809	2.3886816441309016	3.0215947551733304	4.97707842523926	1.7756352379791103	-0.6064731463379126	1.3756432498532507	3.468717327896994	6.08059595480178	2.107095236226727	-3.1456282059404983	-0.59427523462936	2.9667961522538224	6.587830050048236	2.2057402078252064	-4.205346096865432	1.7119702057530692	5.031532751731415	2.739265911815708	1.1100918026553566	2.4154903827717122	1.910390014593538
164	-1.5365478953668052	-1.0871590348452143	-0.9070992446885543	0.35747492223131266	1.6041547019511804	1.3970519269003343	1.088521835439918	0.7759640197236184	1.257980105085014	2.6471683912199846	2.9649035855776926	1.396202799133008	1.040884372944224	2.61586331660725	2.733176701320828	4.7681994317785925	2.1447720473498637	-0.2363796377174459	1.318192597875802	3.2820556080923904	5.860393986211007	2.46396946284951	-2.7359449794357866	-0.7126498800404842	2.969970457207966	6.378632529366692	2.6292688780205475	-3.7145535852108873	1.9120135259038311	4.953599917302933	2.8591084408100094	0.8451726415276433	2.229400390718351	2.029270166995726
168	-0.9319386458709581	-0.6988201719760356	-0.9624143814583819	0.26260036163787065	1.5076296291434301	1.3010498252445228	1.3989127839055238	0.8397054651040686	0.8716412760662241	2.5987796717834386	2.9866776390963268	1.850960249995964	1.321896549702083	2.583672516975389	2.6966407230958116	4.807754981300306	2.728581660057405	0.12541696397587884	1.0520821783206156	3.324477664183405	5.8816499561585625	2.961239807281889	-2.1703453009168894	-0.971726355483486	3.0727987211848	6.374801619647361	3.1424422184760084	-3.072051755778361	2.0944969601202286	5.036786543527233	3.105396262911581	0.5967038258746017	2.1103055423862243	2.29132890122789
172	-0.25963884526503767	-0.24631459948816944	-0.7718775848927797	0.4180776168281377	1.8038812830204056	1.5408245286186422	1.8332941485848782	1.0501672002981066	0.9094787813112697	2.9170842097066036	3.296208850167863	2.4334883628440696	1.3850092852910294	2.4257976947574074	2.9631881639053876	5.1036229004751865	3.4461278828398907	0.4302338648900975	0.8012852052485253	3.6510100272505914	6.163441642458825	3.564673176348576	-1.5100468359015484	-1.1931042641080627	3.338021031535076	6.596865160499058	3.7178869153568903	-2.318391078817646	2.3643555581480076	5.346757398457522	3.5318276793001555	0.5796582684187057	2.2179343644411476	2.738469355344941
176	0.28525841164093674	0.1458563204897499	-0.3947270502614972	0.7785172442807708	2.412211650480186	2.041590208621115	2.271551126467033	1.372731443754035	1.3378241028387494	3.5348179251116973	3.8187835120107203	3.00678657726272	1.2630450693666597	2.249011510892837	3.4876823337237455	5.588161931234265	4.181062687808089	0.6563442928909247	0.7151063066547657	4.218827236968114	6.639331324027094	4.195787896053383	-0.853048799268378	-1.1899316280839682	3.7987596892768516	6.995694142798996	4.289225090641695	-1.5459660252639862	2.840496532898016	5.870784267862021	4.087652672937725	0.9240227914369031	2.6107287341006824	3.3066556370219806
180	0.5951693639033782	0.4138395477813732	0.05044693487066916	1.1807365387669737	3.1563348690451805	2.6698164872473984	2.6302666597715687	1.6952344136352888	1.882730240836773	4.2957510839723865	4.4378642923843366	3.4839873225941584	1.0704039308225752	2.08279346893884	4.158101071349948	6.1585993611294985	4.826619136068353	0.7988449910975817	0.804881749505192	4.912146079059205	7.197431546159287	4.7606239198653455	-0.3112111679802891	-0.8733524658087605	4.437637317897606	7.485135536369183	4.7744707940674465	-0.8767670966900318	3.589002838610148	6.528474314419286	4.638688552588975	1.6086242158330235	3.2223186411564195	3.85337232570513
184	0.6570218784910206	0.5543903694460935	0.4340147067079444	1.4219505750994952	3.8336472414501217	3.285491696645727	2.892199032157128	1.8801839304183972	2.205069536363887	5.0180439822342215	5.041282641080579	3.8588492772904233	0.9358437037682032	1.89263844012206	4.842849719218292	6.723612291526708	5.327308164497838	0.856843290549844	0.9761945580631471	5.5958843089918675	7.735763530273762	5.192343221906463	0.025091912534066844	-0.30091220064484125	5.188780771506521	7.986971358161251	5.116320597128919	-0.4179221381126337	4.583520877709949	7.212335091501298	5.03916262308056	2.4737574991712328	3.8979649445348055	4.230578411865203
188	0.5225292431036531	0.5976420625856423	0.6626600010353794	1.3639175857440613	4.285722721723536	3.7826552295549383	3.093950979050707	1.8350849105279887	2.1075131839948367	5.5562486508277775	5.549271092709408	4.185385693473444	0.9320958233188339	1.6429407555107869	5.433816419233813	7.229937058314767	5.693368420531632	0.8286536315023636	1.1244647474509164	6.170119270005443	8.201884249006588	5.482939706310717	0.12129752307307906	0.3629245450870453	5.962182983604162	8.463195779413734	5.3155712947154585	-0.21612423603804848	5.710884556656842	7.835444907432979	5.214066492267876	3.3027620232165034	4.470166195073778	4.363703716704875
192	0.26937842301068077	0.575206337907027	0.706925688389287	1.0063883040768506	4.443257320629998	4.1050057307552414	3.282242051420777	1.5626779755239166	1.6492375093782508	5.83772419409295	5.915787681902451	4.519356239352661	1.043068525541859	1.3615438903765191	5.866240009755818	7.657211284378337	5.977602943587202	0.7192268353423299	1.2216279475840208	6.596780283485112	8.59602353786744	5.683415875390745	0.01689353022184474	0.9457966661416035	6.675002081230736	8.91781518591974	5.435887323006661	-0.23339362383567214	6.8140683002094615	8.35962579523919	5.2041282522416985	3.9238445659752026	4.831559169014865	4.293458450921534
196	-0.01877485024659201	0.5093014823452714	0.6049914940818267	0.4949272262475297	4.338234413638076	4.243618000760504	3.4720351608353943	1.1672631472680928	1.1052209110966094	5.8721546978512364	6.117249950223153	4.862252223136591	1.1872284382409397	1.160984155584727	6.122821315565532	7.994751910052008	6.231224521163423	0.5559446201593325	1.3397079672367642	6.896792871228629	8.94484326965277	5.874307617615088	-0.18065588130639232	1.3688683475266057	7.279484253624243	9.374253249342539	5.578141675217084	-0.35486465602925427	7.755172709912259	8.797368981084677	5.151302324640696	4.284244049699681	4.977002131294141	4.161610592825463
200	-0.2612237923702585	0.4178547848642075	0.4410862613508876	0.05553410188243773	4.079358090591724	4.223260392016736	3.630741348636604	0.8113049248239054	0.7985790351732655	5.73499392015188	6.142225249995302	5.14240454329109	1.2787080970904812	1.194054004515516	6.226699813380657	8.219639757384611	6.465254767307172	0.39938315648333844	1.5965105254873257	7.124508362902238	9.265088057967764	6.122366412917755	-0.3272805503688407	1.687496181042216	7.774744967858449	9.844300245226098	5.836563572452814	-0.42703431736895503	8.468949296550088	9.191968894639189	5.232062803410185	4.46365879839221	5.00124643970461	4.148824204460529
204	-0.3892303993411555	0.32400342740271887	0.308214633878739	-0.11296525569051341	3.8012983703007155	4.086567391568395	3.697319259845464	0.6418417675979501	0.9091367102557674	5.532590375283261	5.991646751535144	5.246397958861052	1.282152530294065	1.5647451838087976	6.227401717675759	8.294071176569249	6.641434652726618	0.33543196235845324	2.0629105515848645	7.334472637732237	9.541127180805988	6.4480323628706735	-0.28878125475452476	2.045009846292535	8.196742990779823	10.308888409336328	6.2594241937912	-0.3111267976058225	8.982541061610815	9.590297674761436	5.57403133892375	4.625050056224483	5.05697582875458	4.396411407814923
208	-0.3609598865932415	0.26093050771638165	0.27255093982548584	0.06850596500028354	3.6120746044515553	3.883459081381732	3.6257758049021924	0.7256468516148783	1.3736877406723969	5.364807592198571	5.689767823159131	5.0862336030337385	1.2279446094027897	2.250564092676026	6.18696831094801	8.186350801780181	6.7009877989385656	0.4463893163854875	2.6970708302114246	7.559080104816524	9.73166177199974	6.823135358749802	0.014551345222212572	2.5697286064118394	8.594894387479664	10.724283191307578	6.835695249465162	0.07134488952028421	9.396142935871746	10.024469350300999	6.200611575684072	4.93271063512911	5.293318735109776	4.950227248091477
212	-0.18472506059261215	0.26098558240801506	0.35003411681491825	0.5251921998115598	3.5561849981168328	3.6632263567943335	3.4222397717857005	1.0219169829316874	1.931778902898606	5.294075475677934	5.292452321995508	4.660522926007969	1.1841847866678137	3.082378141250336	6.165005668333783	7.900212744793871	6.611104948518525	0.7728540877856694	3.3508810912407663	7.802859286635123	9.798169111309365	7.1953100976477975	0.5807775840401168	3.2793066418822896	9.006401992947056	11.046963663820524	7.508851509209697	0.714494166954468	9.833672498670898	10.506246540246739	7.027695161242371	5.477836118219354	5.799723133703054	5.74922226407958
216	0.06709550304162157	0.33472141538987976	0.5027227985087316	1.0664187642829543	3.6071729568961817	3.466647854635617	3.151256076485982	1.4027668202269699	2.2824377955984825	5.3301644190682635	4.881273734166447	4.072691430299718	1.2077752321267472	3.800808896959056	6.204057677817706	7.492560844577976	6.399143202837857	1.2859375444370356	3.8450758360105004	8.0511674677709	9.736276602005178	7.5217156220312225	1.326977964865645	4.054033746020652	9.440381026275192	11.260638208569134	8.205360391881113	1.5328843554895804	10.385107967859712	11.02951333122298	7.9077811041497625	6.241174205281368	6.570932848552812	6.656830770851809
220	0.27541440655791083	0.45758801583154823	0.6574233753772138	1.4765063486968013	3.693067779753659	3.3192906295895677	2.9065539763500112	1.7124986605323136	2.261704439174999	5.436479554755654	4.541591632820693	3.493757477522494	1.3089776006075027	4.1706251992785335	6.319718344945124	7.064769727036218	6.151781066621566	1.8872654390369927	4.069325913645617	8.285665491165666	9.589266752828003	7.790538768172577	2.117168659586914	4.697828280985804	9.878194784019916	11.388425798273357	8.86052034048334	2.39147233359224	11.06492993422194	11.573352784500797	8.694384552938926	7.101746064375723	7.501390915051287	7.515266399482807
224	0.3227707735495536	0.5747512564453159	0.7375667672609003	1.612051244480377	3.7404241467453017	3.227115146118675	2.7617864539036243	1.8361370517149076	1.9352865170254923	5.554415688796273	4.332331646471582	3.086884967639714	1.4539747201449846	4.093392838633682	6.499801619331766	6.727002603712973	5.975433334522856	2.4413206515663606	4.046515931403403	8.496638276582718	9.43294141295169	8.016555765892955	2.805844776698882	5.051211344363616	10.286740277068029	11.480383844000658	9.427548384706029	3.146037332221204	11.804408997296342	12.102115600548611	9.293067908666165	7.884857634664181	8.415663697929737	8.197075823115409
228	0.15449379345511735	0.6261076911377359	0.6974517089400925	1.4602547847119538	3.714913835683	3.1794013896778615	2.733822100412826	1.7464885667575325	1.5555556973283977	5.63479326732869	4.265252102573559	2.9378130361770953	1.6009759862533344	3.663497200299509	6.713075620868496	6.555029852529731	5.943744644417316	2.829807751186721	3.922234525314595	8.687642075538957	9.342440581576179	8.220521906125061	3.285121432593317	5.087055670292405	10.637965175473262	11.586661309552644	9.875575994353676	3.68529080414158	12.48277851767835	12.569146124576992	9.681811308258412	8.42981050270359	9.127836204371421	8.638391472941136
232	-0.17663240388143864	0.5828580245561044	0.5472070560944787	1.138839361176526	3.6409408954248175	3.1604320923166966	2.781736366878158	1.5137057266164928	1.4166904652113474	5.662731156357275	4.306694496725519	3.0285208148787444	1.741680975331377	3.1326205651347165	6.923969728154643	6.562993033051617	6.064402088112929	3.003497354553739	3.884044398991948	8.87277505541822	9.360503173083309	8.410570123418672	3.5186142832611282	4.929880129765163	10.923993083076308	11.733620613991178	10.187547657994735	3.9616038699265004	12.98192402423063	12.928125348829347	9.898670171541463	8.648960091688865	9.50864217264826	8.846189476566886
236	-0.5139416443246755	0.4733866739242136	0.3567354074054515	0.8405622818705516	3.5900773911434456	3.163743726372056	2.843137495492056	1.274634119630369	1.690235252881309	5.664372906688824	4.401356209133005	3.266657344199993	1.915533895424667	2.794884913063833	7.107911091978566	6.705673677680397	6.285244925842708	3.0045232696970228	4.056706418285633	9.069042182913416	9.483492827313807	8.579505898748986	3.5481586366716433	4.7836675523144905	11.158777208765272	11.915244072394929	10.364373180924758	3.9999978441337642	13.237074818569345	13.14914890784163	10.009256337644096	8.55615899786799	9.535105681187403	8.881733871923922
240	-0.6596270782982858	0.37926065826029337	0.23179051221500188	0.7475736122330414	3.641955128057755	3.19846223977317	2.881092064259145	1.1744183272274447	2.3328764379729683	5.690389141974701	4.503086555555848	3.5460650831338385	2.1806063596983556	2.851125948383264	7.258611183913759	6.907020551409106	6.532984240250185	2.9438276216569053	4.434806335696501	9.286976790822656	9.670630430601095	8.718449570578363	3.470267048657241	4.8099322197591645	11.365316362296545	12.102691619834266	10.43326279867075	3.8828623196797474	13.259235348603728	13.232379879921531	10.073590253192117	8.256193140165859	9.299743628864155	8.830721832868145
244	-0.4665746081016449	0.40226760405067136	0.2721755199713159	0.9574174856808978	3.8425481222412476	3.2855777657525653	2.913456194197575	1.3072109189408205	3.1120281140911263	5.788290962863997	4.5974488142287395	3.8028526210139546	2.5603721077172006	3.3183865463398967	7.387143593257214	7.100065690234458	6.760696394063695	2.9460258409506714	4.888932215745012	9.525445914060912	9.870264028424705	8.835720993622125	3.393944016470788	5.03128098171252	11.55770966472828	12.264707534342207	10.450424167951153	3.7175843621807743	13.120011296526034	13.20923229697216	10.125308011240254	7.898919562424089	8.969964958432117	8.77060887983388
248	0.08525337257318519	0.6141455754033194	0.5266415463502591	1.4465799295142407	4.179135788856655	3.4440848740407275	3.0058484001563235	1.6781682925769972	3.7273170853922855	5.977760299849012	4.703809249446045	4.038259496029961	3.0050227566189793	4.026463498440114	7.5147814560941395	7.256594639576809	6.975378972562201	3.090444795435292	5.235770212305853	9.77187917149537	10.047245953942225	8.964371658580516	3.3975601110508915	5.317342744753711	11.72893902678376	12.38591000290827	10.488352749093185	3.59811090514599	12.908876386475603	13.127860989804557	10.167379353602296	7.617419223626752	8.713935830050207	8.74537942585705
252	0.8655052759253133	1.0125857566063696	0.9608404612124167	2.0812640137577647	4.580362785219143	3.6706995871374035	3.2265317358570864	2.199665302445036	3.9592645068342622	6.237251265990736	4.852617728379421	4.29467152464894	3.3956880483725125	4.701541411927357	7.6591329381210445	7.388003330651284	7.22431133353649	3.3735780630767724	5.330993638884285	10.003912900462764	10.192911122336662	9.144583678999547	3.4993200213774687	5.460976110022175	11.849031418448329	12.469012228955782	10.602868053369491	3.5700886159406164	12.684047666950468	13.025587049022734	10.176126454410289	7.472084980219272	8.622421242878916	8.750293709597086
256	1.6354299742416027	1.5038766822992677	1.4552005492663405	2.6681184701313243	4.939781176493095	3.924580087289874	3.5895495324106474	2.722566597740438	3.76708387377455	6.5079221561154625	5.051884638429299	4.604410636720928	3.595836630325682	5.097098337655966	7.820334414764831	7.520112972346547	7.549828987133583	3.712771167918024	5.135778890994587	10.192110035912904	10.314731571858196	9.389612174169486	3.655550709078117	5.301497922863784	11.876193970259633	12.521842924928354	10.795456859035596	3.6163170246373775	12.444844214490434	12.904655423961845	10.110759709580208	7.42610452684415	8.666586854034499	8.734695412517327
260	2.13799690660464	1.923159117611531	1.83723151219951	3.0239174289650737	5.1478400100437245	4.125998963429289	4.0190825360869225	3.090431920832053	3.2898113644509825	6.708767873992165	5.261915193624121	4.944025980864702	3.524381151837877	5.101299749846286	7.969083289053583	7.657893638350004	7.940284708956614	3.9883243936932664	4.7242994189194585	10.300501797419026	10.413854572706567	9.656016325413383	3.784278144818785	4.822072493776365	11.773938149289776	12.53902908974092	10.993512125869538	3.666315784734531	12.140269248828748	12.727611509613917	9.926665281028887	7.366885643479259	8.716960884974212	8.623777367753423
264	2.197937244588071	2.0916936344742303	1.9410551737415798	3.0386524123720853	5.121025072519873	4.175133694597961	4.361352909520869	3.196114055193527	2.758975022025957	6.757275564299382	5.395570741382376	5.22390364281677	3.2057862200860994	4.76697634447089	8.04403779859945	7.763311843345078	8.309738138199615	4.098568429135752	4.233980168143235	10.287696812404969	10.466311428348053	9.841246580072674	3.8022670649851595	4.163292397478199	11.525051087845403	12.491615263871859	11.066309900954296	3.626570454024332	11.706260651596876	12.436567275119241	9.590030645953515	7.163113099132896	8.612971284101507	8.350887277500021
268	1.7908137991514204	1.8935954522961573	1.6761355357767096	2.7125933101832205	4.8242092010768785	3.989198913039203	4.449034679624201	3.020976297380703	2.3781769215622086	6.592806799455837	5.350390897593856	5.326591955088025	2.767360918687524	4.260113228532578	7.966187456999126	7.7636875910247936	8.525797822407535	4.003479947472751	3.793885221439427	10.113579724526701	10.422963116079567	9.819664930346889	3.6605071929065454	3.5464041143524647	11.136865587726843	12.333933799121041	10.878443690491112	3.4216499242224927	11.10941216524977	11.987915008795923	9.093403793264507	6.731028539829517	8.24924562278838	7.8897881308675535
272	1.0486658785092946	1.3342101540258524	1.0730221244423688	2.155392402929129	4.2799844633762065	3.5409338384873696	4.183320988583637	2.6412489347529964	2.2343964520308104	6.195400699232384	5.057517515764931	5.168716894451465	2.382686608974529	3.7603516483734563	7.667920093250226	7.5874075698023775	8.471278169224872	3.737888088325801	3.472099772270168	9.752564405613958	10.230052922169646	9.502327895015275	3.363656273932511	3.1518924156719974	10.637132617797143	12.025894134676598	10.358321163728125	3.0305337829370167	10.373330090081831	11.384562463627349	8.470026948524906	6.080339893248471	7.637326698094313	7.275630932558532
276	0.20742207713210184	0.5550586567216279	0.2859708361558159	1.5503501852947263	3.571245661302075	2.882853977554257	3.591167917721503	2.20007943551589	2.281841510733655	5.601534352465151	4.524676788350459	4.75031040899661	2.1901891176239907	3.375814667761677	7.132585507504648	7.208999138750931	8.106076220073676	3.390877953551283	3.265970698693914	9.213065124139149	9.860988592046757	8.889964081253728	2.9677812978201827	3.026375524509405	10.066799138402136	11.5594958967184	9.546743368841126	2.5021979745632947	9.573845839170648	10.686119052609987	7.796241740570288	5.315763936926887	6.905187112540443	6.60063551189945
280	-0.47973239300723697	-0.20762757904560733	-0.45421442274810103	1.0937440367740843	2.832232944967219	2.1427466815255096	2.8287486958610257	1.853008861631722	2.3932149349824936	4.907945620543199	3.8492345712752694	4.166514386148043	2.230907911390204	3.1142108361772904	6.423608286852017	6.676907045672948	7.495637397914934	3.065632335552259	3.131217948637403	8.55202100501955	9.340965247412424	8.088716486535962	2.559467070793216	3.068865529895292	9.473074889107687	10.973893137881962	8.596905686607888	1.9436250875992271	8.807021118816655	9.98991868357915	7.176145058633685	4.592320907442369	6.23692320202672	5.984765514522488
284	-0.8306479433068683	-0.7122998815672468	-0.9247514582174425	0.9279589033539979	2.2207148019036103	1.4845586977670473	2.1198728031042564	1.707657094458722	2.4436552462870287	4.25402687906064	3.1878304401021365	3.568110456994805	2.4364516673562413	2.9207301066090197	5.682297692257581	6.1030573690822285	6.784501535452567	2.8389589714852717	3.0255315227415163	7.87202308574639	8.746814705699618	7.27220056605108	2.2247202340224037	3.101167194166155	8.904006935527356	10.347552273374454	7.717107753343324	1.4810154400626754	8.148046472958434	9.390444731845605	6.707035524600787	4.045763959206814	5.782310471240913	5.529476628648056
288	-0.789059100543065	-0.8114668110387067	-0.9972994302365776	1.0944138737703788	1.8739526224507312	1.0480365726713448	1.6571712452056933	1.7835184290679107	2.379789823245759	3.782459964739147	2.6935970715226856	3.090345136469479	2.670131199771018	2.7498252322388774	5.085498320137646	5.616289124614179	6.127367004183205	2.736773007158916	2.939063541621326	7.295001011550155	8.179720857949265	6.605289442551763	2.019157642988665	2.979877702818939	8.403674104454149	9.769578909050004	7.080259305244181	1.2081358402267277	7.624288062873326	8.937937713945107	6.437357409436932	3.7335457707555877	5.5826382496075855	5.273498045004789
292	-0.4311930824360461	-0.5163854943589412	-0.6889311057816733	1.522695895165267	1.8589287949358675	0.8929400421486193	1.5155584773900133	2.007233137785007	2.2379007282975976	3.588058462620711	2.450282805932161	2.788771383873946	2.7941882539774574	2.6166629725195376	4.776661383966701	5.303093419991103	5.616342053538605	2.7307410171228756	2.896269075710695	6.919998628311154	7.723905067016348	6.169447883288387	1.9513837049807614	2.6844720772677695	8.006438235095745	9.30463693176928	6.746386510982148	1.1466850013392127	7.217001419919693	8.619526841335931	6.340008242812598	3.6179788021295196	5.555603490154358	5.17459391241148
296	0.07697971890802756	0.00964133904675295	-0.1519789393879423	2.062325949230383	2.1410524791066914	0.97675662986196	1.623564358426834	2.2483692112423586	2.110597605144886	3.6777181532512753	2.4372901854968245	2.6176407271099644	2.73069261815144	2.594744675760911	4.801589953697463	5.167932974165359	5.2445316182285575	2.7548072268552053	2.9348382875731556	6.783849222221792	7.412491779686136	5.929682716657409	1.984398479219917	2.3325917661902396	7.73053596452158	8.969459511045699	6.638991339134154	1.2362350194236675	6.888194543613619	8.373472192604131	6.318002684854241	3.598937025520491	5.54703806430318	5.128257261680081
300	0.5482235537039118	0.5270055519149833	0.3933674385152808	2.541762345572413	2.589610808510079	1.1773550480681136	1.8072932912973136	2.3783149659191603	2.0852589554591043	3.9622251887420705	2.544126981033972	2.4625792441182783	2.4873886045597913	2.7596192290250627	5.0829009881434715	5.135449873356257	4.925888525923923	2.733779185068696	3.077760211803377	6.845015508535869	7.219018917930956	5.7625884864274255	2.0530867524763665	2.114733452226119	7.573950748394703	8.733406998519115	6.590506537010473	1.360837694547003	6.615050775992694	8.129368761518775	6.246774657690324	3.5773379712384754	5.422187791486073	5.0188021533138505
304	0.8393741824892433	0.8280985334469719	0.7514418940645531	2.8292257714366036	3.0214772148141305	1.3480868305502653	1.8815196705044412	2.3254272879063262	2.1886544172341886	4.286279667522911	2.6251830988408	2.20793723502608	2.1432435458431027	3.1145908753914187	5.448929772924903	5.091342913170985	4.55866478722705	2.6126205855210767	3.3136570369982	6.999241334409914	7.075940114276082	5.531011567456437	2.0916287846208785	2.1841700021911894	7.513146858319946	8.539369561570048	6.434284193960072	1.4029937947137017	6.407247527158216	7.848796824666115	6.034922107718609	3.5096506983838567	5.141416536701788	4.7778787492285195
308	0.8891862012347875	0.8245993235749777	0.8252401927139846	2.8708512710568512	3.2672417081358955	1.3789911235325423	1.7398544506014915	2.101002926290326	2.369548076369151	4.484796512724829	2.5661215717377184	1.801701660375762	1.8077001526015233	3.5531010538039403	5.7036518906594775	4.938260542799425	4.094176282082632	2.3778531491326063	3.595169058305883	7.120029431486544	6.908706647596255	5.1634735930731015	2.0603055901961778	2.565003150185977	7.505927066925821	8.332570054951052	6.09450958620586	1.299395915565471	6.296462519961114	7.544488887812348	5.67354391572939	3.4234619054190896	4.781245219556935	4.421762932103944
312	0.7210931759748249	0.5732169136833817	0.6412734969160963	2.69317840849884	3.2342889227271496	1.2377161948425963	1.4021658861998616	1.7859144165725425	2.5255553658617447	4.444982517464021	2.3316664636870827	1.2876669135961825	1.5762339790602478	3.8901450535785966	5.7084431504130055	4.640516269411752	3.574771633659506	2.0670037217405457	3.850814571194986	7.108401280575961	6.670855505313471	4.697751987040683	1.962747568897078	3.1276714722822216	7.50176713956816	8.085542658418975	5.629129395577854	1.0727826329802659	6.306904300025083	7.271006088972797	5.249384389975338	3.3879592333132904	4.490858066664603	4.049277295379585
316	0.41553494229308396	0.22889390530016546	0.3177132598484859	2.3746602475293397	2.936169378496919	0.9716488098408289	0.996369776594363	1.486144777360516	2.5545484955187687	4.145328988099724	1.9724695632725566	0.7885509709476378	1.5004193744924448	3.946194161942335	5.435252175913538	4.235651959215675	3.119836560955567	1.7612992480632177	4.002319802669772	6.928086740168174	6.363228305009832	4.265042294224479	1.8457773877272503	3.6438102630170603	7.455812912236673	7.8075766366293164	5.202779279924548	0.8229315260137283	6.4255709485902255	7.092530232642399	4.910428034782536	3.4578368576485854	4.408143032388575	3.7980656527948393
320	0.07182758283361784	-0.043692540267065406	0.0002187550411624543	2.007066244780057	2.479072564541725	0.6772686822004308	0.6914231163687958	1.2833247152352583	2.4050104557351832	3.65842317611188	1.5944365222729577	0.453329174566132	1.5805615146785943	3.6429369357640162	4.969422327846481	3.8129200839096793	2.8701968120588695	1.5642698963725585	3.9845950502883754	6.613317472927002	6.032845481899877	4.024880399078876	1.7828917458343243	3.8928666016521696	7.342914562759751	7.538508873026421	5.004130827667298	0.6804723126397302	6.593334658188636	7.04823539861727	4.797683226870168	3.626991501233962	4.582551467769769	3.779186239237769
324	-0.2191655183265507	-0.14759266339231797	-0.19895182499722955	1.6666746097446878	2.015102381386965	0.4575825918088874	0.620438574178172	1.2066937654546728	2.101441854893344	3.1197340409668124	1.311889645125297	0.39768224854199985	1.7754753783222261	3.057631723313547	4.464074600393113	3.4760112674690324	2.9233441279036896	1.5700367649493072	3.763887634311184	6.248403056581476	5.756247029076492	4.087211121730345	1.8458105279096617	3.7649922275853727	7.166440468814436	7.333387356362906	5.151823984490453	0.7453349213855747	6.725104791828116	7.134489518272546	4.977106081794367	3.8214473627882963	4.946751105216953	4.0230431455129585
328	-0.3865673532262818	-0.08036430904840806	-0.23027470649754597	1.405394789008482	1.6871923165639182	0.38947680494203485	0.8313403704634758	1.2375599114643898	1.7332465604890854	2.6801295212789777	1.2095580070474778	0.66441261600593	2.0218975492927824	2.3965372978738855	4.074146260465723	3.310771456942619	3.29299306038106	1.8289128495770801	3.352758637546451	5.932289585394723	5.6159729815790875	4.4618019945028555	2.0741755910003925	3.309861651647065	6.957931500987599	7.244779091663525	5.636113152579264	1.0391541693200526	6.748354417929084	7.310468178411739	5.405099855127848	3.936231841639729	5.350895391305961	4.46228598421721
332	-0.37411138320882564	0.10153610233659108	-0.0945241970417563	1.2625483242583557	1.592890497000677	0.5150494562496739	1.28715407523383	1.3431556190911578	1.4192783796716715	2.4669694838227705	1.3307884897965152	1.2206711738285019	2.2601890506900557	1.9041521501149634	3.9088606735722378	3.3731141005230123	3.913618077887619	2.3247947634175667	2.819456331764003	5.7502150390404525	5.681660160978673	5.061133371926457	2.45725726460901	2.7133579185644687	6.771390420983717	7.312145691530062	6.325591548207884	1.4952335319914998	6.642252905288029	7.524107914047887	5.946084007509554	3.8971791169000705	5.640275464122711	4.960618960253961
336	-0.13369353081804253	0.34857457788198826	0.1900290394992038	1.27891802464885	1.7730536416111164	0.8488328435447693	1.9036978435136322	1.5145664176848765	1.2664549318763612	2.5593070919270424	1.6854679541949198	1.98370992636521	2.4583439764898114	1.7561783746249138	4.013471116423356	3.6907119657795042	4.680085170373863	2.9760687276088293	2.2828080596508924	5.757667050130036	5.995473369720062	5.749594673899196	2.936428062654591	2.214358801019389	6.669846041052104	7.555611114499355	7.031890851386807	1.9916408011697104	6.452673895756904	7.739423255453731	6.434385283437356	3.7086889650169534	5.73192547304659	5.373701082013763
340	0.3639221480241323	0.664082406274708	0.6102615579456269	1.493368264242608	2.2179787102967485	1.3847984040583465	2.594601386195233	1.7802007153387993	1.3360888924244294	2.976487152214096	2.2609827461378806	2.85451602215095	2.625512116479129	1.9878908345577793	4.37762307015484	4.264509667120111	5.493949399428672	3.659251203835009	1.8842523050419147	5.9751310197653185	6.559137804637278	6.406423075713764	3.4266047391208714	2.0012125918407344	6.705736143347964	7.9697961606032965	7.594279270071893	2.4086563526375993	6.27195213641704	7.94804475684962	6.748581392415816	3.458559742778596	5.649558529895171	5.61122940554126
344	1.1069636316961522	1.1017209263642351	1.1555670470626371	1.922261948500637	2.8774011062453924	2.0930752701366355	3.2985188877749456	2.186155552112934	1.6308048922372886	3.6736810114615412	3.022689573285801	3.7418639565408607	2.812279455714008	2.4909880098393997	4.951441275493197	5.060705172159471	6.289654715870637	4.248106945756494	1.7428388551578604	6.386141760915116	7.323021870244057	6.966846925312014	3.8467502496873034	2.1367008632119164	6.899926168187271	8.516765572979656	7.93968961618468	2.67826198855359	6.192428096395651	8.159447649382285	6.85851095375326	3.274845353441405	5.499392018738661	5.6674322938881305
348	2.0207211920264654	1.7132323937076461	1.7936464502825742	2.5324172909695424	3.665415516182117	2.907564632704271	3.977850665539778	2.751902334894766	2.1006448215854197	4.543650615664616	3.902996053378304	4.569603431608613	3.088146678757134	3.075396530016132	5.65519665243953	5.996867641567128	7.029422742262179	4.652995097810422	1.9092603873686067	6.934956533089062	8.182557085359095	7.422627430295312	4.1461510553583905	2.5429823334385957	7.226953011386266	9.121561027385312	8.091131189899006	2.8026215959361456	6.25744102805524	8.377513864346858	6.822916490494739	3.2578160680534918	5.403406606383345	5.607516751436863
352	2.961735956343747	2.48077201216927	2.4475979743196765	3.2260374941438568	4.464134681874896	3.7194671536951858	4.599446761916566	3.427397719312961	2.659265273055898	5.429492936731301	4.793246733961448	5.27300213436151	3.497789850940658	3.5591978936933324	6.380581839664505	6.9380178276369975	7.6780385777217495	4.8450198051197955	2.341157668878574	7.527098636696587	8.990912414739093	7.789763907792453	4.3163366208772	3.048178188257459	7.614445667115705	9.678426718118033	8.128265360337478	2.8370456623928124	6.435668929063998	8.581174828798483	6.744176370759456	3.4254074010196462	5.431053147909003	5.5224003652381874
356	3.7439110184558584	3.2836201108045047	2.999342433986226	3.8547725580166583	5.137495027922626	4.3928270229057595	5.118674742173024	4.081746567911133	3.203017226715405	6.155654891685028	5.555025086682917	5.79537771669132	4.016982545247498	3.8394567869524217	6.996224385717579	7.717637042587594	8.179957369179135	4.854907500407331	2.9159247801593597	8.04091356154679	9.591311430557216	8.067955950394529	4.382732380292087	3.4672498615463287	7.959908465315761	10.071553204857418	8.126571634755816	2.8482530045123435	6.632356626931667	8.722611405284653	6.7062334845027145	3.7030255701032737	5.567830071696975	5.477703557489708
360	4.198627461323313	3.9320762058164807	3.3315265094567463	4.268263806057166	5.567208752881405	4.8085837242791705	5.486189351535666	4.541262138345206	3.634327879312974	6.581674082351376	6.060125335651803	6.096337303028638	4.539060104354184	3.917198648099526	7.376279335472144	8.188701608964188	8.4617900634749	4.751572596951187	3.4806787879803194	8.35952089106465	9.865418409235279	8.222381571037356	4.38404272879952	3.6810884382769458	8.164799669632444	10.209670041056556	8.112868288537973	2.8744003700163963	6.73368023125959	8.746432282299706	6.729786855872691	3.9626378913014535	5.732857212851366	5.483656392557687
364	4.245362747917964	4.256603230219906	3.3887419615065046	4.378743637473788	5.700217709454769	4.917599188786648	5.671272740350602	4.665548789642741	3.8879194161483026	6.658164484379936	6.24224661204746	6.165024741820063	4.908364760404201	3.8764099976898123	7.447276573452073	8.282802560875043	8.460914590454651	4.611928928175335	3.9146985908853793	8.413964250302193	9.777604078402302	8.19932554082213	4.351847637633246	3.6769585516601757	8.172146776547489	10.060112927786692	8.05937192789423	2.9091453478797233	6.660380346648512	8.618213631805556	6.76735208710109	4.08679865758954	5.829379067008307	5.498474107211438
368	3.9391722579683646	4.205522049776365	3.22298120638607	4.211128701068361	5.584513173308907	4.774089324341847	5.687075123733557	4.4249987490513405	3.952496280227815	6.458138449576116	6.133915408860276	6.030849441560679	4.9921584003293615	3.8328249357728765	7.232744198658022	8.047279337592729	8.16505143965134	4.494853008365943	4.172191609339276	8.21867368530453	9.39370629799948	7.964905241883955	4.300189484229735	3.5346279055046335	7.991340617030835	9.666113829049998	7.914323786780948	2.915050022394845	6.404434664769077	8.346237161544964	6.737661344683376	4.024430264802669	5.80045793976199	5.460140214485955
372	3.4658274563069997	3.891202678392821	2.9901730938757094	3.9082708260090295	5.365315423770776	4.5246047859397525	5.597879872493909	3.935530414181783	3.8788926503477286	6.15814779634182	5.8632497639442755	5.761895642038305	4.757352816968331	3.8808467290171116	6.863001329260722	7.634962062632754	7.637135009557199	4.42880295588988	4.284102429064053	7.875762442731578	8.860654808561614	7.540633182560852	4.229209412387458	3.3719804201822465	7.696634750007562	9.136459327518596	7.646433334118684	2.8549451755922495	6.030626281771203	7.9831952847149745	6.5780129266599365	3.8084635638403643	5.655631051089556	5.326393590830714
376	3.0791921537858458	3.5527112394280933	2.889003746368076	3.6802840139930884	5.2344097958969344	4.350410450442051	5.4971332411259555	3.4251253518412814	3.765726556807152	5.969360813328471	5.604911790048177	5.445908055861	4.308503140062017	4.058091153389559	6.533171637252885	7.243813496420602	7.005173188642984	4.415414799032813	4.318708408896114	7.538187484782603	8.351151445284998	7.010004979554857	4.136417855309722	3.2792324937043764	7.396498661440382	8.607567765438391	7.273054581399265	2.7179906299632948	5.64282129770393	7.60533950792849	6.282693847052762	3.528504124315871	5.456005082660458	5.098192678931279
380	3.00514983372132	3.450335017076095	3.071502200954919	3.7197260762714364	5.351572500068901	4.390869606376278	5.470583901898553	3.1424882332616586	3.7227463628238695	6.048220142353003	5.509627328313649	5.166985975571558	3.8580186269629304	4.333366859939427	6.424091322892057	7.036849957819599	6.422377093312645	4.444645393594023	4.329038609065345	7.347252350376973	8.000723818606266	6.492930395899407	4.028184403739724	3.2777991212104367	7.189362507788546	8.19667051153196	6.859267217484261	2.5265142853844704	5.336052404282889	7.282621365280141	5.908264622076474	3.279874793354854	5.27217100719686	4.8170304176782555
384	3.3513660346294345	3.742228260128808	3.5682608991178384	4.116505612470592	5.772155747145458	4.685361850353216	5.564671502369012	3.2457823671408805	3.822521915321594	6.4276304082713045	5.64636801247769	4.989611613073828	3.6342875865732074	4.617381561065621	6.6211356949531615	7.08127639890006	6.016346916267704	4.5090546494128505	4.321411121901986	7.373267631988536	7.866769770787729	6.101236804816805	3.9221537014164833	3.321412078101057	7.126433354505044	7.967851141839897	6.4910492733150456	2.321267360548665	5.15980003961558	7.057067853276367	5.547130093874482	3.1207690160160793	5.144544111614546	4.543282974216569
388	4.061479081390038	4.405478466355263	4.266660202698177	4.811524379026385	6.420309527399896	5.162604795773049	5.774846062385247	3.7266833688106336	4.066138734088234	7.00735233445047	5.98492096343567	4.952197062387041	3.768361797355308	4.7976636765467315	7.077328664077264	7.336277466371479	5.850439056884334	4.608739364432167	4.265540112216386	7.592081050778127	7.927524069798158	5.898752674468653	3.8386850260138186	3.3360409652406364	7.200388413369839	7.925467947977178	6.239418967706454	2.1359589045956255	5.1096563210226975	6.939180356625761	5.2858247623503765	3.0585768145587195	5.069484697894141	4.330379475150827
392	4.936683642321229	5.242865549202002	4.956935393216142	5.615183816084254	7.12168739428143	5.6811299180600905	6.057700618708462	4.41163967926085	4.382980812450883	7.6071400450333195	6.4247522191916575	5.068777071553154	4.222854126758972	4.7894186852650575	7.640291194699377	7.693274478562189	5.916434273087342	4.747384536201262	4.136564721154079	7.90953252702742	8.119485834602807	5.889515385063264	3.7910718822131315	3.2750189221665527	7.3648562245390705	8.037137964937669	6.13961790442083	1.9832676599020933	5.1498188842452715	6.923557264013839	5.174237715055202	3.0679652613428776	5.0168528430160375	4.212158192490323
396	5.714817986364928	5.97151897830105	5.424385057105526	6.284044249881384	7.682160358106851	6.098751052717368	6.3576016265572415	5.0413999430212	4.665540683411072	8.057407358807392	6.852104169711819	5.333631978873962	4.805411326673655	4.583625781884488	8.132483461828294	8.043977717117667	6.1592092358533	4.922052370995864	3.9600436587487993	8.221637705072439	8.389722802914665	6.037296279923308	3.7809560203459713	3.1570658604068607	7.573285560560689	8.270631769279795	6.193880065538714	1.859571452214213	5.251008974169235	7.011391145170253	5.218568788704263	3.1250991742387892	4.966116415837005	4.206555355895582
400	6.168532355946949	6.346236212920165	5.539806828817287	6.620854361030531	7.968658427146696	6.33054350208332	6.628125174000456	5.390879140594661	4.823863970975211	8.274844148724727	7.1891112146068075	5.71999166951837	5.262575613086565	4.268038262081905	8.438024499570059	8.333843210160241	6.514466746095277	5.115138040979561	3.8209371470303073	8.473139741485797	8.728295304196083	6.29971931774342	3.8026654624298324	3.062008134740486	7.811168174095835	8.618825890715142	6.388661845289857	1.763022179920745	5.417930112511227	7.22099493110956	5.395040498463793	3.2323150553157514	4.935684191640158	4.325216282414839
404	6.184816821695629	6.25986431448711	5.3051404819061005	6.552402956631822	7.953940371458758	6.368076308385043	6.838277322670312	5.370336995871134	4.827152240009878	8.285264947953786	7.410775642758096	6.175596221590736	5.40792177742297	4.001255025298192	8.549375512472519	8.572774865440785	6.938194257385087	5.295660959224956	3.8212313555561757	8.679958321591071	9.161848045105861	6.654423696883277	3.854302396579857	3.085499040442896	8.10074422698411	9.096844650189414	6.711057169182919	1.7115681128204296	5.687353119796087	7.576652984563417	5.670782551753207	3.4151246461475364	4.980723368467363	4.576441276439981
408	5.79060266940113	5.772264466017253	4.835563647459344	6.149480327339045	7.704517821887074	6.2546186289229615	6.963450891079865	5.05584286366955	4.706959712542338	8.182645777070297	7.525671463085688	6.621020777198324	5.214356886096489	3.941586246075673	8.546320893644783	8.799909569457169	7.410222511655977	5.427997575406952	4.008975495707167	8.900047279775634	9.710876440326144	7.097544175348246	3.943435420570516	3.2776505864360317	8.472040155001757	9.710122083943771	7.146941166953266	1.7405980781478316	6.094415172448774	8.0782480035912	6.012271389086831	3.692416897034355	5.157588468881417	4.951418387309661
412	5.124779211456929	5.0640396943983665	4.2943072210609925	5.583043561191035	7.328570824240058	6.041561111455509	6.976508599787132	4.6363558652169345	4.521336067228523	8.058346728006681	7.543734531429975	6.96310852200114	4.818268763774983	4.158075798980628	8.529792764108874	9.033676124653098	7.916842440644219	5.484943376044427	4.325680244968599	9.175513244351146	10.342551205271846	7.619465808704593	4.082151402657425	3.601461878266802	8.92020032537905	10.416483852790261	7.664221267423383	1.8806903314791303	6.628438456012605	8.672587372818176	6.379593356238046	4.043361176772695	5.477481351374546	5.404197679226806
416	4.379023540884947	4.349668014988603	3.818507661715396	5.0411600939312295	6.920317155532029	5.7594776008151625	6.853807908873777	4.309847820844754	4.3061966787336114	7.947038153611195	7.459371547939358	7.126086217054748	4.439261902091502	4.573761451617646	8.554128625253487	9.24370191147635	8.428843476949197	5.460942254584028	4.614488113196949	9.484585738077648	10.953367205621774	8.177240351058554	4.272336949052253	3.938585986683834	9.378254866764077	11.110105486476048	8.19647500829759	2.1282958930640694	7.207173806113938	9.24840066482142	6.716865522592326	4.3953194507253945	5.8790092319831	5.843584999589628
420	3.7315022851192676	3.790696134533416	3.4714043052766845	4.645736205769423	6.528557760921761	5.417895303398766	6.592755301042882	4.182949055601179	4.048428525240126	7.8179955285097495	7.260267716197174	7.084092599149297	4.261668194501553	4.982228743372009	8.59565637325655	9.361567473617733	8.889488197771044	5.376373277441587	4.694493281909751	9.734388326863462	11.396079034643193	8.683409668933432	4.489275444140523	4.141789425883319	9.725547765972696	11.641838044337653	8.642007805939818	2.4274570880637647	7.688882331509069	9.66371724549892	6.951489430996539	4.644684303001083	6.239546283227373	6.149347766609399
424	3.3023059284758336	3.4518375309577998	3.242834321417733	4.413491237941479	6.165448650052635	5.031862723044059	6.231961711408143	4.230394352722601	3.7046973611757132	7.616325359188596	6.956712228377152	6.87969778231305	4.343820560932321	5.141990648638815	8.577470757762914	9.325540519057812	9.226193404745652	5.271002756162212	4.464945781878951	9.804070447964387	11.542709321443398	9.027529693699378	4.679176318752622	4.10853051101978	9.834854101145943	11.873734444203832	8.891232468091347	2.682694189927898	7.92409942533659	9.800108884864038	7.014780503682204	4.703992831751489	6.427191241249709	6.216920836964917
428	3.141924373323507	3.3138389503735954	3.0886011045677546	4.276434410742348	5.841577991995818	4.651453960119	5.856916889662169	4.332123268633973	3.256013385181456	7.323487263309288	6.606923563488799	6.613713724604469	4.60412119656663	4.903887736337135	8.430879571609584	9.128984428245476	9.379453635376773	5.188555704368418	3.976178397630182	9.61411378340492	11.349587411835769	9.121684051371817	4.775717246395843	3.834911098334748	9.635111784450537	11.74103161708526	8.872191406738054	2.799855463588393	7.822815875329855	9.61698338941574	6.875772458836632	4.547073829614713	6.365363581798875	6.009273513880777
432	3.2422778524555147	3.319119206631626	2.9769272729100065	4.143042553931913	5.59187315482719	4.364616383023372	5.578300938827521	4.358535755597318	2.760103218739417	6.990334493154324	6.312153323449331	6.404516680760081	4.882124411654534	4.304480541805571	8.149036386896364	8.837050415615838	9.330434775637253	5.157007204387035	3.4211075219564058	9.17887971467956	10.88496873014749	8.943403221438633	4.729421603659945	3.420863381332022	9.154272056355458	11.285986871835211	8.588135697616359	2.7327036788610846	7.402674179460679	9.1755237347686	6.567634565937848	4.227733601386546	6.076077445902055	5.586514458856833
436	3.550618877983181	3.4164931687881244	2.9122755453968447	3.962681998738476	5.470545754925992	4.264639843663971	5.487934098693127	4.250460137126286	2.3564391076675064	6.71921823712496	6.17709396710087	6.33463047335596	5.031485068015716	3.5594065099495196	7.798394183496982	8.558335282652534	9.111248947028047	5.173476206115474	3.039792291595892	8.609878518301208	10.30114171288372	8.551500298844108	4.534991729730667	3.022840969083148	8.516365029767776	10.64311883146611	8.124379137507933	2.5095608171045196	6.790502531073402	8.616978623568928	6.186822875615126	3.858843555244539	5.675919041608402	5.091519342919075
440	3.980339755499314	3.582170000568927	2.9253635332635812	3.7577643299595787	5.518873200787865	4.4010853656278295	5.616052136547149	4.048773278504637	2.209474081183089	6.608705503944505	6.257801040108775	6.414121611613517	4.990845667636142	2.954662077119663	7.486143093281923	8.39010045794301	8.79371545478775	5.203510271286228	2.990635625917999	8.06988809455469	9.767330145017596	8.065696695944666	4.241724957247217	2.781519167553145	7.894572238063726	9.983853314942118	7.61818073256648	2.2257947865557015	6.176413997314989	8.106039026775429	5.861654743654114	3.565328350602293	5.327839361090735	4.695840346878273
444	4.41811989622447	3.807238807602612	3.0377747935846284	3.604439249475105	5.724082455488267	4.740570533227743	5.9090008586468805	3.8573343656426364	2.413887733087038	6.691384775433758	6.524317248084567	6.575794203368419	4.7925362465975185	2.698238127571759	7.301182728453493	8.366480806208209	8.457812287911214	5.19411228775893	3.261522761693425	7.699960689177632	9.395969367146598	7.614310722200274	3.935568561154343	2.7615675856485615	7.440431099226192	9.444751715656247	7.199324589672574	1.9992984482832503	5.7381520126426855	7.762407283258251	5.6974596833386855	3.432728520309634	5.168797956768155	4.525520790118348
448	4.733569133251524	4.065734376179099	3.2255973734479464	3.5753464608522685	5.999982341876647	5.163363920526992	6.2402057490155025	3.7653839493098475	2.9157338068779817	6.906139833180128	6.862174016793328	6.703409654858965	4.5136241798883745	2.812596790841991	7.268251400716812	8.440990426686595	8.155350664529347	5.095343100081052	3.6734242346524972	7.560810546859274	9.20184323848633	7.277290802702046	3.700004329876527	2.9319453165416416	7.225829106207219	9.077297187775388	6.932061177871763	1.912491674363012	5.5714278080465345	7.615451793516973	5.726489052619642	3.476627102657297	5.248069749933491	4.603855121433024
452	4.802967059406877	4.29066227783289	3.4081358823559773	3.680171242005458	6.208386405528945	5.50353954833024	6.453590853609814	3.7806458377753436	3.506309738843342	7.122664433616122	7.116551381263392	6.680648310006764	4.212756623122357	3.136183253953236	7.339995842521759	8.513366677724566	7.8897800246358845	4.882904517243384	3.981091250858745	7.617954711754062	9.114068961974539	7.055747968025792	3.5770099072744603	3.194956294576333	7.226354103917075	8.845052696784599	6.79033611490561	1.972812886025596	5.660282597556084	7.605274181237982	5.892007336045742	3.648083916036666	5.510179028904298	4.844038951087849
456	4.545041072814425	4.378263462456689	3.4712731750585095	3.839648952326692	6.21462248186818	5.61362885011528	6.419084055906408	3.8158187769870775	3.90306662527754	7.204811078001007	7.15670059304557	6.4351534680972815	3.8980214497379095	3.43455337610947	7.428145866713264	8.483505227604645	7.621231059859804	4.570532310390447	4.013790120481389	7.77318284933212	9.029710746855493	6.882990819719287	3.548288813215504	3.4417977246171807	7.349883060972138	8.66548059183026	6.679597360912737	2.111762518319435	5.8975577205532135	7.626639346894489	6.076326354898009	3.8667271039612072	5.8294501157447	5.095077501784603
460	3.9576663871025795	4.224139679734242	3.3149838363875506	3.911829938548872	5.947546467070071	5.420664773606617	6.0769176329726875	3.7371103669227357	3.881578435634527	7.075133782643596	6.926890355741263	5.959415897582095	3.543523302668454	3.5467355161765792	7.450740795397672	8.299381235149593	7.293295841876725	4.205044258945051	3.767383565927724	7.918727377925836	8.87486169481725	6.669811231939642	3.546352139102352	3.600412121265668	7.489435177013846	8.468858697490257	6.493291361627255	2.2213625851813936	6.140132888550389	7.588422279272472	6.156691058827187	4.0583109753189355	6.071349605490408	5.214219556995273
464	3.1349434773450384	3.7757334613839375	2.9024960921439478	3.7599680328806504	5.432619557969745	4.949032294176037	5.457740769911935	3.445776692273761	3.3896877680074127	6.744962198394192	6.461330397505068	5.308177457759029	3.136987201399937	3.472672215277145	7.366627197740166	7.974474409950616	6.87095640355094	3.8486769102201586	3.393264523522064	7.982625464312361	8.63955686295284	6.3610524970624445	3.492414704088384	3.6523761657053946	7.570240001638934	8.240531900581376	6.17581318249717	2.2102217618452635	6.269515975381931	7.456986408480048	6.062450393629331	4.176027287430178	6.14948271152483	5.131266580977902
468	2.2468531075016798	3.0718057078053493	2.2860109748344564	3.3272278224863983	4.779497611376532	4.303276051146991	4.67463825952946	2.9442443773321223	2.5813567573224225	6.29708765347394	5.8612952084377365	4.5807828787544596	2.721539252085683	3.348701707014701	7.182053071008905	7.571517448382536	6.372182829981121	3.560165873122041	3.0959496419942694	7.945252398458233	8.372652986368408	5.974712356741473	3.342841616773759	3.617974510595107	7.570349674185044	8.02593038439956	5.76050613856281	2.051883930747836	6.232479556560644	7.264979344145483	5.807515129685578	4.202731598733605	6.055732234924369	4.8762345190912795
472	1.48290884120383	2.243210310040784	1.5933079679316298	2.676200383105304	4.130711068214756	3.621615639125953	3.8889953991930715	2.3461253583801915	1.74572145498121	5.836394772099236	5.249224172690586	3.8954563042518324	2.397805923130082	3.3296475326395907	6.933697682994585	7.16592500784772	5.873318657351471	3.3806955729007213	3.002030603458809	7.826562861709555	8.143723467293078	5.599422917533959	3.115416518928763	3.526957264578565	7.509556751364899	7.896360854239631	5.358790384114398	1.7969689323832556	6.0454058494523935	7.081646901371049	5.478618607993989	4.137580384298487	5.847702488440317	4.555033672276501
476	0.9798272823391012	1.4706581793847844	0.9815704201711565	1.9699867914053508	3.5996405987456432	3.0256638450525837	3.262818328248992	1.8237674190251907	1.1677012414060859	5.440071092222172	4.725403773775069	3.3635702048256726	2.2778751792617355	3.463615647154259	6.665025217394841	6.814631444891877	5.48435495899269	3.3281295215502835	3.0865795534406564	7.661222915380172	7.999758223363343	5.3522829874328295	2.8823892997447613	3.399775019645153	7.422202091551268	7.899830321393957	5.106522070389742	1.5467048844387565	5.770433888171533	6.966780168110033	5.189115988027892	3.985105504464943	5.608368382599264	4.291203964843242
480	0.7693663220054433	0.9173901653969778	0.5801753387108267	1.4044526779955406	3.2312023558098937	2.5892853671504272	2.9133577273246547	1.5253866872422137	0.9984405611579213	5.13585613861402	4.347015369884216	3.0682439726611435	2.416963332749683	3.6508791354509955	6.412443621658037	6.547197802226018	5.3057560786757865	3.400092354773136	3.2065396227941583	7.481007080263884	7.943680743188763	5.320143209376767	2.735182516821745	3.2520518220811065	7.334796886998996	8.027589777705916	5.095954405316325	1.404168840677837	5.4829597334713105	6.9373550239887685	5.025451647468204	3.7588605785835196	5.4057359558952855	4.167721737829565
484	0.7725360970065956	0.667567370636637	0.44614934808622764	1.124547121069788	3.005197755855598	2.334349626369517	2.8811685966228433	1.5085499248564387	1.203996655285396	4.917001711828928	4.131813515721738	3.045383684098865	2.769592039745123	3.719654789116465	6.206778510635543	6.376636012190336	5.384549127335496	3.580075731775387	3.2164428152892968	7.312912445678517	7.943222502680887	5.5133542875327555	2.7384970119000465	3.1127939145652674	7.260106545238108	8.214566210034139	5.3268151148775	1.4267452919224115	5.246028410064378	6.963428002896329	5.012385832529269	3.494168749570406	5.272260652582376	4.196796406640436
488	0.8421652295784491	0.6977962237860245	0.5500321374357653	1.1635264128872684	2.871830456158749	2.2443757000524904	3.118879071944313	1.7228612856282208	1.611353631719687	4.773115146030097	4.072207440585363	3.268399707171668	3.1988532462419093	3.565881243285834	6.077459796820196	6.312280162133093	5.687971100751558	3.838963975750663	3.085311881858774	7.1832403955298325	7.9566926755289575	5.85332869005575	2.8953123019551756	3.0315301341765664	7.202136975224556	8.368769624561805	5.69820116511782	1.5994123180062447	5.096111761578134	6.98893211507559	5.1073737015521425	3.253769151102039	5.206734644141856	4.323989857247038
492	0.8331710079138405	0.8925010539409569	0.794025538347146	1.4306589328884827	2.7920639444430257	2.2808382453553286	3.5043053538538955	2.04333733996436	2.013058657332066	4.7094106555293145	4.144159783390762	3.6455745604979573	3.5336320311022407	3.2514467157288744	6.045814975733099	6.3580021697691205	6.107590183096663	4.131787289678103	2.9323506281250906	7.112606507463537	7.953380564636441	6.199289306247713	3.1405005375727075	3.0579941195528666	7.158469658898037	8.408340432872544	6.0441059913624136	1.8394403411200198	5.035613047283857	6.959083539558909	5.220749365023221	3.1112754266388034	5.187815653100755	4.456345070078156
496	0.6692287905009114	1.097998139470253	1.053505537234258	1.7548192695181766	2.758924954124472	2.394761317882642	3.880010595062313	2.333107227156956	2.269849294653703	4.740663516473358	4.307497013660749	4.041742314624683	3.643392553667529	2.9820303841642124	6.107374175864543	6.496005518724895	6.49683426170376	4.396931160316052	2.948921196167971	7.1001457988768335	7.916605929414347	6.403806193396153	3.3672518645148637	3.2027196803294373	7.11431596867138	8.28742883497225	6.198218329993093	2.0299129434833607	5.029461847958568	6.8393516367850316	5.252110468001903	3.1130692880234343	5.1878266203553665	4.500347602926045
500	0.37553846741275737	1.1910169094532985	1.2243066995227534	1.9622650096941947	2.78948902379523	2.533787244121601	4.108300198672949	2.5009019311705707	2.3538610875781902	4.86647604667329	4.503665435864446	4.322981346659984	3.4918761165195535	2.9654731675617283	6.218018039263172	6.670994264926158	6.727219087782251	4.566226947699901	3.2507553018512256	7.107900124723955	7.831937293306093	6.371777518397671	3.473454228214624	3.403398028364033	7.032684785253211	8.001170138185218	6.059118732413378	2.0657253213226308	5.007135855430707	6.617664797287364	5.125622259550503	3.2377636350902033	5.176551328940962	4.391554344533729
504	0.06350541843831611	1.1317458124197162	1.2587764231372027	1.9531786392489958	2.8985624240172827	2.651948206881745	4.123327244838623	2.5285186703739164	2.3212113321827177	5.051531302095963	4.664580810214033	4.410457123111493	3.1466112057396525	3.248007289315439	6.302508338274707	6.797456724171079	6.740877611307336	4.588518607952458	3.7681758308640783	7.0650567830047315	7.679460506123921	6.0998711431991595	3.408452025391068	3.5317838102817114	6.857570630879658	7.578711013733026	5.63225553997914	1.8967912149223662	4.880315768318035	6.299320681880168	4.816728579757875	3.385667315518174	5.121934400978271	4.112617005455263
508	-0.12309801547442467	0.9777898763765327	1.1781022518931314	1.7422561601520072	3.073630802023764	2.72348951605781	3.957137336276889	2.4622433123411724	2.2454266491465167	5.227768884811407	4.735477912390992	4.316625584194341	2.7430519988422817	3.6449568179610647	6.285705550536369	6.7945227451440635	6.574717981905072	4.455951679423632	4.25194357752171	6.897807580698724	7.441644172953598	5.679272637333578	3.196629516160243	3.4484298142153045	6.5372814967090624	7.074262124320602	5.0315465800089685	1.550466891188902	4.577273834116102	5.9042620509806225	4.364459980435876	3.4142055425274207	4.995077120567354	3.6997790243198447
512	-0.07502534221542159	0.8531401135839433	1.0581722232805204	1.4446248971705438	3.271339885081725	2.756644480421123	3.7274930383032183	2.3792002141011293	2.1590452139703213	5.3249764308001115	4.704090583368674	4.145132531191041	2.425167554454433	3.8279552363070217	6.135868057018188	6.635320169862418	6.345977290343915	4.219061840849358	4.401317108486131	6.575682146636524	7.127304059153724	5.262186513966453	2.929125301595148	3.0822646540069703	6.062600120496628	6.5633358789675	4.440905082934521	1.1265686721968862	4.084112157047007	5.471176610484703	3.8653676412266025	3.207483045109281	4.783106791817859	3.2374288954059898
516	0.2337474221050044	0.8874768592362345	0.9976896618449368	1.217790838981648	3.4384896668404985	2.797157280535513	3.589264383790762	2.352384084484385	2.045573944649265	5.311153398455861	4.617346275116003	4.047483910832111	2.2959799708572604	3.5343243986542032	5.89165495338672	6.380101664647407	6.202726825312521	3.975561370349025	4.047774304660724	6.1461829983983955	6.793785554899342	5.004827963590831	2.7254204681250784	2.488881343279777	5.49698160691003	6.139652713533291	4.049000729828525	0.7628335337452646	3.471808424767241	5.062334047887781	3.447081318735311	2.7452971865960127	4.503272998884235	2.8380851673950707
520	0.7340123038833388	1.152606841991986	1.0790252658304107	1.185365554677833	3.543418875331071	2.912034504213982	3.6657884028388903	2.426304334236719	1.8760620308240066	5.216053472701092	4.568380821138066	4.151439179429512	2.3947853981590703	2.760303251926778	5.651332840956366	6.164615615539358	6.257955058510485	3.8305170439330003	3.2755069649967417	5.730454430417248	6.54366968410138	5.007643687002911	2.680071585564402	1.8447453929102147	4.97313927348529	5.900746330622067	3.9796402353899962	0.5818890318484373	2.887452118259201	4.757131087690326	3.2260515608399882	2.1319775527532605	4.2082362068740045	2.6082532340001205
524	1.2879719701673729	1.625257487962049	1.3361049856784781	1.3776898349310913	3.597470989681297	3.157111875192511	3.9919917482677474	2.6050276690515997	1.6554093319105811	5.12099074024457	4.654580104520288	4.4971113091414905	2.698166601998209	1.805405731411332	5.525959000940873	6.140770896666454	6.537054522222331	3.84591649991829	2.3945417343718436	5.474986539369127	6.48709820063215	5.276007162124919	2.819132082497244	1.3738334144238602	4.648416984266072	5.917598232587577	4.243659008756006	0.6415777190222618	2.505076640480099	4.62809180044898	3.260717622153832	1.5640294512361417	3.9750082392469057	2.607069247339292
528	1.7455667213237638	2.1951239053617755	1.7422873929857907	1.718990798424858	3.6529240515987866	3.5440828710721926	4.498059738246762	2.8523425983893476	1.441950198347646	5.118790613602175	4.925614344558648	5.014418589329556	3.1331736962368355	1.1279560299051754	5.581162438606674	6.396119578425325	6.963566285671859	4.0049843687030835	1.7757743552196648	5.481110558976468	6.683918936066622	5.717202172149925	3.086971990420867	1.2399492232488236	4.635351646164294	6.197270854562135	4.7316570162519564	0.9096133089941881	2.4531884131483355	4.7063898921397245	3.5191998392899233	1.2452050416025584	3.875229348889082	2.8144113946429514
532	2.0017604777341265	2.712807648485292	2.2203690949647856	2.0648813195547424	3.7743501567914826	4.023392190311882	5.039160715731932	3.100756875792557	1.3208354678184704	5.263269887987156	5.346804605336065	5.551736817648251	3.593070736396508	1.0850477191233108	5.799659237524016	6.8933582131867635	7.388542156638693	4.212961186262709	1.6399460989555423	5.7490548942374735	7.095550996031989	6.17382858624974	3.369517794684924	1.461800094728499	4.9412784451660725	6.65858648526388	5.251644598099515	1.274606463075263	2.7519919802802817	4.955142962342983	3.879646291474366	1.2889229026677185	3.9396433730794795	3.1262731473193215
536	2.0359394498920955	3.0576486510326206	2.6729583672748665	2.275169605232922	4.003372659112427	4.498077381221571	5.458915696666781	3.2710707105065993	1.3535268272558911	5.540353761036365	5.803303227077804	5.942689403788876	3.957152356647334	1.71833419365967	6.091191753267459	7.470081310485561	7.6515588567192685	4.339187611114917	1.9337568234258389	6.173170074135924	7.581854324271965	6.482298834646953	3.54499219953059	1.9050307225767344	5.456251607470627	7.145576459009935	5.601318345233031	1.5926928479991007	3.298873654619753	5.2737321720488755	4.174436081837271	1.6646219449930955	4.143345345526607	3.3920669470022604
