time	FP1	FPZ	FP2	F7	F3	FZ	F4	F8	FT7	FC3	FCZ	FC4	FT8	T7	C3	CZ	C4	T8	TP7	CP3	CPZ	CP4	TP8	P7	P3	PZ	P4	P8	PO3	POZ	PO4	O1	OZ	O2
-200	1.9198223303961397	2.2609531822341467	1.6463820892728502	1.3335059847542536	2.1888737623264083	2.466768020123938	2.4017081200043853	3.1468565384569285	2.578594201253347	2.3426356256466927	2.7052884033565707	2.9780545159491525	2.9621815606669624	1.912641997276756	2.852896921584359	3.08640574629693	2.9439117834151154	2.9218661711355702	2.3301105440437944	2.865578167356175	3.182135097098938	2.8315880227123778	3.565253010331487	1.7355536178639368	2.243518585262784	2.850879185154517	3.0613074225382757	3.131895772656078	2.7645530630885338	2.8530979084460344	2.763253204998554	2.3419239461898718	2.448180907744108	2.624539607097429
-196	2.2470309677612406	2.5707147056525135	1.8657925081830036	1.4614205323515277	2.3209989012292747	2.4301431117691417	2.370219463086206	3.071963540904316	2.5616967613393444	2.658864729844019	2.7060699394568926	2.9584374353102043	2.966109745166322	1.6544690090369787	2.981920473199524	3.032294027302079	2.971009723791646	2.6173028879842306	2.2645132484483033	2.7970278192473876	3.0332901401230505	2.723499529638107	3.4327649983521447	1.3160769906194858	2.1039915031718186	2.5185091431927673	2.9631879254868094	2.786612503645632	2.285169595670931	2.496052735702467	2.566445821004478	1.999627108293712	2.2365744057454044	2.345620149412351
-192	2.3758580624677217	2.659134858093459	1.998830671032234	1.6224523741767118	2.386013263400334	2.2774774970727982	2.264992708209666	2.850361340002016	2.3050970972990856	2.5163311894781732	2.5279035504413874	2.8030314374725864	2.870192282105878	1.5873275955178348	2.7347061565019026	2.7796182562267675	2.9289858267267257	2.276243442510484	2.356345886003313	2.4775330957803527	2.6873118809562784	2.4121222435132483	3.099067441745309	0.9797161196768758	1.9177311610441194	2.0462632127597074	2.6448104314786236	2.3081109465498995	1.7490473941512796	2.0450124688968985	2.142958635641796	1.6434785086145927	1.8982368659730986	1.8801928711150908
-188	2.2741610946458684	2.5129697259399073	2.001271958066781	1.7410647825152448	2.3527355134690935	2.045621628364965	2.107811684055118	2.527513497646962	1.9332703303164103	1.9994062134807322	2.214646572243638	2.567252391055542	2.6116957598550767	1.7436971620404589	2.2133402768520387	2.402605765952436	2.8217885422988864	1.868612642338786	2.5169408257833967	1.978491658937589	2.2532269897792885	2.0045812079363556	2.587005847121392	0.8180096128791823	1.7219977335368952	1.5670721491349537	2.1954083387259256	1.8105025245732076	1.2656897274486667	1.6008070666904675	1.6016803939435114	1.3366223539938222	1.5156015119434325	1.3567224706728107
-184	2.013275856657079	2.2104942742804887	1.8839181614041474	1.789431686651858	2.253130430254996	1.810288424689715	1.9298678587826423	2.207880252985819	1.6344997841575866	1.379429098461246	1.8764160824130784	2.319024556980719	2.214230531824156	2.069636578102917	1.67667889171711	2.0303540178535853	2.648029559125525	1.4109888041158183	2.62178730302723	1.485091563289994	1.8793770027394652	1.6363338190726948	2.008697504694151	0.8571233727749363	1.5832506378254914	1.2363895146625352	1.7535804465842926	1.4169619047629691	0.9480258798505748	1.2877386775883108	1.103254673079723	1.1386722297529976	1.1969078749001563	0.9342704987779735
-180	1.737886782073134	1.8881138515485836	1.708515639759899	1.8054670049860067	2.1616687720081313	1.6576133924595209	1.7639684632588102	2.0035781809766076	1.561044212214748	0.9779985522373645	1.6449307161762339	2.1093513912350685	1.7889752342833205	2.4378504691562983	1.4144873583367217	1.7965985491215564	2.4072911678571107	0.9764629577778932	2.5736145908228045	1.2167627780711578	1.6946101145874874	1.4063640797393722	1.5111209115976894	1.0540608141035839	1.5723106821417474	1.1661846608282498	1.4383536540909792	1.2067042558721268	0.8761145450406784	1.2003760307523008	0.7832805494559699	1.0901466580523929	1.034286377202826	0.732236025868872
-176	1.601481195221175	1.6831542210998705	1.5605705937085586	1.8721797419010082	2.159811968118776	1.6494506555874295	1.6386196571940599	1.9809193561131613	1.7535146430566269	1.0119280789575784	1.6170685250463228	1.9592770288591481	1.4802679978190791	2.702617161603061	1.6052403409483784	1.787145848530493	2.114107365038979	0.6854916793682378	2.356075996172452	1.326000567903086	1.7597434476292184	1.3350324597030976	1.2089954584115081	1.3241025175996506	1.736362452891497	1.3779772485274726	1.2937236991643868	1.1782495945746443	1.0709160539291924	1.3591217960375415	0.687225936108244	1.2013215988346304	1.0653198930546495	0.774898467491659
-172	1.6944659905567845	1.6751404958393414	1.508725162511636	2.065448278934414	2.302211040406348	1.7977850391774597	1.5723383386968532	2.128703111996147	2.1301555579763662	1.498572226555519	1.8128179265983067	1.864306206764637	1.3836903537147696	2.7759480406293444	2.2303044739680216	2.007611269650507	1.8057392790026532	0.6624745113813066	2.058176989127333	1.824880952996073	2.0486373849644064	1.3657438720553683	1.1344513864485297	1.5851238925967628	2.0783491082170285	1.79648041271591	1.277260181063253	1.2499703137310303	1.4871464930180822	1.6976590113693406	0.7535377125788539	1.4480686151183924	1.2561651436561856	0.9821796392438676
-168	1.993265504572896	1.8461444331288503	1.5652325113832508	2.392270320574478	2.5920605594041626	2.057561869194804	1.567297454691636	2.3568549096684097	2.5339741642871445	2.262392992029706	2.165836567178883	1.8082199051026524	1.4864761791846306	2.6755802563826268	3.081893674698825	2.3834593235874464	1.5356581172318446	0.9696354841546889	1.843695159071924	2.5719354087744315	2.4632244047916982	1.4075733387695222	1.2290123670066002	1.79158770585723	2.5473601753770057	2.2843675555728584	1.2978854146613867	1.300156113203017	2.025255436552371	2.089234823674164	0.854612407910823	1.7747923090948248	1.5141447744288	1.210930463594611
-164	2.362523788209395	2.085469240645341	1.6746629434266067	2.7619011332398826	2.9736943169855516	2.3437592924071615	1.6086949069415486	2.5331742699562785	2.8123531270547644	3.0291159076506795	2.5523173744611696	1.7778918698246091	1.6713472562554126	2.508324378356421	3.859304418356779	2.79177879582314	1.3565722669683558	1.5614558418905278	1.8698610020158102	3.3274712478550463	2.8737437652512083	1.3928420508504773	1.3833924497009344	1.9398949097293114	3.044911138476279	2.6999809673805912	1.2785621849204394	1.2326127259605228	2.5585229332223576	2.4007584988062214	0.8732303954965687	2.104008430890892	1.725762362891404	1.3275984492161903
-160	2.6152827673686034	2.2421941700592187	1.7410066083820908	3.013813726445417	3.3458323394224583	2.5670154029885137	1.6741636949232284	2.542419427174758	2.8855235503777172	3.5527579694694795	2.8451859879185246	1.7734377339410792	1.7915974810189486	2.3992402492983356	4.303612221342676	3.110080234304785	1.3029098477846877	2.282545322377386	2.1988632623469635	3.8514058492696654	3.1658930698572303	1.3172764744879173	1.4986162147832522	2.047655338839567	3.447800150749487	2.9499890729810705	1.206004735762809	1.0316970322310308	2.967653505462107	2.548540585759157	0.7712280730803022	2.3541028440167886	1.8049585773673562	1.2755306926948167
-156	2.605818741895061	2.203952306905038	1.6811900096409014	2.9969041271839107	3.5921957402134144	2.670680039338724	1.7478557780959385	2.3423705041874014	2.765729897192008	3.711806764767993	2.9676794930871635	1.807377453055524	1.7639281705190437	2.406687253597771	4.303648460966608	3.260595075004483	1.380533334107567	2.9189295695041904	2.744114868865233	3.9974009889767466	3.2756988919524335	1.2394657103716265	1.5347940883033622	2.1225838607603755	3.641846886023116	3.013917200108486	1.1362670631330936	0.7720780949172978	3.1713480869333015	2.527726167018984	0.6094192251077877	2.4608001646855144	1.72800993483092	1.0982149811673982
-152	2.30966019047299	1.9634197900791575	1.4791666231957001	2.6563651494670286	3.6211497692235644	2.652165406206758	1.8314768029702648	1.9899185845679186	2.530375235844693	3.53070186677248	2.9209046290084815	1.894504780754555	1.6206072527977033	2.4786739286784734	3.923284520734307	3.232273332064514	1.5677516420836777	3.2794744885615534	3.2881400502157003	3.761304845850298	3.2016367831458923	1.2407526938583673	1.518220182400383	2.1447234099598496	3.5587005525385824	2.9346792623812967	1.1533930272545885	0.575184105374582	3.145407907173965	2.4037184654582937	0.5092350231665146	2.3979570805088506	1.5413081607051287	0.9094178653644631
-148	1.8437371207417397	1.630438085254267	1.2046564787013936	2.078060383318465	3.402577153198259	2.5592179233786836	1.9437394093076177	1.6174675185374419	2.269157403938897	3.13482879800878	2.7745199133441316	2.0400977083197076	1.486685391487264	2.481288903647457	3.3477907096262545	3.0748097818944444	1.8257645322479927	3.268886557908964	3.571129789872924	3.266296616890723	2.994922868796579	1.3715484107675198	1.5054652652878107	2.075301403528068	3.203177444000157	2.786473505614367	1.3089281287524641	0.5346566425176145	2.9246873781749563	2.2714807929863756	0.579122720686751	2.1901452486055466	1.3374505009262405	0.8264243581887476
-144	1.4109663927694394	1.3771190608541632	0.9828652118663432	1.460014458784826	2.9838104172712905	2.461707108958127	2.1049103683733565	1.3702789510462987	2.0373735376417708	2.6717138222950982	2.625399821328656	2.2293658200244684	1.489315386826693	2.2863731326551973	2.7811896730776584	2.868948690800424	2.108799452225842	2.9208197519945354	3.4077963743001938	2.6952984264988586	2.7349448134989807	1.6153436858401673	1.5318344792791572	1.8831311416765202	2.656110995262348	2.6379423074877852	1.5797729452302067	0.6558446867596787	2.5858974391499476	2.2038576547293736	0.8482623674910643	1.907486314725991	1.2095848291375593	0.9039921141689028
-140	1.1929351061266171	1.3404622044098478	0.9269689894160675	1.018284199051089	2.4737365183363247	2.412652248013253	2.3152496756273346	1.3340662684137279	1.8397755576413901	2.241842025818775	2.5456099445922398	2.4251024661825027	1.6621667104717064	1.8614833307952015	2.350897067810283	2.68768190659011	2.369908803678421	2.368862622955964	2.780091040267932	2.2072215024534243	2.5005552705574323	1.89215218543121	1.579961057488643	1.5745127161327697	2.050151104519301	2.528565638833881	1.8721735430179671	0.8479291179229665	2.219950670359519	2.21692180073826	1.2466399638172583	1.6421672064328448	1.207491275599754	1.1054104538665166
-136	1.2500390974909272	1.5372867545415756	1.071267959751058	0.8795164801326448	2.00148820371748	2.420280927269505	2.5416629250251788	1.4898471794660366	1.6455222326694914	1.8740433407198505	2.546308272608665	2.576511376551575	1.9084440421558242	1.3057935204916404	2.0646202512112852	2.5650372440427023	2.564398997508059	1.7711964800938935	1.8580460501489726	1.875503416094582	2.3443944395002845	2.0987067169607965	1.5837330778190852	1.2044918506729396	1.5241700372361302	2.462781899910003	2.068862432978529	0.9725338792088641	1.9016306352287513	2.26686548614378	1.6390403467758223	1.4717359505688918	1.3140635457240566	1.323054906365723
-132	1.4827908240074728	1.8390628053009657	1.3426988090947527	1.0188461516406124	1.6636335807759253	2.4442777571954912	2.723283045568829	1.719849820563192	1.4168666565408585	1.5433343609945076	2.5744342738956862	2.6366157465170135	2.0477335401333145	0.8051230887112781	1.8329842044328286	2.484362595961474	2.654712670299448	1.23992120906585	0.9316185689293224	1.6747791724836252	2.2775077762322673	2.1623382513765583	1.4675342999599932	0.8587284066453957	1.1740083664817147	2.4194381175945088	2.092174524747064	0.922847864682057	1.6690531926930892	2.278876775710012	1.894440884575517	1.4260776006933233	1.4560549222423937	1.4374341928429955
-128	1.6808727937222077	2.0300474115616347	1.5910309512976692	1.278060909859144	1.4869353733668207	2.419956439584167	2.7979240346839678	1.8672945452275511	1.135808703415928	1.21410238436297	2.544635527861912	2.5829608375185678	1.9280680369335488	0.5270900713010614	1.5429961642409058	2.3919722973513533	2.6212789946178687	0.8163624981296177	0.28512468862072077	1.518228765469209	2.2692587318347592	2.0793645329428583	1.2033547132627858	0.6174399241117379	1.0219451163239504	2.3689472615513316	1.9481164167810028	0.6899036151633732	1.5204817018267411	2.1917412225700232	1.9519491146396732	1.4750894270847783	1.5434418877734108	1.3803812230544843
-124	1.6381722647315053	1.92215978613975	1.666214700306762	1.4549409114343543	1.42382645247513	2.2964544238284748	2.7338495185493534	1.8180124713773669	0.8167779425026532	0.8767394401349259	2.3877301155841097	2.4294445453341376	1.532083030647243	0.5238102065212868	1.1367586822419598	2.2276346627259827	2.4730796751525586	0.49162322158668204	0.07302317004840704	1.3196333613456752	2.260257953659242	1.9144959401431692	0.8405587651965187	0.5172708617501994	1.0168616746024708	2.286646598764736	1.722608442725722	0.37142759467762243	1.4258735143901278	1.9916851470253114	1.8446565819897236	1.5418429335767032	1.514697428693762	1.168663856416778
-120	1.2713013855308122	1.463504668355482	1.4992322883900953	1.4152535164387303	1.3884052003138887	2.0702466912452975	2.548810952427176	1.558462496637465	0.5018545376504806	0.5639377818174659	2.093328470667002	2.224057191955596	1.007589576084621	0.7027817946810299	0.6575081331818705	1.9610834072191505	2.2525818291058686	0.25526019866392535	0.25962969595208774	1.0505664322078043	2.189032072262532	1.7658759310960963	0.49245867008806704	0.5355501757451864	1.0685092183792388	2.162462229037378	1.5350712499008679	0.11941692202935758	1.348560449056455	1.721819634858756	1.674576278273322	1.5408630332190698	1.369135733962393	0.8937415458048904
-116	0.6750826818588125	0.7794412950863907	1.1421791286241485	1.1622652978162946	1.3104336228664	1.794673319100172	2.3040895403863466	1.1806505888694245	0.24617567596270995	0.34019735369621423	1.722975488127322	2.0305077978367176	0.5962849244321778	0.8820288159035845	0.23657022356863405	1.6159297187061195	2.0263423868517507	0.13362215425610421	0.6532850845055514	0.7617156486353245	2.0218136259531505	1.7134478048933206	0.28529691624136444	0.6070804580619957	1.0974464388796048	2.0048236796306895	1.474881168456459	0.058175392302023385	1.2649787632475809	1.4620889388363514	1.5542353352406668	1.4221916162823582	1.1673268050285521	0.6743232590816466
-112	0.07915347794575604	0.11733477533041756	0.7415932398192464	0.8227232077807642	1.1747481793307988	1.556077476387444	2.0739951081364683	0.8281239846302267	0.0988190469631066	0.26978969505859257	1.383883353554065	1.8997894477562882	0.5014230000233963	0.8980036951280833	0.02558986836171473	1.2660889593583644	1.860331649851759	0.180270984313727	1.0100867722758258	0.5557851181303163	1.7708135798568232	1.7776982739388674	0.29400616810002145	0.6625456197223442	1.0728939744564252	1.837174649368538	1.5544017514084596	0.21789130513492067	1.1734485596593975	1.2900506225440218	1.5464009007511696	1.197691318349106	0.9978522037108289	0.5969569668003236
-108	-0.271169721395593	-0.2768051021262991	0.4591589260429599	0.562613128195322	1.0252156231745189	1.428144689768915	1.9067729663391204	0.6138293727635843	0.08625123628059243	0.38076636099048533	1.1751822203529574	1.8437937451541335	0.7703386525732093	0.700989959854316	0.11363238812605822	1.0030393575139558	1.7886350109718017	0.42583262812867234	1.1523182363027122	0.5279141055130008	1.4896805248796654	1.9091653775650748	0.5015416728708445	0.6652036292447472	1.0182913516084438	1.68656754067896	1.702530022137377	0.5220779167345533	1.0881093712991137	1.241855856621085	1.6333137709388401	0.9348037815334326	0.927723703426308	0.6755786521067363
-104	-0.24421021280620375	-0.2829672389038778	0.3869326402908655	0.48741912718735375	0.930992541346827	1.4300135337964843	1.8013838484106222	0.5602497444313	0.20348101802950322	0.6421498044013716	1.135281798357444	1.826942916072227	1.2575163809498322	0.3825284829018537	0.47111284613874044	0.8888828731982914	1.7935644342915704	0.8166813233737164	1.0454685661623255	0.7056025844879034	1.2460906474123952	2.0125944563597273	0.8018781522532538	0.626741228905454	0.9836130117378072	1.5684435327984836	1.800857420189295	0.8319637754416076	1.0240883801353726	1.2932095494998523	1.7301990942187033	0.7212461214929324	0.9641274785495463	0.8491988160627661
-100	0.10798390927469578	0.03484088173652864	0.502232669515981	0.5811773523916159	0.9305998659480381	1.507210012445271	1.7103682713241302	0.5944209083808233	0.4106782366397576	0.9582245921737635	1.2138835161079071	1.7779294207507228	1.6968595938756315	0.11608304799097229	0.9454303359957388	0.9144229865829054	1.8058583690826138	1.1918898790784749	0.7938739637358647	1.0167874072152683	1.0797901126302374	1.9887331673956183	1.0464764807029325	0.5937901720314025	1.0003081534879534	1.4705532752102446	1.7389110282863685	1.0173419688288583	0.9830661391233738	1.3668507303060526	1.7295064882481619	0.6186054333327332	1.0469011041912404	1.012590167350072
-96	0.5763404950849497	0.46624702097478643	0.6848950964801872	0.7181647997844034	0.9913466547732439	1.5473459919963422	1.5648937185832028	0.5966262802319446	0.6385803206533647	1.1869298189713688	1.2839548555382327	1.615512486193745	1.838885541087851	0.04703146579908266	1.3162413802293613	0.9848234628608498	1.7248508886658	1.336144086325352	0.559685169237413	1.3056628671106227	0.967217740954769	1.7709653332820383	1.1097782822246294	0.6093767269961702	1.0454572412798468	1.3436779941966506	1.458956357133445	1.0138074134026016	0.9440535879141928	1.3603730167375074	1.5502800902326475	0.6257684215005309	1.0741289826930533	1.0622963878514067
-92	0.8993413425627554	0.761620877250371	0.7837108949901618	0.7361318450462004	1.0107194159738746	1.4254854881536196	1.3077964749696156	0.47175267219646644	0.8022600988160101	1.1811724871377602	1.1923497885164005	1.2815548149177665	1.5709093769466158	0.2008045161661054	1.3846867049543194	0.948202071180086	1.456834789412666	1.0865936251863024	0.45360058431543143	1.3912878001372384	0.8174216726646022	1.3453122343429762	0.9418898201050195	0.6721830351071002	1.0377250883605258	1.1105209560966558	0.9736266707634171	0.8374006727057128	0.8637974240428761	1.1831119030645654	1.1716452807409157	0.6725290400691477	0.9496022438869697	0.9361225939004032
-88	0.8882215000615334	0.750146029485763	0.6925083381334814	0.5251706825348503	0.8579919912610551	1.0570965978636193	0.9146042443072098	0.19945286163994647	0.8205240348126838	0.8392776825695957	0.8256162980215678	0.7633883933820779	0.9609172319946936	0.45646002773434424	1.0539399358842845	0.6587432010231431	0.952324388006989	0.43320304045976477	0.45539229993285607	1.1423917979961702	0.5081727491900097	0.7495634536891992	0.5822468981347653	0.7195737343740468	0.8702183939897383	0.695291159781729	0.3543776562803465	0.556928633237445	0.6879676563059564	0.7886547426339298	0.6394280775138647	0.6483830793223102	0.6290757044168329	0.6330579503288674
-84	0.5070835935187787	0.40696999327906386	0.39483779569121025	0.08062647262721012	0.44022890814260296	0.4369826305800745	0.39690431852267793	-0.16407369035781033	0.6408461912187804	0.1519621159769969	0.16348862606733344	0.09984142308061583	0.20643535204265887	0.6058887227973654	0.36703163292724655	0.049190148587011345	0.22951212467421495	-0.43830335029567313	0.4189513017090496	0.5358708487332683	-0.04908287885313796	0.05848027005927976	0.13623355294641046	0.6485589130239536	0.46600714208249355	0.06512785686500598	-0.2972024671680319	0.2519294017153188	0.37091573979190606	0.19237212788173108	0.04783078643524435	0.45291390900703027	0.14226467871510362	0.2097210133741232
-80	-0.12965598669695735	-0.16039879579578423	-0.044008079805129066	-0.5055586682906952	-0.24516904292196226	-0.35554757624504413	-0.21070729142873149	-0.5310299979154122	0.25741240317204134	-0.7781652788542608	-0.7062876206685774	-0.6314786060602413	-0.4767085599784487	0.464056907912689	-0.5150517808308144	-0.8244197347807228	-0.6270209535026786	-1.2057434290007734	0.15852805932074818	-0.329208730820134	-0.8492273666875415	-0.637611268341053	-0.2718700461676133	0.3655132642100718	-0.17561320916183626	-0.7388184647980233	-0.8823915697707716	-0.01905138599532925	-0.10556215021184423	-0.5334298597219447	-0.4956299650076573	0.04282719631111077	-0.4210026849607826	-0.2446761870167201
-76	-0.8290176966717325	-0.784280536578842	-0.5235378728999956	-1.1015230389440804	-1.09984028061703	-1.1858645647626327	-0.8651148655030203	-0.8412283041695903	-0.2856748990952533	-1.759590502111111	-1.6182242591055995	-1.337853428323905	-0.9550348496166619	-0.03075628161115725	-1.383614655816096	-1.7907495453445146	-1.4891431294037272	-1.5576205214274936	-0.43485683092952737	-1.2687469688807673	-1.7723402932242456	-1.252764698680335	-0.5499581680717858	-0.15997105796479477	-0.9670858954808587	-1.5997499187134	-1.3301763500962174	-0.22755266668565471	-0.7195057850791745	-1.2831000057250224	-0.9070832110391502	-0.5477485046862514	-0.9521233415406692	-0.6410923584010813
-72	-1.4104576075229212	-1.3171404566888834	-0.9578349566118506	-1.5964316089378425	-1.9569346855346788	-1.9112082671549486	-1.5197150668875756	-1.093552109818392	-0.9027460790730192	-2.571159117882837	-2.389782661126413	-1.9364112566695642	-1.213741180216543	-0.7762803415726428	-2.061193937819667	-2.6249909334665293	-2.2217137757475234	-1.3497141565578146	-1.305423494857809	-2.081654543389347	-2.619103901926217	-1.722364182892049	-0.669170556763113	-0.8622384645627117	-1.7596948102392045	-2.3602044522777508	-1.6103007752770326	-0.36580136325986623	-1.4065871203195586	-1.9503740023008156	-1.1524509162416472	-1.2192231385919845	-1.3700571025590047	-0.9196867323543753
-68	-1.7694942906526956	-1.678794260554848	-1.301406857065826	-1.9320300768710554	-2.6418576173839057	-2.42569398267576	-2.1211698001712946	-1.331096645809226	-1.4861019812256753	-3.037088863334285	-2.8860855029672408	-2.373903506961182	-1.3223110404008045	-1.5531796177750705	-2.4544038710615266	-3.1387703339485356	-2.7225775649950488	-0.690831659480183	-2.229207986925502	-2.618142836636285	-3.1910338321228573	-2.0161473700165287	-0.6667972786280831	-1.587869401737475	-2.397174113897058	-2.881808750506115	-1.7362477735552386	-0.437579481689026	-2.070214027900043	-2.4587881503015563	-1.2561659781212104	-1.8440033150846347	-1.6501321750940707	-1.0684430572237051
-64	-1.8929468345533493	-1.858793134764701	-1.544655915175131	-2.0996763653195543	-3.034925691571558	-2.6893663338472096	-2.6099095278649576	-1.5959582288502314	-1.9322016190382858	-3.0897288244440575	-3.064563028227688	-2.638545029654232	-1.367873069170659	-2.1250810569515806	-2.5658528739997495	-3.259369603510995	-2.9548315927289766	0.09354991442187878	-2.9081475661287026	-2.8240327763783033	-3.3807198915957284	-2.1465787833377337	-0.6264350398460159	-2.1485361998672157	-2.7728776861754265	-3.104751817493897	-1.7603565410038302	-0.46148168924167005	-2.6048848563230784	-2.781314127575635	-1.2912379470649498	-2.312137359503601	-1.8239082051957947	-1.1255129547312899
-60	-1.8346337033681783	-1.8903243493991426	-1.6931574301886894	-2.117737526315214	-3.111715785753292	-2.7340302398318563	-2.9332585260720174	-1.8873090696368582	-2.1697957460934476	-2.7953531671520064	-2.9837677403457388	-2.76187133091757	-1.4030935728888037	-2.3442873895585383	-2.4695384440061035	-3.0607614439935116	-2.9602398797636615	0.6093213542813136	-3.1158423345099635	-2.746121161203307	-3.2257287420846996	-2.168182844409898	-0.6413992627162548	-2.395894282967672	-2.864743463912848	-3.075632325990268	-1.7600607827572015	-0.480081497410805	-2.9274957106111033	-2.9419882223237805	-1.351544972822113	-2.564592354975222	-1.952223415214237	-1.1643973559545273
-56	-1.6815211730464372	-1.8272666885018294	-1.7571984485130243	-2.0169947096445164	-2.944062225538149	-2.6471767358702323	-3.07098244845379	-2.15850042751845	-2.1833639089772823	-2.325750345080193	-2.774864428190064	-2.809786551057216	-1.443663474252744	-2.212872976438179	-2.2697684707555914	-2.7294681003322663	-2.8464987206117436	0.5741820916937928	-2.815246098086279	-2.5019943650972563	-2.8947162555089267	-2.1610057299413237	-0.7812261561696834	-2.2830529155310115	-2.734244816552506	-2.925461284880766	-1.8133610441201287	-0.5599630460906543	-3.0039246006464104	-2.9977967663418132	-1.512755270953304	-2.6034667426181626	-2.0873534626712233	-1.263788696913
-52	-1.5321781596600643	-1.7390063957177684	-1.7591537192752997	-1.8465114785304506	-2.6720192364941564	-2.544526332152959	-3.059084169293767	-2.3542730748818377	-2.0241987654124607	-1.893092269886234	-2.5924327308052004	-2.8634929584686173	-1.5045123062295478	-1.8730592680370932	-2.070873493688173	-2.4840156969297573	-2.7513387133751928	-0.05896719530238176	-2.186485285006999	-2.235973114090428	-2.6129550867867115	-2.20409655014503	-1.0710915300029682	-1.8867447328615496	-2.498044007670096	-2.8098378110515934	-1.9722362706934946	-0.7715632896016725	-2.8638098167594435	-3.0117094440715797	-1.7997866823532533	-2.481767409734506	-2.246719116260563	-1.4741908274624131
-48	-1.4870144091255935	-1.7133122639314435	-1.7475829080328456	-1.6876246886560273	-2.4577729639943047	-2.5377879078688244	-2.990922443467934	-2.461889976007836	-1.8038376524205402	-1.6740950303726205	-2.5630617077012547	-2.9928769989744737	-1.6329103667040188	-1.5410556754304976	-1.9642233798979905	-2.4851448473175313	-2.79294204006764	-1.0962505312898507	-1.5479936560648362	-2.0775146431922797	-2.562872880187083	-2.348669523031361	-1.4863965473794116	-1.3802992070634803	-2.286630386301398	-2.840302460175117	-2.2444488945560894	-1.1504039735359388	-2.595947259070863	-3.0287885589423995	-2.175641769638258	-2.2807781638735465	-2.4099585949133644	-1.794409389733773
-44	-1.634500976250479	-1.8455694867267984	-1.7966163113056546	-1.6493647056898804	-2.434422486834631	-2.7021362713302275	-2.9835607930196013	-2.537431710512546	-1.6647256570747428	-1.7527130797957111	-2.74655293724897	-3.227745048003071	-1.9036807965852696	-1.4138898813790017	-2.025892490994122	-2.7753226686979398	-3.021426908494067	-2.2111461106741066	-1.2042659490698113	-2.11222099724589	-2.8067059446044227	-2.5993280345139875	-1.9668908069542441	-0.9666510199936754	-2.204599374927086	-3.039264432863094	-2.5908098155413537	-1.6631790357560157	-2.3220803679013486	-3.0642373484494576	-2.556462519866964	-2.086264366604637	-2.537115329058877	-2.167929405460953
-40	-2.0162904211636286	-2.1943011228473734	-1.9744318673828976	-1.827304120218654	-2.6633889607896273	-3.0499184054619275	-3.1204211633100485	-2.6758909157904114	-1.7277396873721906	-2.100349659385237	-3.1195826451694653	-3.5401773363377904	-2.370451921200243	-1.5842452009257024	-2.307603591814852	-3.271495333994907	-3.394732705128465	-3.1075627725344073	-1.2974739041948964	-2.3666231572481173	-3.2677743352402633	-2.9130847380522726	-2.4415869651185447	-0.7987076619963659	-2.303276771452241	-3.3398001109678397	-2.9415137693525666	-2.205290550386156	-2.15631389073503	-3.1069078366992686	-2.848101847133575	-1.9693041990151063	-2.59542655289542	-2.50283431374931
-36	-2.586549037124987	-2.7273762157245107	-2.2945249022726775	-2.2424876633293516	-3.1115748803733987	-3.519307127650248	-3.399837962149877	-2.94174527379229	-2.0371191450185115	-2.594608061915431	-3.584553947935345	-3.847213496985328	-3.0000822468353103	-2.0049812743110778	-2.812741749337719	-3.8089523219262884	-3.7906896972317967	-3.644760361052381	-1.7473784641017822	-2.8040854860081335	-3.775900592807466	-3.21759747646497	-2.8515615391261826	-0.9242538190394692	-2.5708098346653347	-3.6275844482386908	-3.2246415533667414	-2.6380393438492344	-2.1662132685329123	-3.1344649712579895	-2.987245075313156	-1.9724397609502442	-2.577584260154823	-2.7080750397020745
-32	-3.195193044224783	-3.298233262317903	-2.681909554386056	-2.7972664762444657	-3.6554427054620566	-3.984639872981133	-3.7208185101981215	-3.306678286786938	-2.530013554861109	-3.067127696876608	-3.999368180667947	-4.037317742644888	-3.649339905108202	-2.5190684731779274	-3.469453326048822	-4.21082066426494	-4.052691926260857	-3.8593721292330727	-2.3137061537501284	-3.3303456222374375	-4.149143685355718	-3.4372541817667135	-3.1638922611464615	-1.2784918514397818	-2.9385344907956354	-3.7989888095307895	-3.3905780229795304	-2.8502700256864504	-2.35132502915869	-3.129646293367934	-2.9650912209989717	-2.1011943764088614	-2.5018007692115143	-2.7294990947474713
-28	-3.6222348121743164	-3.6817254927186966	-2.986032478422907	-3.2892086422845357	-4.116913785076983	-4.29384039748429	-3.9257972141331146	-3.6391675380379374	-3.052455655974321	-3.3613669787417577	-4.222581852742326	-4.019435395583102	-4.110770691983363	-2.936418287492873	-4.125634659841342	-4.353090752101544	-4.059124936345933	-3.8937783142963522	-2.742357247104534	-3.8126811884940226	-4.270222176260962	-3.517678251921939	-3.370569459034686	-1.7235034660694095	-3.3024215614864056	-3.8049008750218447	-3.422054282131628	-2.811341755444769	-2.6469707422184086	-3.0881314199681102	-2.8222718167575054	-2.3221034945034633	-2.396098846108025	-2.5696866447420232
-24	-3.672341337468952	-3.6779014971381416	-3.0500409526112766	-3.4978344352148376	-4.329445827997422	-4.328037727872804	-3.884777774539413	-3.7667167091636604	-3.424818268712174	-3.385568133389518	-4.164863099073354	-3.7729933166612413	-4.213099469038239	-3.127679101676734	-4.589780319069877	-4.202904690621596	-3.784838905315416	-3.8784816167183953	-2.914189808163618	-4.11732434186916	-4.12447499187552	-3.4409377488045325	-3.4756643684373154	-2.114943498993777	-3.5562643915034733	-3.661192407901153	-3.3280196105855953	-2.5835080081562243	-2.9528689309907676	-3.0156996174013493	-2.620079272330859	-2.5694756443000513	-2.2794389667181143	-2.283904546693412
-20	-3.285568705846582	-3.2325885214252907	-2.804180853439533	-3.302229872949292	-4.209785927634251	-4.05907772946739	-3.576211920292222	-3.5804655461512334	-3.5290141016552816	-3.144756070780347	-3.8286452196731995	-3.37235807521059	-3.924992789849257	-3.0876736562973908	-4.707584846055164	-3.8199758433217967	-3.3220889484454172	-3.8437845609893464	-2.9064385817580174	-4.155940999028742	-3.7869734668487234	-3.226504317720559	-3.481247416290041	-2.3618516862366046	-3.6268322376235242	-3.4247293385823934	-3.128248445242191	-2.286718124338286	-3.1718296924618707	-2.9170057699942773	-2.4049522816020295	-2.762642376600438	-2.1517214720759705	-1.954452867341787
-16	-2.6003200942191245	-2.5026287969346437	-2.3280591905943835	-2.764716856651963	-3.8014075660096682	-3.5755903630580734	-3.1163678090569764	-3.1204159181013216	-3.371971121857685	-2.7388601233951015	-3.317429295747221	-2.967357628006189	-3.390680542968285	-2.93500446532237	-4.438793648003329	-3.3268937980579203	-2.8458478378924394	-3.716282119905009	-2.933672659142871	-3.923525800335749	-3.3734664831820345	-2.9208025858568836	-3.3821487341366767	-2.454245084288246	-3.499922981962494	-3.1540851513384585	-2.841447823026229	-2.0337016531142984	-3.2419941343471	-2.785205118776749	-2.18722724362329	-2.831997148993083	-1.9983895966620098	-1.65519499360851
-12	-1.9182192038743082	-1.8127244665155349	-1.833884353775954	-2.125039333700343	-3.264724246365518	-3.057295791536441	-2.71225332529028	-2.57961868588516	-3.0859427374174837	-2.3250741899915686	-2.804008953644435	-2.721714966578037	-2.8701858448042588	-2.8461294102336474	-3.8909940621366337	-2.862547867223445	-2.535861485754548	-3.393407097832007	-3.2024791159837314	-3.5071098715927866	-2.984851114366441	-2.5812823707259307	-3.174309484096845	-2.449879640115918	-3.225264541112361	-2.8796582149280483	-2.485428565425946	-1.874219293630783	-3.1508865276893077	-2.6013593608028045	-1.9471139858677011	-2.7435052325600093	-1.8057620479768999	-1.4250649177811463
-8	-1.5685954054329878	-1.5066649875748208	-1.5665076931503559	-1.6895363288184373	-2.808034651342401	-2.6996006897478844	-2.556505435211094	-2.2134923879051214	-2.8586869167632223	-2.0538589902521265	-2.46223735187671	-2.7359352042740683	-2.6070833140354233	-2.948217861361397	-3.278774014777922	-2.5340638096726606	-2.492017024424204	-2.8392877507050227	-3.7601239586309894	-3.0515065116133138	-2.671136372497972	-2.2605659904626636	-2.8696532176998906	-2.429379457062207	-2.8924813197540713	-2.5977599555231956	-2.0874443001496314	-1.7817094281035448	-2.9282236025312627	-2.3461775720488833	-1.6629207092262115	-2.5131335195033366	-1.577848430464558	-1.2635351387547658
-4	-1.7350221828524612	-1.7645288661275735	-1.6667957263825657	-1.6661968189133747	-2.5840401584234356	-2.6172013216697896	-2.7155659130199536	-2.199028724840442	-2.8218769955915097	-1.9967012354983649	-2.3854603707167934	-2.987909547891434	-2.694176190249861	-3.2280552305736987	-2.815509312196942	-2.3787989556335143	-2.6811139515896025	-2.1454844420624206	-4.432413566842679	-2.6905634335298565	-2.424524777966798	-1.9911987731251721	-2.509421580654676	-2.4467508731102674	-2.586359255936501	-2.2861146869161035	-1.6908558564411433	-1.686722155127117	-2.6264128618687006	-2.016993994388781	-1.3396003212485716	-2.2026967946706586	-1.3422144617525307	-1.1449081868829443
0	-2.3374199808234355	-2.485204451962156	-2.0767300076504376	-2.0362210222333035	-2.6035871440003047	-2.7763049532413584	-3.0762710493620684	-2.5233361657330704	-2.9617092534629545	-2.097945446439647	-2.5312950547205446	-3.3272046958842836	-3.0185635013662866	-3.5123784453404707	-2.593016141066789	-2.3491160810288907	-2.946327202033895	-1.5149297675985098	-4.8921866293415315	-2.476114982075437	-2.1974484865021466	-1.7753061011314915	-2.164350027341938	-2.4999411042992175	-2.3421502054208676	-1.927481646439729	-1.3481698002155833	-1.5346350631115029	-2.298360580363579	-1.6385418135281797	-1.017526981645774	-1.8954156589337128	-1.1395007343132837	-1.0400177214113782
4	-3.0486328524866577	-3.3129606163304026	-2.5494809086327597	-2.544434779418815	-2.721690171045873	-2.998187534391974	-3.387616864234565	-2.9736771508479	-3.110980264438621	-2.1857013647208925	-2.7277009418284273	-3.5341446310460145	-3.322999707415286	-3.5434081464950387	-2.5236611302555656	-2.3288309515329866	-3.079121105049453	-1.1740055054587726	-4.828123557298685	-2.346392387188111	-1.9320664357042765	-1.5829896886913235	-1.9141622733425587	-2.5360729630336767	-2.1267378276535744	-1.5254821738829027	-1.1003453703755814	-1.3293687071615499	-1.9834759185304127	-1.2596440283443628	-0.7544557433153667	-1.6646044212275757	-1.0037258838107455	-0.9338155365255516
8	-3.4483582886417548	-3.805787076878128	-2.7686695982649083	-2.8226628232262447	-2.708635561780127	-3.0394382400068203	-3.3812997255786392	-3.2436268247726656	-3.034636012998681	-2.0437650628941886	-2.7457361151990303	-3.419208756397235	-3.349460354931487	-3.117391578433054	-2.383624786080925	-2.1792492811495356	-2.9198157713604735	-1.2572779623713326	-4.119530667394595	-2.155707830708484	-1.5872362812022693	-1.3637684549232096	-1.813796396444469	-2.4849889215671928	-1.8583284569552054	-1.1045194836386636	-0.953858611559634	-1.134586569782539	-1.7051676468713182	-0.9357655024744553	-0.5917625412305526	-1.547119255928189	-0.94375210762168	-0.8291696885155261
12	-3.2390494264840517	-3.659249058067803	-2.5192117627436055	-2.586514704849683	-2.3741955697198436	-2.7155082157239567	-2.910514585776047	-3.102665654932025	-2.5693981582620387	-1.5198975763094171	-2.411731713881666	-2.9165539667880203	-2.989431135259419	-2.217393392686532	-1.9427325676506138	-1.8023477747234962	-2.438062661691163	-1.7323584512841743	-2.91925381877095	-1.7567046836369515	-1.1561138600724261	-1.0713251802098978	-1.865207190572787	-2.302334302811432	-1.4575960599338154	-0.6986271125320955	-0.8729672409905497	-1.033083913102163	-1.4752944670622878	-0.706675408486507	-0.5277999030138995	-1.5349419078220319	-0.9379400587243057	-0.7374308686711555
16	-2.410435670488942	-2.8688538002061814	-1.8127980186470019	-1.8017524435329826	-1.684323187390254	-2.005339140597406	-2.0324101396745657	-2.5329918797437263	-1.7371625856409416	-0.6230608805184447	-1.705325122342417	-2.1241190379873345	-2.3513686597585552	-1.0603731843879396	-1.116009828610874	-1.1959665983522398	-1.7522348121272409	-2.39960979809501	-1.592747326644288	-1.095775363062901	-0.6725594384379064	-0.6925013047854157	-2.011861319230841	-1.9977939078436284	-0.9050322748222519	-0.33950877103918503	-0.7972811440365581	-1.0733785602172257	-1.3010812964968848	-0.5823473319609582	-0.5187027441280235	-1.5890188177044218	-0.9469385719233273	-0.6679185612027668
20	-1.2605882851245105	-1.7425048307293824	-0.8975267983664394	-0.7239708882173153	-0.7999285439322178	-1.0792728635241824	-0.9901694034372573	-1.7558010772244381	-0.7640115599416312	0.45091161018014586	-0.7889366129983609	-1.2682695356773217	-1.7053425268986477	-0.020116755688064484	-0.044479753709787656	-0.47252601265815225	-1.0778913470710665	-2.965398065709501	-0.547877429532575	-0.26679280332917477	-0.2061275387566547	-0.2672330432343743	-2.161532158162651	-1.6354899365140954	-0.2727035277157256	-0.05160856978976391	-0.6780343634652823	-1.2373231618159397	-1.1902689903725452	-0.544763206060213	-0.5071237074446113	-1.6662673908126104	-0.9369860863870841	-0.6236006601801678
24	-0.2537172728331651	-0.7484577279267627	-0.13872988487026836	0.21834613327689215	-0.00850850714085062	-0.2283811265424574	-0.09884622668105555	-1.1238613100287338	0.016231477219609058	1.3891568148826088	0.05530644939287349	-0.6043719634055955	-1.3362210955262073	0.5448287711693004	0.9507625675038827	0.17653275981678695	-0.626201747266954	-3.1572077194610677	-0.04875952365604786	0.5144203292256581	0.15703536530424556	0.11880095273064267	-2.2256569806173285	-1.307327624834996	0.2945351891233898	0.14752091430135073	-0.5088331090478089	-1.4465900623038268	-1.1507403821502018	-0.562745033273877	-0.4595627773126159	-1.7441880658935898	-0.8995226002870598	-0.603990195656773
28	0.20961728639131472	-0.2838921241745224	0.16696412819192807	0.6378701909173036	0.42018765105018163	0.2720072560595398	0.4034931649511263	-0.9378365850612369	0.3272032431447622	1.9014905643138829	0.5548620209990104	-0.30294775886342634	-1.3899546826555578	0.47247716665188216	1.5224289855666366	0.5601511583490905	-0.5063403236003062	-2.8331236767764936	-0.11347153754195734	1.0058925126428606	0.34310635837713266	0.3679324081191404	-2.1601157133877846	-1.0947443219201793	0.6394559724875492	0.24556811091888714	-0.3326325408166777	-1.6067182977164975	-1.1881201237245282	-0.6112503393953094	-0.3884448697296439	-1.8304105950872147	-0.8563767649963648	-0.6119976028249717
32	-0.010711755576507281	-0.48586580034610644	-0.05680225775205775	0.3883076300353951	0.37716841602467	0.29499351903823295	0.46000215295046837	-1.2868486610347718	0.09593072509387303	1.8626434755981807	0.5782878980341346	-0.37847536706736024	-1.8002936794604327	-0.11161150010063145	1.4810851774968865	0.5761557206866125	-0.6802591664305515	-2.0481209703233763	-0.5406250343978398	1.0591500970802366	0.32056176581511003	0.4170821000536126	-1.9890819737759633	-1.0373884413276844	0.6654731018430963	0.23828795492091798	-0.2176437521446323	-1.6600083070805494	-1.3034113612645615	-0.6824176890309978	-0.34280943783993373	-1.951794738610095	-0.8463786223023388	-0.6555131657262749
36	-0.7360545974267665	-1.1824500530906503	-0.6335355027416021	-0.3604997983413819	-0.026223219864918376	-0.08017892370246346	0.2019408042100734	-2.0016138503083494	-0.5052100407242841	1.3792953456387078	0.19954712638542077	-0.6958544236734343	-2.337628358661044	-0.8532015063679069	0.9046709514665358	0.2649768286213878	-0.9908860300795826	-1.0508716079882838	-1.041165826076143	0.6990663987629812	0.12018356441910366	0.2754711501795938	-1.7991596414917992	-1.1215479345615522	0.38592159650641555	0.13849346304736368	-0.214103996213132	-1.6169038970178689	-1.4898456297452762	-0.7814730982123643	-0.37230101133763344	-2.1324303096338313	-0.901418922055801	-0.7412733416915446
40	-1.575628991917305	-2.0024075457561743	-1.2361900775216204	-1.2123450010208492	-0.5184753524087795	-0.616599915855039	-0.14099575543568407	-2.7459180285744256	-1.1488277883134779	0.740598080672589	-0.3419726184317224	-1.0503201458162141	-2.7480304171799323	-1.352511402530061	0.1055548411922971	-0.2041710759014869	-1.2498900858793651	-0.20574344642669185	-1.3967159951232282	0.11691307992027695	-0.16924951927845844	0.026381803609878365	-1.7058995919073119	-1.2926676240709227	-0.07885479907154065	-0.018216930283806325	-0.3219591967083409	-1.549750085732643	-1.7298408703045076	-0.9127696729502999	-0.49023508901801266	-2.370029205060563	-1.024956581388979	-0.8646776654346966
44	-2.1330649798897974	-2.5732185775639165	-1.563867803439919	-1.749533410423551	-0.815964398708168	-1.0457237932506094	-0.37156042362816905	-3.194207660239844	-1.5231300553967149	0.2744154327139975	-0.7655876855594476	-1.2759438720913565	-2.8974609301846144	-1.3724096978823497	-0.5280864225406113	-0.6117811783603387	-1.336651798688267	0.1329229172688483	-1.5489642580979082	-0.4207388748036727	-0.4329354454077213	-0.21225626713092116	-1.8076569988388147	-1.4807231388854347	-0.5534214363430712	-0.17936299695983354	-0.4915589677797764	-1.5550239046890544	-1.9912476489337647	-1.067634579824013	-0.6631207449383298	-2.625610821770628	-1.1873599260869823	-1.0056147549989085
48	-2.2013857309074893	-2.7006444862845553	-1.4963668547043978	-1.742338056933722	-0.7769291977340295	-1.2032357423921145	-0.423924474837973	-3.1980154433570616	-1.490498300603919	0.1814958150572853	-0.892601308953216	-1.3254753317746513	-2.8421509194142245	-0.9594261026001124	-0.730825601163113	-0.7944498042075859	-1.2570829359741198	-0.24434982178507644	-1.580766077818947	-0.7017346602842596	-0.5798081144952927	-0.35046130330294495	-2.1478276198519146	-1.624313111972612	-0.8837797619440856	-0.29610305949792554	-0.65910363030919	-1.7075203614039525	-2.226633066277706	-1.2248001067709582	-0.8366838672494538	-2.83242344141144	-1.3415340151294928	-1.1370859117409504
52	-1.8416603757137189	-2.434466832690232	-1.1395775050955608	-1.251482483565164	-0.4743058371489742	-1.1001603575586658	-0.3766030957727251	-2.8487362789709625	-1.147067424739126	0.437068520872979	-0.7316147070533021	-1.2813467947080255	-2.7791593004631556	-0.40891727701895947	-0.49284902090571553	-0.7247261386693574	-1.1344788045850571	-1.304812189622536	-1.6184790093567265	-0.6703438741925541	-0.5879971370156636	-0.3786350479103104	-2.6991648605863867	-1.685655112779042	-1.0013598178377152	-0.35132235199919626	-0.7953283170647124	-2.029411787631355	-2.381853097624094	-1.366428014166373	-0.9826098655687702	-2.9209937975568403	-1.451413150937585	-1.2440282074990843
56	-1.3177736964333782	-2.0034961649856036	-0.7473117690292043	-0.5758123979335731	-0.14585472606550617	-0.8943043328594387	-0.38046866559290626	-2.411392444244461	-0.7528401594228087	0.8165482262022689	-0.4609904873653162	-1.294866677829714	-2.914518825801948	-0.09433422213817558	-0.05079565929462774	-0.5213646875569717	-1.1366139621648104	-2.7627634932383156	-1.7274196104305548	-0.44630628711552506	-0.5205921517579883	-0.3765023341209867	-3.373605004376143	-1.6532304245216731	-0.9427911019363927	-0.37824368381370327	-0.932927665739219	-2.485168212338224	-2.4122841297280493	-1.4987251720736265	-1.132960316658593	-2.8482491898150877	-1.517559286100782	-1.3409670557498206
60	-0.9422309374862079	-1.6781736569950134	-0.5758747443918507	-0.08528088756726016	-0.054583906989569254	-0.7872526625784181	-0.5547057376208039	-2.174944395296147	-0.5793564901029699	1.0264710161996085	-0.3238440445829919	-1.4947853050639206	-3.3296906864022993	-0.25994679266149223	0.25325486000016506	-0.38647943637546	-1.3834296429991804	-4.165101994489011	-1.8724083853177893	-0.2557528310517502	-0.5020754324634605	-0.47145125150859835	-4.048943986206843	-1.5370476207073405	-0.8223822692135098	-0.4556037176073406	-1.150404450373096	-2.994189016411957	-2.3015875758235715	-1.659742231946944	-1.3708417381008469	-2.6163046293960526	-1.5818730552789206	-1.4709460698183228
64	-0.9293766594310459	-1.648717876086411	-0.7613874654620199	-0.03780391057721894	-0.34231105360390257	-0.9132126546691521	-0.9182078219119422	-2.3103272856556316	-0.7678435425445662	0.8648251869301432	-0.498923389844084	-1.9192649077596076	-3.9262266059929924	-0.8944221712418622	0.15947423835068503	-0.5052427636741832	-1.8853702497564993	-5.064126001923784	-1.9640560100558837	-0.31408646623467207	-0.6650761945145391	-0.7653827647912271	-4.60405586987612	-1.3636085952663257	-0.7750076035959672	-0.6763699037641319	-1.5161299667226769	-3.4511098774562186	-2.0737128205395248	-1.903103108369565	-1.7721894934733444	-2.2739021720696178	-1.7058792071188502	-1.6790274339246205
68	-1.3343585695909683	-1.9811326215316292	-1.2872376409455941	-0.47797062872373636	-0.9666972135932597	-1.2852175203299667	-1.3974701130870226	-2.8107049394215964	-1.2771123615445832	0.3171762816050601	-1.0207350228287755	-2.508026831970453	-4.483255851870564	-1.7575851634473507	-0.3811455955419113	-0.9620942449121015	-2.5432963307064798	-5.2025070059079015	-1.9518285940482418	-0.7217278462307909	-1.0916043492413394	-1.2699423996333643	-4.946125971704127	-1.1715463370308383	-0.8959241486817651	-1.1008193465096388	-2.0237028547691813	-3.7413778210593	-1.7852737858521142	-2.259022468585457	-2.327577346647236	-1.8953487825224435	-1.9288561295447793	-1.9690607736464583
72	-2.093992704826702	-2.6553947858525353	-2.0481271692064174	-1.2625176874710187	-1.7545524791288356	-1.824690098923984	-1.9013870906508141	-3.537350168833942	-1.9434786985920283	-0.46227645757309854	-1.789705510389265	-3.156448117869968	-4.795966136267815	-2.536129945073938	-1.2056359022218701	-1.716324205833629	-3.2085940756850895	-4.633904445392801	-1.889675016400599	-1.4245194160735393	-1.777735824864981	-1.8896224451040398	-5.027532564821349	-1.0059466336601801	-1.2034232586041045	-1.7166488127282562	-2.56177210161015	-3.754804363307506	-1.497255559955755	-2.6917912892091294	-2.893018476811431	-1.5456362923699214	-2.2260849419657354	-2.2677411975826094
76	-3.122123233541957	-3.636798849460544	-2.957554332895442	-2.181748861526526	-2.533922189037032	-2.4476857123565647	-2.4090800224515934	-4.332518089799969	-2.6064736777302	-1.2679328886444803	-2.6584579877490984	-3.793198575933348	-4.813763129478496	-3.031548492407111	-2.057085508874962	-2.644581311224685	-3.7676777744535923	-3.718963375238816	-1.9233492564278845	-2.254082435638945	-2.6399326257810998	-2.466673129529695	-4.855092036387091	-0.9086734629577427	-1.637128468194834	-2.430304282728207	-2.9465916082374513	-3.4096667680485235	-1.2385823695382854	-3.0828864496596973	-3.213430396549954	-1.2475628821346303	-2.4935264524446854	-2.4258625446107596
80	-4.381019104386988	-4.916131960854561	-4.018229474413051	-3.091088525597241	-3.2572574533240672	-3.1419899384325944	-3.006352417031272	-5.120906816904937	-3.214419118394992	-1.9780657241470996	-3.5321993738640365	-4.43065594508198	-4.696138370101398	-3.2679054654584383	-2.740221731896913	-3.6169450191731456	-4.204372872227997	-2.978500358690947	-2.204709762728931	-3.0164685173170103	-3.5555825143689646	-2.8659458088042213	-4.490011203873772	-0.9046857930230474	-2.085360521773545	-3.0960361879382647	-3.0080215854993475	-2.687111132513182	-0.981701908017199	-3.2571470655222217	-3.022090427398031	-0.9663640236298064	-2.5709378654419894	-2.266769403456645
84	-5.878231987417192	-6.488644106695141	-5.306340681030268	-3.971886386380032	-4.028035153709584	-3.9781489271814814	-3.840197076638663	-5.940564617417287	-3.8439466856227265	-2.6198930674210503	-4.416533935840291	-5.155354009963719	-4.751418101712319	-3.4596011551294823	-3.218936435201824	-4.557852256711524	-4.605320442016483	-2.871964447399866	-2.7847278047825927	-3.5776383786473853	-4.414012420954078	-3.0533268374601583	-4.042965878769543	-0.9890729163947377	-2.42680477483299	-3.5716676621860195	-2.6879494122351866	-1.6670029121272818	-0.6486437304332549	-3.0499913615469487	-2.177721733317089	-0.6208292230190438	-2.3004953803154646	-1.6686986642668602
88	-7.594085197348995	-8.288771608406359	-6.877374154846993	-4.891261565256952	-5.010800348982246	-5.041983114864211	-5.012274729471688	-6.889919263610485	-4.621210086599167	-3.325680724330514	-5.382440553427245	-6.061790927841201	-5.291513429633377	-3.8593690297915524	-3.6030521301853944	-5.45688675456375	-5.1062364449327	-3.606446733906072	-3.5569138437113064	-3.9045972725515075	-5.151348101007768	-3.1228811662030074	-3.6638910677911904	-1.1222699852265383	-2.5714280540393846	-3.776706924439951	-2.096776718567842	-0.5451508746688534	-0.15305164417725667	-2.390130990669601	-0.77191805644648	-0.12271832643758346	-1.6012756784065083	-0.6458840949917665
92	-9.398421263807888	-10.137286160624074	-8.65778634746492	-5.898025020967072	-6.277092440969492	-6.329862578623126	-6.4756536320270115	-8.029293993705032	-5.599925980734593	-4.205715168824949	-6.471684439532149	-7.169723969477533	-6.474106295452549	-4.581033218261884	-4.040982713033584	-6.326933844804836	-5.809309467907366	-5.054921614282227	-4.294707287435715	-4.048158158572107	-5.751292214178114	-3.2527925886045046	-3.516724339189362	-1.2387760846333162	-2.487845652974775	-3.722622146744471	-1.4891906939101378	0.39612069625979435	0.5415303693450475	-1.353867527404567	0.858530519225241	0.5733626470394896	-0.5215495811645982	0.6192957743267788
96	-11.02716157036466	-11.752486199270695	-10.403408024271029	-6.932000142715667	-7.6868576809404505	-7.6797499462782195	-8.003703097163198	-9.305801368106673	-6.6801757643841775	-5.222681986020539	-7.608174304826851	-8.376984575102588	-8.207266786834795	-5.509917722142262	-4.591611850589912	-7.143268567170058	-6.716124517650349	-6.816234571413709	-4.763562190426775	-4.087421406916581	-6.217399104633387	-3.611243715705484	-3.734442939866482	-1.270272490155297	-2.210303062580532	-3.50104235718855	-1.1641846865825058	0.8702105261766478	1.3776733840491748	-0.15981508751097254	2.2342138233996796	1.431522842607676	0.7570002059897591	1.8190253927081226
100	-12.151929824666006	-12.835625616091695	-11.762810677394043	-7.812281588857428	-8.893413521247462	-8.792231537555168	-9.257954574099056	-10.549182865211577	-7.623778323952494	-6.1571111523625035	-8.579190232551053	-9.477345442685772	-10.168641064719715	-6.355455382513588	-5.161996351560718	-7.808579902007643	-7.708378772347296	-8.398324945226932	-4.841325270827366	-4.0743760959753965	-6.5384445025349835	-4.258762825703957	-4.370954025677048	-1.173429724591696	-1.824467177553087	-3.2358515180906364	-1.3319557871568493	0.6931109410906393	2.2041983548780495	0.9024275518521436	2.9153871462648433	2.3286809862471105	1.9717082927514074	2.6283106737535578
104	-12.513590781089325	-13.188743558010216	-12.42000004493646	-8.316630342466881	-9.485064482583276	-9.343937850249157	-9.926012014123799	-11.539424867105987	-8.164755800614001	-6.694447023656007	-9.10890290821561	-10.238212559600218	-11.92253586619976	-6.809533102009242	-5.551899419118787	-8.17238805614893	-8.586461045520977	-9.428184485473466	-4.576002586255542	-4.011001576787257	-6.671947462402999	-5.098669992925435	-5.365653024477931	-0.9501242017599499	-1.4372888767194	-3.0236079616501814	-2.011260027575865	-0.13065074351226352	2.827902309907352	1.5816369016769167	2.6845703057221115	3.0883219164123314	2.8699672149677746	2.8343341278995364
108	-12.047433822732568	-12.800628629790895	-12.243370025240806	-8.30368612100298	-9.19586846890913	-9.140919662285166	-9.86149022473592	-12.105792968703389	-8.15158746568631	-6.592133028552997	-8.991544700809275	-10.500325176431122	-13.080776181573825	-6.716754896371902	-5.57242010617025	-8.099671343380862	-9.146870590004516	-9.78620908173751	-4.147053708096591	-3.865750064626516	-6.559702856668323	-5.90632341801033	-6.538608057679834	-0.6505846364761756	-1.1405516834073102	-2.893733255709773	-3.0106103344246966	-1.3866035903254563	3.095525495343119	1.7621840194080298	1.642697449351428	3.5452413469451223	3.301370373973801	2.4283320842468585
112	-10.930726977407451	-11.85475823270389	-11.358706445626222	-7.805672625861419	-8.070698717721589	-8.228692033973084	-9.151986099024803	-12.202932326978644	-7.636945228368713	-5.831978783188267	-8.210669496787142	-10.24645135199885	-13.44146534387118	-6.157339557360706	-5.16784857398857	-7.550085048686891	-9.26041219280623	-9.617942785775622	-3.7535228634480706	-3.612522116123399	-6.167048438714367	-6.4234413938470665	-7.634927730357449	-0.3552762261003892	-0.9799652670914079	-2.8073725629499076	-4.003898610496597	-2.7179455688519583	2.9671564027259354	1.5037639103116374	0.17116564469037637	3.6134395508134656	3.270299426405153	1.6128593642522013
116	-9.520158743664105	-10.653662654681677	-10.100658391246336	-7.030495625865427	-6.483118994556991	-6.893355352163822	-8.078917482959628	-11.92114064067838	-6.860245210493266	-4.664694297457398	-6.974532586608527	-9.606349920814658	-13.046924558124136	-5.3975877625564825	-4.464879501514128	-6.621125681372864	-8.91996667517212	-9.228975272719586	-3.5041477591735073	-3.266025773385547	-5.523027882936798	-6.4736451939217305	-8.407283761732634	-0.14549370073301315	-0.9451600885370095	-2.6940321854284472	-4.667343604701686	-3.760149469418889	2.538354628829918	1.002481100412399	-1.2269576756970906	3.3222756301923826	2.9228823111171356	0.7153575402318597
120	-8.20649240329183	-9.498691534856	-8.867640472911653	-6.2667245706648576	-4.980737196744916	-5.5459427693535535	-6.991868478288391	-11.431899995551289	-6.131249889152651	-3.5078461081631933	-5.641310677590556	-8.798334099490443	-12.146470992892679	-4.738674151854357	-3.7145159150754843	-5.526422009820319	-8.23960492914817	-8.926566101424989	-3.3742036734267553	-2.888014547685881	-4.734303462473302	-6.043659194946305	-8.708912827438379	-0.07526972870896428	-0.9830055808044349	-2.5040392812450474	-4.8150529739881796	-4.28675173630834	1.9979551980119834	0.493329315132103	-2.13553547320021	2.8043789792782663	2.4751594004128106	0.046366263063907585
124	-7.257978897843578	-8.58281991699013	-7.952963808961224	-5.74413727263734	-4.031083573654279	-4.543990600557556	-6.159955009166847	-10.904204341060838	-5.6774706697172785	-2.747746699071518	-4.566064346229364	-8.037505129548558	-11.085901232386767	-4.357865799391734	-3.1617400566383456	-4.514034259843394	-7.408939819703649	-8.885751701808797	-3.248976937674197	-2.559404605125649	-3.956942786716833	-5.288485513686432	-8.554487206795551	-0.15489792784683537	-1.025711056980641	-2.2435002270322397	-4.468328941507861	-4.298209656353874	1.5432928761618485	0.1456262018580143	-2.3858520924412683	2.2389771881795233	2.117008680720741	-0.230400517001188
128	-6.731992227723812	-7.9485373296328	-7.438022594746188	-5.529592500077207	-3.799999704303628	-4.039558400445626	-5.672912583333522	-10.439718220102206	-5.541609750107901	-2.5492207939636167	-3.9461548228768826	-7.454541664376113	-10.174896214545232	-4.234141339102301	-2.9195218012531834	-3.764430036577271	-6.623276216950931	-9.096116996687833	-3.0218553466796307	-2.337865346728073	-3.3362462436367246	-4.45952414340387	-8.115419367327918	-0.3544009914987172	-1.0231211159623996	-1.972133393076872	-3.8297259710895384	-4.0095538991786075	1.2933098045121114	0.0018472922919244561	-2.0980429596382533	1.7763026907896198	1.9368429135059377	-0.15485708376410615
132	-6.488724215337517	-7.514693241220095	-7.194672089531732	-5.511999593169721	-4.079051007462617	-3.926928510288095	-5.431461797352551	-10.053191159615691	-5.58032701990761	-2.77413081422402	-3.7403635884263626	-7.056661111181446	-9.580203985822076	-4.1925220383650945	-2.914875499995383	-3.3160288250171144	-6.0151176300769595	-9.39260194314387	-2.6811158589382305	-2.222558731189726	-2.940800659384274	-3.7881665134155353	-7.6460227773265075	-0.6208594425738685	-0.958854255639581	-1.762533421834821	-3.1754629531796263	-3.7405767346355416	1.2466601101871415	-0.011090785236967332	-1.5883855779599267	1.4803565703209915	1.9031430434814638	0.07275947165000589
136	-6.282403930061307	-7.137494069198798	-6.979279500506455	-5.474554524904885	-4.39818857989906	-3.909767141007693	-5.219216333563468	-9.693794226013804	-5.556833730019416	-3.0528788489511576	-3.6985635664066536	-6.741936189795874	-9.285468078057912	-4.032915105174314	-2.932405225979567	-3.052917949598031	-5.6111736155938905	-9.546112036445258	-2.328174823604956	-2.1448550170151814	-2.723450892248093	-3.380115500499232	-7.369993191231423	-0.8994075633229337	-0.8423084595394827	-1.643895741126967	-2.7192368438731123	-3.761045923274047	1.303944107578219	-0.010086666767164763	-1.1925492256573156	1.3174122538683728	1.9080846261487359	0.21063525921570228
140	-5.884788498325931	-6.677639944383255	-6.565222246760589	-5.213901506611554	-4.267331112578075	-3.6511361506786177	-4.812940108545516	-9.288225150499681	-5.273877607381761	-2.972475998049419	-3.4850480468499034	-6.352791293317433	-9.127733207545509	-3.658580055536533	-2.728942148948096	-2.7600438525133706	-5.328679071324211	-9.36163136979677	-2.1153068489074105	-1.9935944030019364	-2.532819026274314	-3.171680204013151	-7.379058819260292	-1.150617835000853	-0.6857908946842549	-1.5662316044364535	-2.514353507369519	-4.164620865797599	1.3361839022279614	-0.06976037454873694	-1.0958844395625644	1.1917451590013255	1.8439185572799779	0.10509613129784443
144	-5.177024351400705	-6.041756137852722	-5.843188747912161	-4.636581409192194	-3.4181084546574594	-2.928057424782048	-4.07495068474958	-8.77488801648079	-4.668772685661213	-2.2787947597190086	-2.8305737900794403	-5.739227280431719	-8.887746788473683	-3.125658742642528	-2.151475900940116	-2.2163469735454973	-5.008510100117179	-8.74726102527857	-2.144859070131016	-1.6598905283027705	-2.1716592257030007	-2.964465849067567	-7.592729072474489	-1.3567206825334719	-0.48113027093530253	-1.4066939318427263	-2.4355482993623063	-4.82785891267655	1.2617461649509938	-0.169017985036413	-1.2493371931958244	1.0092687581329938	1.6718667703379633	-0.2295098000930746
148	-4.176635254805351	-5.195641981358583	-4.846054541750484	-3.7865235709910943	-1.9230925988281296	-1.7196265415644272	-2.993983738015869	-8.116387346756627	-3.823905935169784	-0.9907597874422671	-1.6434817272654025	-4.81144570089548	-8.395596483014582	-2.5909771853834602	-1.20027446443786	-1.285537835690181	-4.4759392625335686	-7.739093284141088	-2.3980872570527114	-1.0819421979290642	-1.4794870577652035	-2.522556775399955	-7.803060988752534	-1.517794009191315	-0.19426990996426569	-1.0213785145721461	-2.2489893379650363	-5.475074277406014	1.0885598632031885	-0.2017683828743347	-1.4105073177965384	0.7324244361505314	1.4443144761813373	-0.6231035574439961
152	-3.0078062935229624	-4.16619538209001	-3.7051710988911917	-2.8035817075517637	-0.14198258483325513	-0.19730606625333016	-1.6708480077520342	-7.298436623266334	-2.8999056742885494	0.6248792990166613	-0.03594896933300848	-3.569764843511014	-7.603634815092218	-2.1974074785066446	-0.012890785899994787	0.031204538341058834	-3.6124584583629398	-6.482982142292932	-2.736829273943442	-0.27225822141573297	-0.40450760620031984	-1.6879928069412307	-7.7807435792935	-1.6438864428024056	0.2149749988850357	-0.318899153857943	-1.735175724417015	-5.812289700138612	0.9001781917732891	-0.04367927823363636	-1.2829641071352778	0.3978540887324535	1.2691688505554224	-0.8451366403222897
156	-1.840974207044797	-3.038884393648966	-2.5779678756476287	-1.8437589360416724	1.4701501093940017	1.3660774196466892	-0.2693169706220725	-6.332330210910596	-2.040821070286875	2.196694130119774	1.7370293096555602	-2.106950754568156	-6.599639399078479	-1.9709191272565736	1.2128554551974169	1.598981614844185	-2.410354608172252	-5.1887569296486715	-2.972965709809657	0.6865469199966772	0.9682330464713096	-0.4602853644194036	-7.391016941483519	-1.7435097650377582	0.763115046481828	0.6847152096627093	-0.8033693412524796	-5.663216576583101	0.8017849901937051	0.36785930302250797	-0.67834299631515	0.09129056311446893	1.2399151293920982	-0.7285181861603938
160	-0.835270998753265	-1.9489891479876007	-1.5901744325544094	-1.0135080788772952	2.5848846370284813	2.7153980663406903	1.0395127508621158	-5.266496645028569	-1.3101648059191415	3.4264662179267633	3.386954299004915	-0.5858280643931187	-5.561381325985717	-1.8019022896095696	2.3061239661166835	3.2008759894619	-0.9872371529449353	-4.072401036471105	-2.9664058610408186	1.6722576575974133	2.444309228447853	0.9947646831192589	-6.662928564415515	-1.8142954065292687	1.4215676748624246	1.8597601605190954	0.45608588938003375	-5.045565115587588	0.8621799924063347	0.9883235071978688	0.38006973170643177	-0.10159146015028646	1.3738681043270318	-0.25909778410345513
164	-0.10640894594744965	-1.061491009893235	-0.8182267525995508	-0.35115396887813094	3.1349580208783268	3.7025484945276963	2.1192657894033964	-4.199997891312528	-0.691758869331968	4.208468426569463	4.695621478623211	0.8015464524059162	-4.677480208985175	-1.5214945039482075	3.175741664497892	4.6126332166562225	0.44674643761375765	-3.297445288915962	-2.6926925114358577	2.564560406885703	3.7906029128692227	2.409697526569907	-5.776324257571945	-1.8391692591962656	2.1181628650592574	3.011540643718002	1.8051223709307853	-4.15426491642189	1.0844566794672104	1.6821848111596909	1.66272389468966	-0.13814231718471723	1.5962803323497845	0.4145283092523363
168	0.2817803018131398	-0.5294551835997776	-0.3076543800215872	0.1470247056348484	3.299098960176435	4.3109502683517364	2.8899440692416785	-3.2820088780510046	-0.1470257636172905	4.634682166795867	5.5707812168616435	1.8839899253962757	-4.078462113573723	-1.0201942894927385	3.8120198153572646	5.669869408597553	1.6603084760708804	-2.93439745162151	-2.241540664735551	3.2802536404760905	4.817117202040829	3.522873631166024	-4.976500975442135	-1.7878534748714798	2.764740221672656	3.959929456249698	2.9595632478378797	-3.2669198430549207	1.420369144668307	2.291503900464509	2.8413343357828635	-0.03199063233404923	1.780122275626473	1.0553230020581608
172	0.31547796646576276	-0.4388680446988495	-0.09775473897810374	0.48600229498229747	3.3656558905503875	4.620418060081392	3.3342702304581198	-2.6817319325450737	0.3185541919771763	4.901916968367257	6.042963966371401	2.55886101076667	-3.807800521773557	-0.3386775544675685	4.253060806980559	6.306891425421845	2.482851260592365	-2.9507572576409964	-1.7570356086239092	3.7908556365624326	5.436336026771397	4.178781975686162	-4.462003219783109	-1.6248308379158238	3.2959291851752828	4.609973895831638	3.7096819783964046	-2.6207697325341934	1.81422054309562	2.7177343299914076	3.6408831981288206	0.16966383116324615	1.8207589341923933	1.4563749991840296
176	0.023069931135940233	-0.7726338486237805	-0.2268368298048708	0.6474034769878999	3.559325209214251	4.742839801257903	3.493154755356047	-2.5329961712781395	0.6288632138587452	5.18163345936026	6.218930228744512	2.8211948800384223	-3.8366308115414656	0.3275291613415712	4.5443143729871585	6.558436377179333	2.8609373497256803	-3.2367334284125064	-1.3617387975644424	4.117290009593856	5.677421078652951	4.378382671745939	-4.304641712764637	-1.323436614509901	3.694556703776389	4.97839115793248	4.002631654170449	-2.3211984575794786	2.243275636731293	2.968988649501705	3.9585349459840535	0.4258581389165718	1.701067920204728	1.539516445087704
180	-0.532562016096206	-1.412704106578834	-0.7114561182179366	0.598048268238761	3.9249863525476374	4.7640476106526	3.449940672747257	-2.877230398543187	0.671202002261219	5.525848374720449	6.220653995067064	2.759199373908325	-4.106038083200145	0.7258061748299607	4.714875209348526	6.528501970974393	2.8633937763399615	-3.656118622132103	-1.1047524185898576	4.308172691912216	5.653729424507444	4.259702671740402	-4.438452709436074	-0.8791094400145013	3.9910838503208206	5.164706693961102	3.9503717322748053	-2.318558687078331	2.7289304664377494	3.1468074242297575	3.8929819962441634	0.732981620368485	1.5085916481076762	1.3868766988071277
184	-1.2676076857034069	-2.1896212045700043	-1.5175842008422353	0.3200659445787978	4.325024117040569	4.716729629052096	3.30264972806603	-3.634897222878431	0.36939856316762376	5.857435688488985	6.138535484074442	2.5154654916196413	-4.562992561263975	0.690154729531178	4.777019488671607	6.34278724976359	2.6358947687356302	-4.096679677156878	-0.9607169007841093	4.413730133357135	5.50362061064693	4.023421754215616	-4.71165512802731	-0.31648084441389907	4.23838757398538	5.286610113147954	3.7641119861935524	-2.45138096190473	3.3143472587829566	3.3823993120626796	3.6766922381079916	1.12811422063201	1.394653793628496	1.1933485239417354
188	-2.0955595917246015	-2.954513542345258	-2.5469012196133938	-0.16167773265550078	4.536147582999233	4.587106693130583	3.129207364764916	-4.624447810895193	-0.24961058732431501	6.03708933259717	6.011592849812422	2.2273316327127097	-5.165163503957507	0.24313336549408793	4.738954055265515	6.1022534216355275	2.3269782007594664	-4.503627765729043	-0.8712629653867898	4.467685211345912	5.332519517786682	3.8401973150572415	-4.970716463890577	0.3134913138580924	4.479911316051372	5.416262612973201	3.649488916719764	-2.5313589508995826	4.025326241820671	3.7599809074838895	3.551561823461147	1.662450905417278	1.4958077631378162	1.1659470767147748
192	-2.948070995517041	-3.638725986830556	-3.65760802299199	-0.7770957927157561	4.3810639270797465	4.339361179840065	2.9549634382028866	-5.627655968762726	-1.0433558199289512	5.957493767002231	5.8312177510856955	1.968764300144094	-5.858641609659036	-0.40648221866977596	4.6139359357691445	5.852090343959023	2.020519251490476	-4.878412234387294	-0.7947344759903145	4.481931675085577	5.1797160971519665	3.7812633418936574	-5.1279530395739155	0.9471122002531197	4.729685294607765	5.550685391717067	3.71322630898438	-2.42612146718701	4.841526972944776	4.2702526938390095	3.653703441931902	2.362403625245831	1.860240454745483	1.4222969972940551
196	-3.7931017779904774	-4.272885311782803	-4.716197478784885	-1.4379841052943048	3.8189391993424806	3.941519012036536	2.741308920614871	-6.472189886918569	-1.8087109281650724	5.606995091587106	5.560413823394166	1.72584402125454	-6.557572825088007	-0.9670808290860656	4.418622482587947	5.577490315660622	1.7135894255289492	-5.242467390175907	-0.7262971978923806	4.4538755304420565	5.0214180819571475	3.8057491683241462	-5.1782441008483096	1.530200000714253	4.975635039165024	5.630296692938187	3.9275033374808577	-2.1022977775901577	5.69948194972152	4.820223796118679	3.9653756518383645	3.2044370093503702	2.421614640797632	1.939499611726159
200	-4.638104903908808	-4.952702032936303	-5.6533312654813495	-2.0766265339873686	2.952743522818477	3.3791816149272487	2.403668874393966	-7.093317967625762	-2.377888196663646	5.067301260552242	5.154386507372167	1.4151986801656753	-7.1548609552938665	-1.218900796673853	4.161276806815564	5.221610532928762	1.3424030508481237	-5.594813809574404	-0.6852949840409757	4.3769340404629755	4.798589217468467	3.8005320929894175	-5.169734464944502	2.0373876043379022	5.199411379084662	5.587101922234256	4.161441315634728	-1.6204121071912014	6.523077471476369	5.288619028090392	4.349472034917076	4.117015828228581	3.0326249522890367	2.5736541683068355
204	-5.515922532460353	-5.773482784953386	-6.490594370667268	-2.672717326092003	1.9640001008992256	2.6571109227805754	1.8533741188939834	-7.544027309444373	-2.6999921730537806	4.456644046975595	4.577060687906923	0.9350577569241793	-7.566837768523745	-1.13374578666546	3.8334190748704975	4.7175440669162505	0.8364436605316153	-5.894293293376396	-0.6848524195546358	4.246773709065525	4.452600944721398	3.6476435569221772	-5.153524385792313	2.478708976209513	5.394495473593343	5.391826139188462	4.259573448870855	-1.0937328311008947	7.259661179333471	5.592142567820894	4.640301692691103	5.006541239495929	3.5377554804173914	3.133912078574449
208	-6.464478953252734	-6.775560361921674	-7.325335007292661	-3.2552208818265234	1.0177973483137925	1.7939104988582626	1.0444656584118668	-7.957069376882988	-2.863669388216707	3.8577995202892894	3.8128259085711718	0.225069417981292	-7.797796706539263	-0.8834247566806998	3.415230742414969	4.022148599006428	0.1710081990215997	-6.0813741530420025	-0.7059672457037185	4.061574925658595	3.952913751158768	3.286965361879433	-5.148988233917779	2.8887276576541736	5.568927750832387	5.073478685921167	4.127095212053231	-0.6349892600240035	7.89843795689552	5.7254142616677655	4.739150035337042	5.792650208153284	3.846260537927065	3.4732310684251484
212	-7.509045581932596	-7.929843882566959	-8.277544000707655	-3.878568877918126	0.1945774252270467	0.8162652233495898	0.0003824028526091294	-8.477048852498877	-3.0475685519522355	3.2739069379164305	2.8725788520766593	-0.6981864553943836	-7.969355086233072	-0.7387821059648021	2.8897020743845014	3.13681506318626	-0.6141201838247092	-6.1239418828844805	-0.7023258191496493	3.816782226462794	3.3054780876627707	2.742438071002645	-5.143319593795372	3.301729193934443	5.729739651518906	4.700009334141918	3.776919116974816	-0.3151635817676887	8.459405877689905	5.752252087375153	4.661791312845587	6.432537539453984	3.965817441464324	3.549772730448086
216	-8.65333554944149	-9.16479299138749	-9.423622107555298	-4.588248241284439	-0.5184768425248951	-0.2420752787438678	-1.1917328804445328	-9.194195724162375	-3.4255435380279695	2.6398322515595516	1.7959986879780514	-1.747273440717953	-8.282487848351424	-0.9198397374771274	2.25788735773322	2.109729523100569	-1.4378532134947086	-6.060461982684644	-0.6344680770114033	3.50157784531586	2.545094245206945	2.1047217792777633	-5.116251932578311	3.725055923593795	5.8620815129096275	4.336912144201716	3.3195631420247924	-0.14656476639460034	8.960990883137391	5.758327946429637	4.518101680792597	6.922176820444326	3.981603373965362	3.4318745049614483
220	-9.877330755091434	-10.40878388637904	-10.750030490436908	-5.395042882649578	-1.1899378269670093	-1.3397934402971563	-2.415513986210984	-10.110825513107873	-4.0789656536115135	1.8738777590170823	0.6470252259131102	-2.804388039184249	-8.921366669065069	-1.4753843508663822	1.5427486857564232	1.019676325130948	-2.223378891099765	-6.016889080115212	-0.5081436621234326	3.101072780409069	1.719532008598052	1.483111139367687	-5.073530184334122	4.122719277463449	5.920500740362231	4.009500016579866	2.903621427834466	-0.09321254468272125	9.389723754064223	5.795104012163202	4.439962375875133	7.276325207459123	3.9946870702976853	3.2513422883914918
224	-11.14006516505031	-11.620965928301484	-12.149181335293063	-6.269028647807478	-1.8913577747276493	-2.4291484294596413	-3.5694913774014747	-11.147597284782268	-4.9598936909381655	0.9375070905857504	-0.4974651324110135	-3.7725076580168375	-9.940296147998868	-2.2645196857499226	0.7804624418581045	-0.0490172355129545	-2.9359929487488294	-6.166009410549266	-0.39080968400513694	2.6058626109135052	0.8759040214358633	0.9550783610072381	-5.057656275377618	4.420748699471007	5.844044670608975	3.692687025283795	2.6401052408319337	-0.0965031681008506	9.695096945126725	5.848930344119589	4.501266468127582	7.504405956394993	4.057929505593336	3.13132809802067
228	-12.38324352952633	-12.789694753780902	-13.458868946427337	-7.152600270332534	-2.660335534054783	-3.460645905340468	-4.596550453024952	-12.182190864323491	-5.922689899750015	-0.13184183802696411	-1.5633460243808726	-4.60958098201427	-11.20181843790465	-3.048061124735416	0.007576241604482087	-1.0284522745869402	-3.589388123033003	-6.642977697766668	-0.3913720836294952	2.0249111601250176	0.05515247941993649	0.5383815155741585	-5.126415239742593	4.534699428553426	5.590681061934692	3.3342745219925325	2.5494584972863805	-0.10389355543847295	9.815907453549736	5.853269085411125	4.674364078164185	7.600786666753462	4.146682728788445	3.126438132975643
232	-13.53249069611939	-13.90055366821258	-14.522229157976009	-7.9806141651841385	-3.4926953227552784	-4.388401974088807	-5.482472882734014	-13.09507843526086	-6.79717539024845	-1.2319921224006882	-2.4935560163484194	-5.3255557879458655	-12.41159054483562	-3.628650417703162	-0.7458150367980283	-1.8771139335923468	-4.214007366985165	-7.466979484779281	-0.6064854844993499	1.3952622378408268	-0.7052445989922862	0.19940827736576705	-5.3161463603268	4.410304058384096	5.173192011169903	2.897406332330138	2.5583443577070613	-0.08969845600131256	9.725206350568284	5.736119732679555	4.846590506714951	7.55583284377736	4.179728020605649	3.2049369731094837
236	-14.499856912243919	-14.900604210426465	-15.238528213174364	-8.694826104146307	-4.352410782315663	-5.173529135039901	-6.230565055375292	-13.799561465708774	-7.457598190552478	-2.23838018805896	-3.2566339887412905	-5.9518213121825685	-13.24254986280601	-3.9535772700627327	-1.4505588971708208	-2.5775453979265275	-4.815839278460071	-8.502096154681732	-1.06226408213402	0.7806375006993679	-1.3679813112052979	-0.11327391834270348	-5.611530289787326	4.057891835457933	4.671103465684625	2.394328349744087	2.5437612469345536	-0.061454329484515964	9.462315535497156	5.470990643993473	4.88390635211024	7.379304867233304	4.074654568875084	3.275391570404748
240	-15.197123489157807	-15.691309889277294	-15.588811835031683	-9.251115775593373	-5.183551775242868	-5.786396012002083	-6.834671480089084	-14.255236589680374	-7.858817080683297	-3.051179401323612	-3.8471419714117783	-6.506293280387154	-13.493364300038975	-4.1251778498449365	-2.0676357693921483	-3.126805059167954	-5.355346666166549	-9.489164328459156	-1.6869304137554364	0.2571939521494911	-1.89682876584848	-0.4323783207944123	-5.9455647318455815	3.561524859019489	4.208781708581611	1.8913071107797181	2.3993050991516873	-0.05306683467341506	9.130844093157773	5.101326452727078	4.70442341570426	7.118008595615182	3.8041484259881	3.240625850125091
244	-15.562750777053047	-16.16433521004347	-15.630594214076583	-9.622633909726181	-5.915678009356341	-6.2089872203467635	-7.270321827652503	-14.469521485989942	-8.029585818045115	-3.623847713857866	-4.278649319336609	-6.975499135525765	-13.199433293395826	-4.311905850014363	-2.5460493500324146	-3.5274584204305715	-5.761017307995113	-10.145229313985368	-2.3291099012698315	-0.11033949228085255	-2.2631883564075808	-0.7503338437209761	-6.233764632698757	3.0561735552874434	3.906184186610001	1.4814255200176947	2.089834923236247	-0.10858505936864082	8.85761258749996	4.723665702337806	4.322195519025249	6.851261598455401	3.418776026677258	3.0488111895833754
248	-15.589302023629077	-16.25805659957735	-15.46723075776296	-9.803996061367895	-6.469511492607704	-6.441146357486448	-7.512466411696908	-14.488241159099418	-8.038101175994807	-3.9672343630763476	-4.576130855450775	-7.327878933525251	-12.630376783907263	-4.622638213884381	-2.8423430847884954	-3.78736804959614	-5.9751176683249225	-10.290745709186822	-2.8154752183402167	-0.2964116327431487	-2.4582934317511693	-1.0261975500900695	-6.422062857626182	2.679492705255805	3.8230509661472847	1.2376545636400542	1.6660069185155997	-0.2643856101513534	8.731151558766507	4.437249649288965	3.837141504136612	6.661727888454191	3.0221731586447707	2.7146873405581826
252	-15.33957954348564	-16.00476642382525	-15.21359344456056	-9.816207860958645	-6.772761804647247	-6.508425696153254	-7.567657928433784	-14.386138879694116	-7.961135844157877	-4.131784905492318	-4.769989001628811	-7.546570758839807	-12.170472114353078	-5.027675139131292	-2.9512188360089717	-3.925731887442606	-6.000862583268468	-9.943305944133847	-3.0242130680024135	-0.33248889362313166	-2.503601544734922	-1.21459972551772	-6.519906027545168	2.5169522698751647	3.924439181909981	1.1722031802146047	1.2341042725876163	-0.5345347510193564	8.752137162046044	4.288495529791486	3.3794810686618444	6.593350393814816	2.712844126527802	2.304697746180099
256	-14.939887009094376	-15.540051421031254	-14.967164955497674	-9.707979177760217	-6.790403348944746	-6.464514716039509	-7.494531135710696	-14.25360199190618	-7.870740393794062	-4.184934605522923	-4.891221510935765	-7.655379752858304	-12.138383834709972	-5.37778233124052	-2.928243391273278	-3.977293242903246	-5.917059406600168	-9.324339843096489	-2.9395229742220947	-0.30310144943959166	-2.4509785113442226	-1.2966664996788075	-6.594476683179648	2.564376347743101	4.087862481286805	1.2255660264543882	0.9000961757822852	-0.9046590901422554	8.824794747006644	4.242284287232377	3.041064969967923	6.6207041573260765	2.527403825100852	1.8957897376833786
260	-14.54299636983764	-15.05630012525554	-14.788332901810998	-9.551128363336892	-6.5581002069836485	-6.382892592527323	-7.392812233379621	-14.173694574810565	-7.83480117727103	-4.19535445107767	-4.968323695036755	-7.7183222575822015	-12.63397308974535	-5.513185964016334	-2.8879232333703158	-3.9901049036375014	-5.8479671330624505	-8.768525101457794	-2.6656818322590583	-0.3212805084223194	-2.3724822938147456	-1.2961767879185693	-6.727883798779107	2.722926848212551	4.148819912926116	1.288969871127683	0.7170135360734734	-1.3340096440013343	8.794561363904265	4.194617260832949	2.8309125828794883	6.646534902957882	2.4172894893650705	1.5348525008550946
264	-14.274152719698533	-14.723673783321903	-14.691292725664399	-9.423327422192273	-6.192750438313783	-6.335455878474726	-7.361445885192212	-14.194776499195815	-7.914089182899705	-4.2233400238219545	-5.0235676638609	-7.809464911771034	-13.48827072552791	-5.386692033519051	-2.962310068280774	-4.013798226713058	-5.901436790825402	-8.57492730836748	-2.3908345638947535	-0.4887432741700183	-2.3413956106199163	-1.2721139160463388	-6.963176232877434	2.832259171010854	3.9652638335250483	1.2491472927980496	0.6623468382325202	-1.764941926314824	8.515146233994486	4.020256509167455	2.67739438334643	6.535006506633019	2.2725477161251617	1.2209339111020086
268	-14.183237039996433	-14.61801048402813	-14.642789803728752	-9.382872557792458	-5.864179596400424	-6.365436061046739	-7.447545032771464	-14.307201349375836	-8.142630556529236	-4.31370352609625	-5.069251047687211	-7.970326880359036	-14.342859231976238	-5.123023973882014	-3.236613980704678	-4.082552899543619	-6.111780151195215	-8.858485199497268	-2.3150126875603063	-0.8541435577762035	-2.4100909172244314	-1.2920745578569048	-7.269293289904855	2.7298562457780635	3.47496604042089	1.0349849436378298	0.6544097645449788	-2.1381721442598374	7.913411597299609	3.631931534180474	2.474189752054053	6.16801260344582	1.9813256213709247	0.9161444283243173
272	-14.223984682410645	-14.68839260207553	-14.571880303785711	-9.448328948008056	-5.731883988213931	-6.4681224659693655	-7.617068271479201	-14.440984689492167	-8.498741128445085	-4.485234726072111	-5.106398569566079	-8.181581476535875	-14.821393929254382	-4.969860064356606	-3.696744194234123	-4.202353466868105	-6.420789702416994	-9.486678099522562	-2.573579066454608	-1.3886289561498106	-2.594163888103686	-1.400563117305898	-7.550415973673848	2.312190288428028	2.7209243705717325	0.6434523447003596	0.5972098097028224	-2.4080798565147874	7.0198340238720816	3.0208456439996847	2.143351072622006	5.497786984868202	1.4916723928937403	0.5793535694753832
276	-14.275143587310778	-14.785756073814573	-14.392360650918642	-9.592223143201398	-5.873780712556604	-6.591909868763522	-7.7681736749978425	-14.494287454250168	-8.890626884901957	-4.720792758466886	-5.128468500540631	-8.36916921409937	-14.70929332834112	-5.16195152886796	-4.2229623687936115	-4.350807655793831	-6.709355337369588	-10.142244313382552	-3.1876051345454544	-1.9925986478088327	-2.869291775134885	-1.5986411531140876	-7.700275878538409	1.573261137804936	1.8337752772762903	0.13440991904178923	0.42859342586073096	-2.5586190159094926	5.951158985371497	2.258571380634936	1.6784791904033607	4.570857990168677	0.840382335448429	0.19736087272406277
280	-14.194046938345606	-14.735995255458763	-14.033228838776045	-9.750507330118664	-6.243702395887778	-6.66233824001515	-7.783647994416781	-14.382419549869521	-9.17776582308081	-4.966223227360174	-5.129251467152424	-8.44479367985082	-14.05331226615454	-5.775529370031228	-4.640432822909277	-4.490411270248495	-6.8629975145634665	-10.48748585914176	-4.060426701784541	-2.5340347226060835	-3.1822829166176074	-1.8453165246150105	-7.671009521190424	0.6057444795573732	0.9799727176719859	-0.40018299120956	0.14603215419139337	-2.613964074210922	4.856227385657905	1.462291117790919	1.1456785173100765	3.5124454409610295	0.134705483573323	-0.20552578516568284
284	-13.87977691960781	-14.422423326318816	-13.469613041248843	-9.844865774094298	-6.685209257413462	-6.618713839032762	-7.593564014336395	-14.085164034567773	-9.228390670365105	-5.143720137007252	-5.109837519142357	-8.35652063167281	-13.133696522931912	-6.663379175528879	-4.80228804329531	-4.587706077436931	-6.832259637748982	-10.347681973081157	-5.019997584066447	-2.9015440867599986	-3.4712059410193725	-2.078601355073081	-7.514862041573672	-0.4341886926656045	0.2987690262403859	-0.8761240221791738	-0.2003803993172769	-2.6369652681530935	3.8544223211248423	0.7418587785110503	0.6431701167080607	2.4786372122173845	-0.5022652732565908	-0.5839633926906732
288	-13.316492047067566	-13.837246859900736	-12.738729444766511	-9.807729696307199	-6.998691064330736	-6.444501860560251	-7.212700348763559	-13.66345497496354	-8.988088585095344	-5.17847441319514	-5.079743372489823	-8.120480516912309	-12.327082602849277	-7.514057617289814	-4.662360179573887	-4.6275448682299025	-6.65393541563451	-9.80866715815786	-5.890846237568449	-3.0486614627160775	-3.6861853506481106	-2.243653053341058	-7.368794899455884	-1.3842105830530558	-0.14645817838884986	-1.2466475932117702	-0.540121613569338	-2.713154785935587	2.9957377834978907	0.15527027806180713	0.24410968957304385	1.597302313586523	-0.9936191414542129	-0.9045990682651182
292	-12.57166191741732	-13.073330846204438	-11.925700157573607	-9.59832951983393	-7.027558308978312	-6.173202975899756	-6.7295498678056624	-13.227017369253916	-8.514460542162722	-5.029604899105667	-5.050233828191768	-7.813864211381508	-11.924768417768831	-8.002680758298592	-4.297895897504569	-4.615070808202803	-6.422389967915883	-9.17201325961877	-6.5587940050470825	-3.00797986224811	-3.802585592206035	-2.3145122469640356	-7.383520107701177	-2.1281461661967715	-0.38154536389341054	-1.5095212421452462	-0.8197492340372047	-2.921137802378254	2.261412853253494	-0.30554294509039465	-0.04405864317022243	0.9259324050413958	-1.342708584256471	-1.1717015475254415
296	-11.757970780250501	-12.269985167995875	-11.128581018961139	-9.21187303124665	-6.721233827787596	-5.868419155563305	-6.2548041185770344	-12.872430768891839	-7.953942755644543	-4.708669650587338	-5.024877535531177	-7.531709175167612	-11.9956321413448	-7.951695422123606	-3.8682899377432722	-4.566730010900535	-6.2288164935205765	-8.786685921419267	-6.997783643220966	-2.8679108547282155	-3.8225884341049956	-2.298770898737177	-7.635261516367349	-2.6231715612939985	-0.4952754067791061	-1.6915143685549594	-1.0235073540595692	-3.296978703757838	1.601197238694182	-0.6937071663508222	-0.27870854665007305	0.4452708352291012	-1.6206539828390891	-1.4256714546448492
300	-10.982838602947268	-11.546980828695798	-10.420777294551883	-8.681117989556894	-6.149284824104675	-5.592119679637358	-5.862595543364873	-12.627469030923882	-7.4721183588202615	-4.277000893284863	-4.996840941211094	-7.336377125337291	-12.36366650320857	-7.412758808494056	-3.5337901026197858	-4.49985884484012	-6.108673080280208	-8.840364433856983	-7.2551688964773815	-2.7264358928509083	-3.7689289951535585	-2.226585382562006	-8.069257715833137	-2.898352138831046	-0.5902299270033124	-1.8237788631169587	-1.169107672600655	-3.8086550139588997	0.980049786477486	-1.0673135492080634	-0.5415930138265483	0.08509147890780337	-1.9183744143689114	-1.7151066021532315
304	-10.312402699183412	-10.962181063631746	-9.828669523219663	-8.071458796149846	-5.466418252495007	-5.381264196160928	-5.561253533627641	-12.432792632184436	-7.17210481740243	-3.8286104105607386	-4.958899962302979	-7.232283097127203	-12.705792394983947	-6.629977686355398	-3.382673016590797	-4.430605877180494	-6.031702980071707	-9.234398818543294	-7.404360275647829	-2.6468145780494914	-3.676458587901062	-2.134031290388456	-8.510060288877932	-3.0274896545267334	-0.734252689415111	-1.9227867077919145	-1.285529252621355	-4.355159271688606	0.4079882492255134	-1.4522380792191936	-0.8821827747006507	-0.23195297957508823	-2.2896861972220277	-2.0585069604399764
308	-9.770523046620863	-10.51432320801199	-9.343061423554593	-7.473728161062291	-4.852013098864346	-5.250030981160229	-5.3146262034702865	-12.18282028937073	-7.052835446670842	-3.466249457190944	-4.924426543200563	-7.181694012629684	-12.727066961580624	-5.911173805571326	-3.4070479783822836	-4.383336056132848	-5.938539966848669	-9.63195702981983	-7.48945186631434	-2.6395955019111015	-3.5876214413663208	-2.0514800496758574	-8.745192505691508	-3.091046087090268	-0.935431537650622	-1.988416547523371	-1.390226360625758	-4.798558699890419	-0.06328057481762983	-1.827906842385101	-1.2795630661129807	-0.5509235845007753	-2.7177343299914076	-2.420171254723395
312	-9.370950675193162	-10.18674466422235	-8.95891759517876	-6.993652326092725	-4.461672771633308	-5.216916071118104	-5.100666033264634	-11.809016197907269	-7.037148934717037	-3.2847399628677176	-4.9482288235664935	-7.153300744116166	-12.32999130950697	-5.485623345830308	-3.54282950460502	-4.405446995102902	-5.801575646057996	-9.658080076628876	-7.501942138804778	-2.681745999241205	-3.5533153921060117	-2.0037591406776887	-8.644103982081985	-3.147378913562421	-1.1532089681119868	-2.019837135937389	-1.482959981988918	-5.021811949448829	-0.3750437488623707	-2.1434991305592543	-1.6474564033875696	-0.8690699316971058	-3.123790017824248	-2.7197146347044256
316	-9.158767677071648	-10.002181981582856	-8.716727234767282	-6.7350268193909555	-4.405473697983694	-5.33235930050193	-4.962973105298067	-11.353507013266302	-7.049483281457137	-3.3602633391418832	-5.1264042724879815	-7.1675343332525925	-11.68151375682293	-5.425707326541884	-3.739108553029141	-4.569950569058908	-5.667460904117551	-9.14217279033376	-7.398725014126412	-2.757160895062153	-3.6310431865569845	-2.0166811892137892	-8.242073038272798	-3.220612756227255	-1.3366628851521671	-2.0350937791941575	-1.5563125571058447	-4.98353003197346	-0.5050247894887899	-2.3520541131717416	-1.8788876486070947	-1.1467816800727941	-3.410674324961263	-2.8725886272383776
320	-9.223108268339868	-10.044025395783851	-8.710808731974607	-6.77697227674355	-4.745103824079335	-5.679468140567948	-5.0156469218459865	-10.981907816816806	-7.087708932147979	-3.738265028098409	-5.564541802662308	-7.3042149359348505	-11.14194008875163	-5.659350857751307	-4.007869233502929	-4.954491125949365	-5.649443135303177	-8.261391618851464	-7.153462391912388	-2.8891241477502185	-3.874660482160782	-2.1214680618129975	-7.739662627706545	-3.30742000698465	-1.4667489491624155	-2.080469603054204	-1.6144273240337041	-4.741447913596621	-0.4936876284532656	-2.4434843001662445	-1.9083888482549014	-1.3374128307908377	-3.517694702803855	-2.8397805619067813
324	-9.66219804231672	-10.422792408377362	-9.048526741070681	-7.145967942315831	-5.492437348803827	-6.335271342494968	-5.386865602244199	-10.915787669278664	-7.238776188694062	-4.415438640890663	-6.320598586336945	-7.659935455056274	-11.086098642969764	-6.0508236732302185	-4.41668652373053	-5.598877415826352	-5.869315132581306	-7.481676559632311	-6.808749658560292	-3.138196460430087	-4.312802303869522	-2.3483471811132297	-7.412743072867875	-3.3938522253180654	-1.5764776428474743	-2.217877859238043	-1.6838328795835695	-4.4317541010545485	-0.43593492993918026	-2.456070893762396	-1.7555072263264373	-1.4176081383199923	-3.4549422176870217	-2.657338135685886
328	-10.513705227056521	-11.200844736430058	-9.776145910376197	-7.797085742338177	-6.594772322216988	-7.306732636123806	-6.128007396485056	-11.313932390258309	-7.620414714647021	-5.318102823181968	-7.349320393126878	-8.275547006694143	-11.703066796319296	-6.490528090302445	-5.026113497442119	-6.461470110792069	-6.379476531134581	-7.312820416107216	-6.4882111385565855	-3.5630371480629117	-4.924186217273435	-2.7092790535234976	-7.473718147481994	-3.4713523300265714	-1.7357466177032324	-2.4941465791673627	-1.805826063365227	-4.209113110405726	-0.4420841027065531	-2.460001224028962	-1.5238527021081472	-1.4035285675852762	-3.299784890426779	-2.4267406402353737
332	-11.68790814309829	-12.314632384680026	-10.812408419966918	-8.616187073888309	-7.913526991891603	-8.480101563977986	-7.143441659058049	-12.166518180647241	-8.281475999904272	-6.294836982092904	-8.483166673223176	-9.07927987667419	-12.879788366224336	-6.936660272251021	-5.814377770049111	-7.40337799110441	-7.113757592360534	-8.008904436871745	-6.355381472754253	-4.166177739115201	-5.625481114489652	-3.1806321063800764	-7.95787141698106	-3.5437512308294994	-2.0073661753518093	-2.9087436125749515	-2.013759607952855	-4.175570477433772	-0.5876505956118143	-2.522173398325728	-1.355139728939441	-1.3456177677513235	-3.1585442940121364	-2.268341297144693
336	-12.951078382218663	-13.547489132055643	-11.936464279555707	-9.444972968097096	-9.221731162630453	-9.622940039180975	-8.191746691048785	-13.268123593210193	-9.128368354638631	-7.140521031471429	-9.47081468098351	-9.886635755373117	-14.233756983106186	-7.395202141210501	-6.640744669360441	-8.218684175721986	-7.899738768659813	-9.392541861662089	-6.535276873301037	-4.860012519010166	-6.284948809968212	-3.6971423532602175	-8.70100400635239	-3.625641336823919	-2.401315683024175	-3.399990311621538	-2.3090920390004253	-4.336953152197219	-0.8809654094388316	-2.6723825864077897	-1.361562487025642	-1.3080021109935716	-3.1158854882726716	-2.262727493295341
340	-13.980685198771987	-14.579809152032293	-12.84610649680254	-10.11836430856003	-10.24338433540503	-10.451196644145492	-8.968432403809521	-14.289985620659536	-9.930574392041967	-7.655684928638783	-10.064786885599599	-10.46578595380104	-15.285681685955703	-7.863249758894761	-7.281773548814996	-8.705695130302948	-8.528462388440847	-10.917609187218401	-7.036040288327015	-5.480637536516724	-6.762794954391649	-4.165206898663551	-9.424554801034388	-3.734525194276064	-2.854704134409386	-3.861480464722745	-2.652794831253997	-4.610362994951749	-1.2654948202607432	-2.8894057200914265	-1.5721286495570628	-1.3444496359259646	-3.1987025657002977	-2.412270539869075
344	-14.479967080751168	-15.104747734080975	-13.27012154089802	-10.506099674402382	-10.733932468016613	-10.738971683091782	-9.23544976763732	-14.921856842513922	-10.416869137213117	-7.721061687049162	-10.12175080604904	-10.640935870961368	-15.68571086737981	-8.28675363355794	-7.531276207029056	-8.750181176028033	-8.846720673159783	-11.947916000718202	-7.718467216077929	-5.852097973353535	-6.965013963280509	-4.4932680016560775	-9.882608388745101	-3.8810312649968703	-3.2523825086494855	-4.185247887535072	-2.9801764412977994	-4.879389273721986	-1.654169912930251	-3.115176908257371	-1.922842736157862	-1.4810109101096838	-3.372097960541447	-2.64667176532097
348	-14.298631631990245	-14.955476723105308	-13.079007115721357	-10.542952510918225	-10.573528263099329	-10.416683170721887	-8.92792794834538	-15.00730796839681	-10.408766720241386	-7.352956276448998	-9.665120100414812	-10.377411816145745	-15.37360092096322	-8.566867806739879	-7.308351975108976	-8.378372171229456	-8.822591759341307	-12.094765632610624	-8.338816621707743	-5.869833454570965	-6.885157090923534	-4.625666606668482	-9.988112424428436	-4.062883843654558	-3.4797441871526007	-4.311159123026503	-3.2310018457853755	-5.062527643773522	-1.9762190530473307	-3.288153163237518	-2.2938907088538683	-1.7115524964035378	-3.5663604646286178	-2.8665285038100747
352	-13.49913498331298	-14.181916201071544	-12.338041274391433	-10.236979458712216	-9.823300336831851	-9.603265738083186	-8.178697565410344	-14.60284134038967	-9.917210553879908	-6.701117975482426	-8.872850395689026	-9.796386694016501	-14.592756234519136	-8.60851667138082	-6.707588178865749	-7.747265319337741	-8.545494058014546	-11.424247712855767	-8.653807618226919	-5.55680130509274	-6.6088685822521995	-4.561288822102017	-9.849385236668338	-4.266593445496198	-3.480988970550947	-4.25521706460451	-3.3763592157949702	-5.157018648478803	-2.2121367398677725	-3.3774263773523345	-2.5723729068659784	-2.0071501681196886	-3.7180244828766846	-3.0001232548308123
356	-12.330799071650928	-13.032776799675968	-11.272912950664608	-9.655974363743567	-8.711029030741141	-8.55259797797952	-7.247482758343711	-13.926865542535799	-9.145288444317593	-5.98478744903171	-7.994427660785249	-9.111660934331693	-13.747402156453255	-8.376854875395885	-5.960312828274411	-7.073851090691268	-8.164845445999516	-10.409512493554933	-8.5379152082412	-5.058909403426212	-6.27578972185657	-4.347825039376801	-9.695089315732213	-4.473705757290184	-3.2901635086914265	-4.100225915093481	-3.426037541322621	-5.232246862552786	-2.397600644733994	-3.398464671137719	-2.705950253330486	-2.331557744815287	-3.801134815155865	-3.040327541304624
360	-11.118093462530098	-11.844453781741137	-10.160520527936018	-8.90098855632355	-7.5412707138397606	-7.535954933213533	-6.389003737531426	-13.227207150442403	-8.384390809825101	-5.391607270933399	-7.23597810825679	-8.521034219209113	-13.181531872847762	-7.926364401832336	-5.324307428268842	-6.53610275525696	-7.804884414040899	-9.646080946410146	-8.04928777569801	-4.57848023212331	-6.014209732130033	-4.054831494584312	-9.72992513107395	-4.667613971369704	-3.0168497486240313	-3.9512956042664915	-3.4124886903436447	-5.375968919532452	-2.595427506569734	-3.4010746393165543	-2.7187640598319476	-2.654506438229046	-3.8325295351541153	-3.04049658007678
364	-10.122706387711666	-10.896284075883083	-9.209827399843125	-8.080250719650598	-6.572472078895605	-6.72448919505843	-5.736635193646271	-12.6530179657959	-7.867211798832268	-4.990735518252875	-6.673871977168647	-8.112602213404367	-13.007052388730173	-7.380532722912577	-4.95915888487923	-6.1966338001203844	-7.504710178501159	-9.503613447990546	-7.40830085791327	-4.27905272357143	-5.881577000073541	-3.7413043881371224	-10.010169957636906	-4.838701712789556	-2.794033520320011	-3.880199899413642	-3.3640620623531174	-5.629767880531076	-2.855111114922885	-3.4388112935028947	-2.6861317089927055	-2.958364956062341	-3.85321663837337	-3.0748197954747414
368	-9.444732642169967	-10.299974415523385	-8.489422776723007	-7.289110642149743	-5.920550331426559	-6.132347568288063	-5.263513551774382	-12.199876754476593	-7.6590590283617095	-4.71111010315686	-6.240877612569714	-7.838233927964268	-13.071173634906174	-6.875400049017016	-4.857687937869795	-5.987310394429393	-7.21596096124312	-9.920610402809311	-6.899158937201659	-4.211185921527202	-5.840651974236925	-3.4351103219088452	-10.412413570818117	-4.986453997420179	-2.7155425479992608	-3.8880615136210883	-3.28635405664416	-5.9556097833949275	-3.1837696948731313	-3.537578812250723	-2.6855754784490657	-3.2377710260661368	-3.899392594982861	-3.1888840118005266
372	-9.008766151571459	-9.975507711020319	-7.93398330592687	-6.598088724643918	-5.532439694741649	-5.64555595879932	-4.836041915127814	-11.753857582934225	-7.644196014178044	-4.394951809277348	-5.787869915654367	-7.5649018096663285	-13.075359311470313	-6.496674998093322	-4.869371878727747	-5.760382637739147	-6.85450027642574	-10.45989224654053	-6.734762174768821	-4.297950733777624	-5.783140167894092	-3.1336970250166423	-10.711150142329505	-5.1160406937177605	-2.7947573591243358	-3.906078567179726	-3.1639585415112843	-6.254871829453328	-3.542419186231422	-3.6804335024418076	-2.7530040671460125	-3.4945006282316773	-3.9805066485042637	-3.3711988840819247
376	-8.636293389450339	-9.721302007926775	-7.41884420429168	-6.0464262809683715	-5.24293564426408	-5.115059362848656	-4.321467388686512	-11.200972528788133	-7.608709316117004	-3.897212257082482	-5.182989107397609	-7.169057827969205	-12.772351232706527	-6.254691108170825	-4.7935404656501595	-5.375030504007477	-6.370070441375614	-10.58911034771575	-6.956816178877378	-4.382812012097305	-5.587162003716037	-2.821301453143012	-10.719061824438436	-5.231066690589213	-2.9635188504737666	-3.832799424984977	-2.9796831532588834	-6.4271182851646875	-3.867511501084471	-3.815373649501019	-2.86630677453207	-3.730302324413679	-4.075382699213821	-3.5602190404650464
380	-8.158562639618895	-9.335091567312507	-6.851113778936731	-5.640786156717857	-4.8770599242100445	-4.4554095155761235	-3.680492153412118	-10.528854343534386	-7.3685464672970875	-3.1737961688973355	-4.390719402671824	-6.616156561359776	-12.125121086025196	-6.100296958780359	-4.488804805866565	-4.771337973945961	-5.789925560638191	-10.017838452795768	-7.42109106097546	-4.313046444493906	-5.178397165575706	-2.4896330770577864	-10.404980633214812	-5.328318105596362	-3.110953799976407	-3.5886642842286784	-2.737245075944345	-6.432796938867392	-4.104898442394917	-3.882580032082804	-2.963978998330271	-3.9432432551962453	-4.14854906942094	-3.682856073617942
384	-7.506425838592042	-8.719668366351653	-6.222711070562358	-5.354951368163397	-4.339720238219285	-3.6904203798579993	-2.9877102299598084	-9.85268208877183	-6.867661935633232	-2.3070602358744514	-3.4856853397102325	-5.97554872911485	-11.331831903457745	-5.961594566552424	-3.9370999236840456	-3.9915356535270776	-5.206803785529622	-8.88789651534098	-7.870783309138192	-4.010687341100795	-4.561774719164999	-2.145699495620227	-9.918200467817838	-5.395153508870002	-3.136882058806819	-3.1562981525840916	-2.4676313337966853	-6.319783671635633	-4.2345762145894845	-3.8436112306827774	-2.98256468019863	-4.1280736818993935	-4.173171509696909	-3.6983814146126797
388	-6.732431871582566	-7.920937994985684	-5.600820527241123	-5.134714590460164	-3.646607866617175	-2.92400025583172	-2.372078412742767	-9.350274062391362	-6.193086608509467	-1.4554290734738324	-2.598862403030178	-5.366121278566104	-10.70928857006858	-5.782565102282751	-3.230402223060449	-3.1428222576901366	-4.719840991501516	-7.700232486357121	-8.061791399628843	-3.495789280648468	-3.8108467959510466	-1.802551503398824	-9.503866171683756	-5.412536130591252	-2.992255918577482	-2.5863387519387504	-2.21231197752297	-6.194941505050195	-4.272445667924049	-3.6968953516128917	-2.8893680499560235	-4.279456604643409	-4.1458997621766525	-3.619287004869747
392	-5.96130131170087	-7.084193211789424	-5.070151316239626	-4.9125280256219614	-2.8909337447610306	-2.261771673214136	-1.9212353181016175	-9.148936248568637	-5.5089568952709085	-0.7603463511343567	-1.834558601515951	-4.871869074918951	-10.506553623375845	-5.539412484488449	-2.50026487672882	-2.331101650074617	-4.369111050065246	-7.024032098202303	-7.87632940211125	-2.859199278288418	-3.0272767467361335	-1.4636974297761989	-9.360764479845345	-5.364886747166633	-2.691576950907058	-1.970868224890064	-1.9960632273822998	-6.159210666364771	-4.253523815860006	-3.474733105469696	-2.6953718594210363	-4.3947090991644355	-4.086905945949865	-3.498773804414126
396	-5.310216413442357	-6.368337138309922	-4.673166263225803	-4.628458488222713	-2.1736113970237554	-1.738975162883985	-1.617323394506739	-9.238390899221692	-4.959593283529256	-0.26671904258145146	-1.2114994495322002	-4.486447799799517	-10.760864230643929	-5.240215765120557	-1.8373415423734876	-1.608485098592469	-4.1082658663976455	-7.167591553711432	-7.372522335512147	-2.2060031835172915	-2.2957804145070564	-1.1171302767205329	-9.527660345818017	-5.251573072525964	-2.2960009516921684	-1.4010001385602877	-1.8105072929447776	-6.248214229067305	-4.208025444850611	-3.2254116453752952	-2.4460937915079226	-4.475285518791322	-4.0263113873870315	-3.395498744021184
400	-4.8286146995703945	-5.86898086973425	-4.388369072324974	-4.25361203073405	-1.542886491694796	-1.3020793166664841	-1.3482676710420574	-9.46776387685303	-4.601418006723601	0.09397169923898634	-0.6638976318763709	-4.1237058535412805	-11.27750489248651	-4.915527808176644	-1.2528629271346767	-0.9644224619357948	-3.834039678430332	-8.003294924556807	-6.748835069783339	-1.6062496860004565	-1.6590723949506492	-0.7456887941607128	-9.865200971491687	-5.0939288010733925	-1.8805088949408921	-0.9322460270232887	-1.621826406198861	-6.414574606912666	-4.144896496798326	-2.9910983963788667	-2.1989147607599193	-4.5245900039878855	-3.9851171869752893	-3.3381259357096154
404	-4.487682808036145	-5.586842045983691	-4.156142224308995	-3.803995599679282	-0.9793245171616901	-0.8531897046482713	-0.9870898102634225	-9.62719151927278	-4.396313656197738	0.45291098837944366	-0.09712418144261689	-3.6871120836627385	-11.74026104823955	-4.607203948786629	-0.6991860848893879	-0.35849681406108436	-3.4568314465030525	-9.044154144340999	-6.242294772600316	-1.0776761743039704	-1.120018479380477	-0.3477178803247945	-10.141047452118485	-4.930847155519558	-1.5018173418274774	-0.5719159827097985	-1.3986736500712886	-6.562989218354361	-4.051315774225757	-2.7912793089011836	-2.0000028559734275	-4.542986381504916	-3.9615600009080567	-3.312380782347492
408	-4.223907460038784	-5.457583890487283	-3.9345095058286477	-3.338917485390234	-0.4306450773333647	-0.3276745370698113	-0.48814043279428204	-9.566419577287542	-4.258799542165045	0.9183242297828946	0.5396261201585711	-3.151088468225297	-11.880936592623147	-4.358318794690883	-0.12681210009029165	0.23203702212400934	-2.967450134414647	-9.719360327023473	-6.010358795250108	-0.6015869959901415	-0.6619525535083264	0.046756073714464164	-10.165768597685952	-4.799639689725336	-1.179538485410013	-0.2890571050498488	-1.141431567171263	-6.614226801385399	-3.902534951847486	-2.6160569124929918	-1.8697342825413377	-4.52077864459199	-3.9277088542955245	-3.2749860204027197
412	-4.004122247123229	-5.417449460656972	-3.7430910969643985	-2.944891683772749	0.12989073958981254	0.2479201548992693	0.06577415002667382	-9.280796981267947	-4.122356404386973	1.5032310447886907	1.2109150855962978	-2.5960242682717185	-11.610040635360317	-4.204886425846085	0.4606167662435181	0.7845083455305983	-2.454787248135754	-9.67716214597767	-6.0610689963855044	-0.15641251166907646	-0.26910465887791857	0.38149583243372726	-9.89719769840065	-4.714762675779474	-0.8969212151770505	-0.03637868901843172	-0.8893847443060331	-6.555415136952586	-3.67634128596044	-2.4313499866135064	-1.7990546181079703	-4.436895359281315	-3.8395736120558865	-3.18483614117476
416	-3.861774434830035	-5.453228459895252	-3.6603178885552166	-2.705797427021668	0.6651335341826683	0.7598637919314735	0.5000277745020165	-8.910848595055981	-3.977810849637169	2.114860290909881	1.812106127932196	-2.171029085400026	-11.04384800983669	-4.1563024415937475	0.9962822769760536	1.2438584534711925	-2.061257833998705	-8.94953725462627	-6.255517943801062	0.2602783434972183	0.06866402906724821	0.6039497241030727	-9.455514883964034	-4.654413688352495	-0.6133111699832154	0.2317607247938506	-0.6956419331153465	-6.445977671561164	-3.3621976290692506	-2.1911094133369993	-1.7527638629529314	-4.2666430365605255	-3.655889740296743	-3.0299301070962557
420	-3.8805484673754087	-5.604740605508814	-3.773365488062279	-2.672199957776659	1.0773186656455103	1.0712944242132714	0.6509137137191496	-8.655945756038903	-3.863758792658887	2.604175322633463	2.2327530327692124	-2.0030670115443043	-10.417126629277897	-4.172537793115257	1.3869293893129762	1.564638968332076	-1.899706835718838	-7.89293334875512	-6.376707060926729	0.6323575957545248	0.364575772557089	0.7032704931623094	-9.044116951042753	-4.564376819530744	-0.28232380676515195	0.5505697713302818	-0.5841870293173058	-6.37547396003873	-2.963004581599943	-1.8528940630861743	-1.6768242078407056	-3.995442618772951	-3.3568036471492753	-2.8326110768327197
424	-4.133398045594446	-5.920621857000109	-4.1102528468308615	-2.8411722111494835	1.2543349234383334	1.1068861456581398	0.4707060742414978	-8.656722046930499	-3.8223936461263612	2.8426885533087414	2.424034589369403	-2.1103682464723694	-9.949121450100609	-4.1623654260449925	1.570411201326841	1.749654646270718	-1.9818056771787336	-6.960428697178804	-6.234350188727552	0.9425372457549352	0.6431423409436655	0.7307391148237623	-8.830008484481274	-4.384031284707752	0.1280906644209793	0.940808889874747	-0.5193592296839222	-6.40342520050771	-2.4948999818754216	-1.395674105935185	-1.5123894176445964	-3.6346592811370884	-2.957868330163326	-2.6337976389191478
428	-4.617581355834403	-6.401150210431667	-4.601061332530166	-3.152941695835974	1.1317818136250695	0.9048903561634001	0.06939300877217193	-8.919021583926948	-3.8578615091196995	2.7857890058754946	2.42810940129454	-2.376088136395974	-9.74176022931067	-4.0119857686793035	1.5599659641934835	1.8573052836255743	-2.200447792219672	-6.4609947041465405	-5.754453644529018	1.1916401356174966	0.9366133189396	0.7854381183821022	-8.860704399625941	-4.081762303537314	0.6192643626790615	1.4039906227904084	-0.4131521572172365	-6.523422224740879	-1.9876705357912456	-0.8354969003563935	-1.21761893918655	-3.2299804605950833	-2.5133116181814756	-2.468662494148696
432	-5.226294981159121	-6.964903337060085	-5.095133768569129	-3.5072204978132104	0.7360022645487858	0.6035581811925317	-0.3341756156590495	-9.319674468352408	-3.92631124458836	2.4902977880546433	2.351212018752481	-2.6021294528113583	-9.759778951799357	-3.643114796023577	1.4440153800746096	1.9691617439144529	-2.3792719780932576	-6.445208533226924	-5.01421307251489	1.4021304810409545	1.2659988371356914	0.9663017963808181	-9.061895347604311	-3.6811659243149584	1.1529810399509413	1.9132832240436308	-0.1744502480393986	-6.674318296747599	-1.4866803846971155	-0.23374383092516576	-0.7947795967062956	-2.85225962872403	-2.105895513939717	-2.3511166513210813
436	-5.773186192241733	-7.458816032651454	-5.422499166149594	-3.79119132992096	0.18583945883084166	0.37176903988435617	-0.5234805928365112	-9.681312536592191	-3.9592139620956206	2.082370991217738	2.300522798451992	-2.613870375709572	-9.88959405309514	-3.072642557015883	1.3424124683819745	2.139210457169203	-2.362459176774622	-6.76095150194269	-4.207141388761534	1.6045494039078865	1.6196181733247976	1.31464779045067	-9.306500411378833	-3.2612421430265313	1.6575121837729476	2.407763475061118	0.22541658523390976	-6.79077480509005	-1.0511425707027486	0.30931335609543215	-0.3103477350982527	-2.57336425131538	-1.8255529357595743	-2.2782740535435653
440	-6.065887912694138	-7.7170572086046825	-5.469016538163496	-3.911085595746796	-0.3460783949697419	0.32692146218729795	-0.3917342414502361	-9.868247007250599	-3.9022638699237318	1.7061886744337427	2.3281841219295174	-2.352397197506203	-10.020830129118782	-2.4312474666247517	1.3501398529297255	2.360985749959494	-2.0934259838656084	-7.208372097889477	-3.5604576974621245	1.817521925152104	1.9480099628857026	1.7818791821314366	-9.50302979931038	-2.927050344706466	2.0497057386146635	2.8015053201516102	0.7132207137220569	-6.854633790829699	-0.744099078683922	0.6794313771260008	0.1089567613831023	-2.4376869140114477	-1.7414218143365479	-2.2474284115315992
444	-5.989252075332693	-7.635899524483414	-5.222887979672362	-3.8173644446314903	-0.6932678801199367	0.48790401097137737	0.015152893922218542	-9.845401739058765	-3.7402269745808825	1.4807302914427898	2.4171998439795543	-1.900959963767432	-10.098923657669173	-1.919021720809538	1.5023686847902578	2.576122992687199	-1.6410155254894023	-7.676937083889081	-3.2385840334188205	2.037129873854544	2.1840817873171443	2.244360202844888	-9.646058058226611	-2.763448946651502	2.267383092877703	3.011595718409635	1.130938288694338	-6.91118477030118	-0.6137627943755383	0.787026403347422	0.3129369310584362	-2.443057054073573	-1.8762489509895504	-2.2694625797193764
448	-5.554828629774234	-7.222322445754647	-4.7680945276040525	-3.5179071337572982	-0.7512819151983798	0.7868313173455647	0.5409864769628453	-9.669936155700505	-3.4955758960207106	1.4774559698949654	2.514687531797997	-1.4313437902552228	-10.123371098708523	-1.7148513750649477	1.772755141550835	2.71955823211693	-1.1605424851680564	-8.16943071210122	-3.2786102212144925	2.242163890899749	2.280052417720594	2.560684912892192	-9.797390913069142	-2.796414845082065	2.2981116713676255	2.9950649662693647	1.3064869609272065	-7.037449818963104	-0.675109444344249	0.6034245475792827	0.18735018325234332	-2.5466515953617046	-2.196819061454908	-2.3693408906244344
452	-4.893985259097732	-6.593252165360474	-4.233295429985785	-3.076347343307188	-0.5092305528181678	1.1243215770945274	1.0152934764023898	-9.431525206595403	-3.206918946752551	1.7158462957930267	2.5843360358793537	-1.1053187819230834	-10.108451817740331	-1.8827813816218613	2.0984003490874246	2.768948786420331	-0.8149068931032329	-8.707600571582317	-3.5867311863942035	2.406798833492509	2.2369282189158977	2.640227549562704	-10.016709302407994	-2.9848768635729193	2.184781545845041	2.7731149126610335	1.1413651675971508	-7.281849365922959	-0.9059558487907148	0.1748275603410354	-0.2906140975767405	-2.696043246138091	-2.626979821248373	-2.5719022685920203
456	-4.197457302940037	-5.924707397761279	-3.7283010388657534	-2.5924274855964735	-0.04531164828423686	1.4299948179380721	1.3421374525516752	-9.189912772818209	-2.90546249609764	2.164992803829573	2.6402878694630645	-0.9913190578227825	-10.049554799456415	-2.3234679640282163	2.416672223665335	2.7650120188521456	-0.700871585030091	-9.215890861131527	-3.990505208430802	2.513983720154266	2.1074233001907423	2.485158437176506	-10.296183560125241	-3.2481706060417115	2.0037972876502486	2.4263091026082892	0.6659552438134672	-7.6185874746614	-1.261496183071437	-0.3948772539659519	-1.0298231814133132	-2.868150226981029	-3.078588001107928	-2.8813936637609467
460	-3.629617681876135	-5.3722977502607145	-3.300854913007085	-2.1728701536632	0.5045732247011117	1.6882489877038287	1.5289488992235765	-8.949554420763922	-2.6082909041355236	2.7404453685235453	2.735230200537445	-1.0460283729846427	-9.925125097011781	-2.81595300917153	2.6828033856368507	2.7836301256471803	-0.8197267034815365	-9.485324835670998	-4.32593439917328	2.555195801959395	1.9648823688489634	2.1803443376805847	-10.549456569739695	-3.516533604326562	1.8220770313036283	2.0556621499613192	0.026524117149500898	-7.951076487493821	-1.702814455501527	-0.9895800327112063	-1.8557088328239408	-3.095247022443431	-3.4899151237113943	-3.271763078058562
464	-3.2595314897257963	-5.003718840363651	-2.934200279457091	-1.8981220674275512	0.9942262743643622	1.920660014071698	1.6472504097357459	-8.683887459764746	-2.3294858873681252	3.3079078113962606	2.912865392960053	-1.1644648284122427	-9.732679342492776	-3.1272289674005265	2.8686091827446405	2.8785750793259246	-1.0993429394622798	-9.261670089226394	-4.512485015920303	2.5213534768342676	1.8576724482364637	1.8404204798962316	-10.66290089776138	-3.7709767723242917	1.658062573061414	1.7311215356989182	-0.5883751496718747	-8.166211107617162	-2.2203285638064405	-1.5307891330217256	-2.581965439953332	-3.455751648761028	-3.850197543913829	-3.69542740842507
468	-3.041115514706565	-4.776500213007635	-2.5808024341274107	-1.795462126967138	1.3169807162412885	2.1462097113782166	1.760875220621356	-8.388132074158916	-2.0974628872367638	3.7083244230104278	3.1610319534602014	-1.259461399713232	-9.527353262688909	-3.129026881900992	2.9543669149194804	3.035291664089555	-1.4454219304784681	-8.423045137120086	-4.578443515662221	2.3975388943221625	1.7801302626488527	1.5474832018882685	-10.578912708276164	-4.047906865390369	1.472887512303045	1.458750721109489	-1.0398138735267608	-8.208041170377763	-2.8334867882715487	-2.0038957545231693	-3.0878546159984723	-4.026965131129277	-4.194398869415044	-4.104321946272105
472	-2.850081436590857	-4.571263778589284	-2.2052082959765738	-1.8329220963931296	1.4392570220849144	2.353286975641163	1.8745081377386354	-8.116199472916769	-1.9609565685353887	3.8084914588140486	3.4023528013158906	-1.316222664370949	-9.420201277790985	-2.862695448323536	2.922367088568998	3.170085183722989	-1.7880141689933886	-7.129950505375071	-4.630531299344189	2.1680777018167796	1.6804993110189879	1.3151540723021138	-10.354718182169838	-4.406084526381809	1.1996740072479086	1.1875745028076319	-1.2984201875329613	-8.124990442743208	-3.5623345285120736	-2.4469196734638454	-3.363323680015504	-4.823579776029639	-4.570902812861435	-4.471752155457958
476	-2.553839438666311	-4.25990961906654	-1.8072925760415781	-1.933277363664476	1.4123986923797758	2.5090806420874214	1.9376116942123098	-7.968792418387813	-1.9677594850450075	3.5663249402604214	3.537394037852386	-1.38705908901968	-9.527967428947125	-2.508196585998345	2.767610542939213	3.183094255040242	-2.0976479000536794	-5.8384895177299345	-4.780932891219099	1.8356068087963244	1.5050877294687566	1.0992922755143488	-10.158072445971985	-4.873580920312579	0.7978049496535218	0.8556637146327171	-1.4394991361513807	-8.058092096964844	-4.385845173252977	-2.9072337077173134	-3.4972524554647197	-5.756875500449417	-4.999477850689299	-4.799572455686199
480	-2.079986805432742	-3.774221410759093	-1.4183630907488114	-2.004986042682648	1.355279084598574	2.599394553297389	1.8980101299049454	-8.03843114730745	-2.1294572299599412	3.074689380512302	3.516648045244242	-1.533553715648718	-9.898226712985455	-2.2725090923154445	2.5194599564838236	3.0356163901934714	-2.3680026471433164	-5.136311994936111	-5.068243490774472	1.4436755143909583	1.2529678313092165	0.8473945834699704	-10.193361256612869	-5.405945764244366	0.30210965795535555	0.449490903673189	-1.578560944386404	-8.171560266844379	-5.21193026180452	-3.3913526449410756	-3.6158528236650387	-6.642568571485962	-5.443701730335564	-5.105515943988474
484	-1.4535031281967123	-3.1449229637852967	-1.0764445039274415	-1.9798871228775472	1.4099599087403032	2.6669709615130057	1.765044923140736	-8.346009233383919	-2.3966293274451864	2.5500338013163	3.3945298109181614	-1.7582750276042394	-10.456274006193219	-2.266858572005004	2.2527370396004716	2.8017120290591695	-2.5855343276548926	-5.46683405449591	-5.425383077275125	1.0826990577065112	1.0046328280833579	0.5534543977115487	-10.595635387372127	-5.8890466541379345	-0.16853025513060857	0.038469094685942576	-1.789247389090678	-8.563641526535623	-5.887366279996669	-3.8404378794029475	-3.8061821364627018	-7.263854485292122	-5.81741951427361	-5.400679574682466
488	-0.7836468796018347	-2.488319152271675	-0.798912642369231	-1.8404749585414188	1.6860637622225905	2.8134627271191017	1.6338306624170273	-8.810537316012368	-2.6625478200446806	2.255171054868374	3.323269835664726	-1.9762977311782355	-11.014907809104093	-2.4441690383236954	2.0735871739486558	2.653650038695075	-2.7127015522178595	-6.886936170356298	-5.709026322256016	0.8673175551451335	0.8996435977156483	0.2808885567249066	-11.352660150475472	-6.18888471948199	-0.4550092804864964	-0.24245008765043036	-2.0541772790544237	-9.209056830997413	-6.251781924675973	-4.150242795002601	-4.06877421305497	-7.465152721630817	-6.026829704327175	-5.674250588396062
492	-0.21011584944127973	-1.949001188125815	-0.5721483216145464	-1.6239954192167614	2.2140154782663495	3.153200856830803	1.6486402708391092	-9.273496604394289	-2.801151506981117	2.3855206906171538	3.480837097916443	-2.049667830060682	-11.354528398456594	-2.633853190447938	2.081271404733698	2.7805173326862893	-2.6971914700121458	-8.99070642108727	-5.776170716007391	0.8903226829938505	1.0701531144779937	0.13934420014009494	-12.2947034525404	-6.221906169441343	-0.4356070447890987	-0.25658270651886267	-2.274803155877768	-9.963297818778196	-6.211446269565409	-4.225115288557463	-4.323193539194849	-7.229057770597261	-6.024313911486847	-5.894679054636409
496	0.16497094887567132	-1.6268205601626924	-0.3625471582796027	-1.3994510138464866	2.9282131121138084	3.74129199037104	1.9240375708640127	-9.566952681229067	-2.7239875724682956	2.973323099258828	3.9687371153766304	-1.866258497294681	-11.330910654070424	-2.6512131624042308	2.322395557262125	3.2813427365426766	-2.5015354093336444	-11.04417225910345	-5.566878781568762	1.174873229875222	1.5655498465112339	0.2285420441817835	-13.157385792891635	-6.007674678893359	-0.09659925823856652	0.05864337071871523	-2.3306355417536504	-10.624904605743055	-5.795645699173553	-4.035209168736637	-4.45872639484021	-6.693643076209306	-5.841112598930587	-6.025769218490009
500	0.32306182302925696	-1.5265064200961371	-0.1427944000930463	-1.2318330972088292	3.689177265389702	4.519152629886623	2.4707012114134463	-9.590587591752891	-2.4295184550934725	3.8615417382974195	4.736960875949259	-1.4153356516390234	-10.954195948600638	-2.4238879619436258	2.7601878573347842	4.092379082837902	-2.1330423301248396	-12.287340133162019	-5.148089872713992	1.6511099296844975	2.3110639990631956	0.5814460501295851	-13.687945331347022	-5.669805989255672	0.44599550849845077	0.6471884830347379	-2.15001654082112	-11.022516222781173	-5.160436140383016	-3.642846813541343	-4.398689258913908	-6.097263320787531	-5.578961358289965	-6.048077568043061
504	0.3287616363808026	-1.5596555432042771	0.08308694490674556	-1.152438876103433	4.336993683355564	5.316397176671382	3.172603122330523	-9.355262732727889	-2.0153489061971337	4.767022120837961	5.584512219634592	-0.8108210543188404	-10.393059704289831	-2.051259750909324	3.2802610314520235	4.995542513632585	-1.6526592928168773	-12.25205513721839	-4.6909875751314924	2.1744139139589853	3.1277472893901845	1.1401995391668662	-13.741100276586353	-5.380216584927001	0.9901220773494253	1.3508354391324982	-1.7488514140797529	-11.078517885847791	-4.5305280571039965	-3.1788244167178923	-4.138854970019146	-5.673456177692501	-5.36014698582606	-5.9688892213801985
508	0.28395470905137854	-1.5990915258088734	0.26942530206367826	-1.1511133880162645	4.751639354153166	5.9143910258696	3.829452266561421	-8.975852943646743	-1.646282191888459	5.404855714503465	6.241126044728511	-0.24676421222373623	-9.898062681003447	-1.7585222676701435	3.732778539769976	5.7095055435988	-1.1583816975911145	-10.957156153671288	-4.391449440359189	2.5799932414719833	3.8058476351970665	1.776300425813124	-13.3280963561203	-5.2759680614780455	1.3358166184077827	1.9787188718428992	-1.219654318591201	-10.824377032607599	-4.106605996254131	-2.781327479016031	-3.740941991897803	-5.549541459377426	-5.263746248306998	-5.814912304502108
512	0.2631920271427397	-1.5563290079877612	0.3413096359695596	-1.1904135912404052	4.891250121165185	6.141764148464484	4.242270935791981	-8.61698148459187	-1.490502115301175	5.61121033205498	6.4901618793658695	0.09038968361444698	-9.684666609154524	-1.771630401906763	3.9916410345387745	6.017895206516481	-0.7528923730915001	-8.897726036495362	-4.376410473264591	2.748785250399462	4.193896759888723	2.3431999624220015	-12.603370634683454	-5.392740712855586	1.3737542594557983	2.39135789267456	-0.6830439550320716	-10.368828747319759	-3.9838740725069925	-2.533598178188851	-3.2926263726073275	-5.701350197702642	-5.286636339191589	-5.615596757062216
516	0.26685091785768406	-1.4397070371518323	0.22692997696325837	-1.2366812197933295	4.79180668574731	5.9511155931902096	4.295946110369599	-8.423197725010326	-1.6485577780109484	5.401787267398175	6.267964824110213	0.10376135978727549	-9.836211179694763	-2.184569353310176	4.000864972503767	5.8668594212227605	-0.5138635026355722	-6.8351545161291245	-4.64622448701819	2.6518406801028416	4.256259907466867	2.7301785876961953	-11.802608460191513	-5.651935563122812	1.1267558307810084	2.5526614124699445	-0.2364821130027173	-9.845506643233305	-4.1241454974000336	-2.4365339217658235	-2.86455082170142	-5.9842767564365635	-5.352836595372105	-5.391046987273924
520	0.2156400973120827	-1.3606299127558408	-0.11164486380046024	-1.291083451826082	4.529654014595217	5.431866632098844	3.994380940842892	-8.473859765592865	-2.11345409813389	4.938632475781884	5.684686646414147	-0.18189370586247885	-10.280547116072922	-2.897170536356002	3.7849883937641353	5.37874363494903	-0.480415521839283	-5.496236787270797	-5.083585249463765	2.3507447183386216	4.068822850444983	2.890896789881363	-11.166054697455394	-5.909230217319397	0.7230685931069835	2.521086448026348	0.06920970213820862	-9.372132277668207	-4.395731438029042	-2.4323828158955667	-2.493938201329754	-6.223416789554717	-5.369564042839638	-5.1552433837432945
524	-0.0027127966681921648	-1.4751754961916166	-0.6548988802587707	-1.3943105900847457	4.170486916503004	4.756321895034898	3.438617697617153	-8.769190766128965	-2.7739143301547426	4.4264163859191	4.957674967646648	-0.6517195089098338	-10.842741938872267	-3.659274330437124	3.4218003663455256	4.776066768031923	-0.6576837284649355	-5.30406473727991	-5.522241578464907	1.9560240457740994	3.759335985229048	2.836770050516067	-10.870683642598108	-6.036835178392489	0.3193731597943225	2.3892731606241595	0.21805283372185416	-9.033834434589222	-4.656377303765018	-2.462785714607259	-2.202147716684374	-6.312325461663008	-5.296337114313581	-4.9323882932109795
