time	FP1	FPZ	FP2	F7	F3	FZ	F4	F8	FT7	FC3	FCZ	FC4	FT8	T7	C3	CZ	C4	T8	TP7	CP3	CPZ	CP4	TP8	P7	P3	PZ	P4	P8	PO3	POZ	PO4	O1	OZ	O2
-200	2.58011602703991	2.631174557718495	2.023131842273675	2.2830905856664145	3.232614509050347	3.0491728705669594	2.4896774229133873	3.255792847996344	2.400473588604914	3.1472823540381287	2.9883520527731293	2.817582600155575	2.899797670672489	1.740787144080582	2.5749545032339722	2.649322741495307	2.819908373388839	2.740139715905909	1.3745408023462684	2.285804265926897	1.9349529694341714	1.484696384496131	3.0483851355835965	1.4464342557627774	2.2503986301825476	1.4782124720445446	1.9359233330486647	2.698136084420161	2.0510241933537663	1.474845882506841	1.1356505126890934	1.270276304852553	0.7174313050276493	1.1526524991497686
-196	2.81488203291691	2.7887029577419167	2.159726375849095	2.5989494258113304	3.4727387340605467	3.1747457900954994	2.409311288472738	3.367767802318737	2.598691933746551	3.374095192973538	3.2150182642827616	2.7132146289987906	2.783750765447901	2.231703752605236	2.7661824156540002	2.8630697654917805	2.6794044903817604	2.9065408633281935	1.881029481907046	2.571672194663768	2.088632339926295	1.5182810983471897	2.9913043900306904	1.7890876486430831	2.3758604466535065	1.507360812196172	2.009183163338555	2.816668741744186	1.950652832828371	1.4355668985361865	1.2549927202964137	1.2875320878900411	0.7318030577303167	1.1926976412224315
-192	2.8018345762085186	2.779516928330905	2.1795470659540817	2.6319222383806697	3.263024560319394	2.982009641747883	2.2061898652642564	3.379506579449744	2.5658910209723094	3.173493138884062	3.1245903889922713	2.513526433320704	2.6083624297090737	2.382493251507366	2.618634455745151	2.7421624591258995	2.4282696185792916	2.820012562307643	2.1597104018043356	2.5197803910533274	1.9493646572487375	1.4627886973642477	2.8919343875349934	1.9617060373369022	2.227383369544244	1.3371421064949514	1.9638544271477623	2.7565853526136554	1.7038507418529756	1.2597142426157308	1.2250591485564981	1.1765128344395637	0.6459310038470862	1.0862297984355118
-188	2.5732438499332377	2.6188692980449733	2.091985697232892	2.4095978676040946	2.742641680468684	2.5953690940180016	1.9821540067219217	3.2408265985681877	2.3335721433850303	2.6396236353033644	2.7958021093353214	2.3098041952944035	2.38165830964546	2.232941383446227	2.2141065541633362	2.3745906293044174	2.1506512110770855	2.3788707196256427	2.1921806280101976	2.1941926423941562	1.6124002892793003	1.351220008299618	2.6677808694241687	1.9324243019906044	1.905113573032763	1.0453966829609078	1.8069177820361768	2.4697310862175312	1.4045059645478355	1.009691712691252	1.064009306128637	0.9915252898931847	0.5174014555265727	0.8688439108846882
-184	2.2365300598898035	2.3768474995684947	1.9460366915207508	2.0745959229542876	2.1414754336649495	2.19955348413172	1.846654887305418	2.9967684670127444	2.0240938612379207	1.9828584144120986	2.393425697005887	2.198189253025545	2.148045296014085	1.9715179155164753	1.7310522751018642	1.9535820434838171	1.9635715435043726	1.679159756235688	2.0737140126324176	1.7734645560311604	1.2696609465014455	1.2765849796489421	2.3263676107799287	1.7702864363797606	1.5902202089214812	0.7818292955686428	1.6332400995980838	2.0350358434795823	1.1813497513508746	0.8028937557930175	0.8810077287365152	0.8367681482169533	0.44096130021343144	0.6433068497628303
-180	1.913339133200289	2.132347101549935	1.7922503902961697	1.7945409967891048	1.6643069940508974	1.9320248316623283	1.8336411668258843	2.74111842417065	1.7791751578233832	1.4304826223496823	2.069205755731568	2.202627653282894	1.9556127737261877	1.7988038017633887	1.349275347164086	1.6591246086193405	1.929284090893186	0.9590973233803614	1.9450983952050653	1.4471961223303729	1.0922257872661987	1.3145403828810558	1.9473961542553555	1.5992000062620908	1.4369151555976019	0.6809664351436706	1.5551819762065997	1.6066285331216925	1.1252207727633388	0.7482060175125117	0.8043334463792874	0.8048952201548771	0.49134319896623424	0.5230857120658712
-176	1.682273622080182	1.9332144211597522	1.6488312441204875	1.6674302774292424	1.408157821914714	1.8160290672228288	1.8688620281718968	2.542899602191856	1.6809394317148982	1.1329741449361461	1.8849838924500406	2.244882101113223	1.8160783006592889	1.7983891918553778	1.1659904688960618	1.558988805649503	2.0009758421922843	0.46269345166689435	1.906009788469343	1.316139217868474	1.1327930660257757	1.4585583173166397	1.6221710402540823	1.525215502702851	1.4854216538119267	0.7859427909081412	1.6244940716736933	1.3241757121032498	1.2377783028822955	0.8861465431728512	0.902359006510825	0.923343656116047	0.6792206747072518	0.5735151753250847
-172	1.5490957459439507	1.778412099162895	1.489788170867858	1.6717766481152903	1.3442834581767502	1.7660094455000561	1.8090670063120615	2.393115037598102	1.7072231726458527	1.113178607991191	1.796713824504261	2.1826891844001284	1.6851041274441294	1.892905707348558	1.162760850831706	1.5840511282028038	2.0383167215383153	0.310584693362959	1.9593596408965983	1.3503400053263759	1.3039636579016558	1.6106686551436575	1.3948043549608184	1.5766944845446198	1.64606272758695	1.0280866596968112	1.7948681070788062	1.2393871514500108	1.4313893282037162	1.1673489779563526	1.1451721162493433	1.1400506467645932	0.9458807682951692	0.7818414549161463
-168	1.4551409446217156	1.62689244336411	1.2617386547657712	1.6889817672048473	1.3608713115665716	1.6539187389578016	1.528690572693772	2.2083887998137586	1.744133348829824	1.2743679252874742	1.7001668171872888	1.8938341092932356	1.4829933605899082	1.9054770421556857	1.235094305734836	1.5857779939668766	1.8847417783835743	0.443517117572625	2.015709395087825	1.4239510261823962	1.4407305681093312	1.6344653326729932	1.242572542868055	1.6899509387264482	1.7598452523622379	1.2716214624724478	1.946635360571363	1.2971307006511463	1.5793027837934055	1.4804861508184062	1.4257292711501355	1.3533900942011214	1.1966425150222861	1.0678329440813248
-164	1.3175868954771237	1.4277944528770992	0.92293876176511	1.5807383020545516	1.333759542912488	1.3923171723499104	1.0029779647299921	1.8898972225157606	1.650598998670773	1.4532642327810559	1.505063053145882	1.3570817674706095	1.144526836366634	1.6847467379949586	1.2599444357532723	1.4364626371356095	1.4630018435734262	0.6697468144673465	1.9523839901268567	1.4007985556521665	1.4060463869835214	1.4385487996974813	1.1025203438579443	1.7471553043123067	1.6970202879975402	1.394484516437761	1.9570132444562944	1.3751945460885144	1.5860248764049127	1.7120177702594799	1.6238269764910513	1.468647476303008	1.3515838350504084	1.3252655234255717
-160	1.0766253444192335	1.1519086331848498	0.48013707874191774	1.2720391718219792	1.1841880053186233	0.9842161511367666	0.3346066168443322	1.397929426478502	1.3396789993794764	1.4900337420037124	1.1903393238532025	0.677952585892857	0.666588185534739	1.209525582120802	1.1586360902143735	1.1086006136561306	0.8291798213051123	0.7813619355501389	1.69253444244307	1.2164133756443667	1.1729488343188623	1.0365532610472001	0.9203187204013331	1.644495602270472	1.4337402545970117	1.3549115623598167	1.7704553559426275	1.3547028268943404	1.4374154769845833	1.8014807655627822	1.6712044435268913	1.446700330896383	1.3830141986261448	1.46895861254795
-156	0.7288058381753535	0.811518071033084	0.0010597164483062689	0.7944599369971722	0.9042138434469074	0.5168839083972946	-0.2924570135838979	0.7944201806992074	0.8339915850563915	1.291127320844526	0.8130000809170377	0.04257640231827091	0.12796983090516345	0.6087321027645518	0.9286339855590195	0.6895840150588944	0.15183030030540892	0.6637576801707916	1.2552269665497897	0.9125998593177636	0.8374378660039588	0.5472086654198836	0.6882498842982553	1.353268619935376	1.0649075481231345	1.2070270746274152	1.4284729921515091	1.1790609329972783	1.2051317661376326	1.763066525776346	1.5804735382231279	1.3187965121351415	1.3212606873532244	1.4649708234039653
-152	0.3296008101724766	0.45628172043994886	-0.40920200840633264	0.2704173319664928	0.5475018010621489	0.10947198393123997	-0.7056119424171095	0.22160473409969678	0.2626642280145862	0.8632855393548373	0.4717701661596639	-0.3741632392496493	-0.33664327774884284	0.08470195510459905	0.6362918599276361	0.3285294464876663	-0.37214207555274115	0.33999180707922527	0.7543444018392074	0.6093905552737231	0.5590176568222587	0.13329373266422098	0.4465000916175229	0.9409792995537295	0.747971592445202	1.0601426336225304	1.042834636916351	0.870120880791132	1.004905340518583	1.664487119286954	1.424277421216362	1.1629281014645236	1.2289292781319932	1.332401868317222
-148	-0.03167434773792776	0.15160490534175985	-0.654748676554316	-0.14891543946815614	0.20142394253420856	-0.14832305870755152	-0.8276425579155914	-0.17130593912266223	-0.19761304507430957	0.3106983296179364	0.2532519989772231	-0.4930229770610533	-0.5980192407768287	-0.20943136460356848	0.37922686242679104	0.15166971049162828	-0.6169342383067401	-0.06643767638121882	0.3469761303247599	0.4339426446925929	0.4677762675396053	-0.08522102215231502	0.24868504640257952	0.5417463765771682	0.6125249251159683	1.0092551682740192	0.7299930434869923	0.5007321821921936	0.9332388019841611	1.5793204267682144	1.2817651001040031	1.0571614477169713	1.1617944211237579	1.1224930258067247
-144	-0.2664616995282834	-0.043464224675829714	-0.6912835222910844	-0.35402756840014216	-0.04358067352497533	-0.23106773139311915	-0.7044111472464962	-0.30497693938503656	-0.40292650359467735	-0.2013120348139253	0.19415278683757775	-0.35809925108143625	-0.5945823773631121	-0.2529076033405804	0.24167022048015813	0.19858029434612134	-0.5814208969695533	-0.42396205556640904	0.15526543518443137	0.45023348813824837	0.5954003915059443	-0.08934708662124875	0.118695586620107	0.2909165911482119	0.6897071582546895	1.0806525918379597	0.5493769631820483	0.14695824645609165	1.0186878417044887	1.5431369504115098	1.1891994446293959	1.038432953120091	1.139932748777525	0.8920554496177411
-140	-0.3174878350825145	-0.09200144535916842	-0.5425159321439202	-0.318815886169402	-0.12368074773318062	-0.1722183521214191	-0.46375730516648195	-0.2055395538385912	-0.30629905980978384	-0.508099912314278	0.2758606367298952	-0.09655646210372584	-0.36447885540492886	-0.15148153862854746	0.2615455382419437	0.4118224670026219	-0.3709168126755093	-0.6657841188787491	0.20615138061450466	0.6269924624825479	0.8659408666682322	0.03902448331397685	0.031013337816973012	0.25763812596123586	0.8986712671478823	1.2218807904865197	0.4790604102437358	-0.1497390415464219	1.21102916888611	1.537375207834199	1.1231898041023898	1.0876401635366264	1.1428391904587247	0.683358846369625
-136	-0.17513230398784138	0.01398888133659681	-0.2821203761130472	-0.09814691518799387	-0.02285457582962017	-0.029701784178130627	-0.23402441978973748	0.020379496686861346	0.025834556603770827	-0.5110030161353785	0.4466228473831279	0.16031385917719373	-0.02687260501752612	-0.05371493087558279	0.4185379733008982	0.678582785800476	-0.12554843692076023	-0.8029475787871138	0.41628420247834136	0.8574500658321255	1.1448664636317067	0.1727419640232877	-0.07112013530656487	0.4115075458627462	1.0939662428892458	1.337202068767444	0.4402699459404272	-0.38947433134928294	1.4096299374276597	1.5071868858431565	1.0227389309810648	1.1465569705625585	1.1282899351243643	0.5162843452770127
-132	0.12355688928165007	0.25432795221966953	0.006489675941324694	0.20808954484377265	0.2179378265600504	0.1489191647584452	-0.07540880869661591	0.2529466443828097	0.4525909114378079	-0.22007352058160531	0.6499468071740445	0.34424537333359223	0.2743867628799329	-0.04383626569170749	0.6422223432538802	0.8920969344504001	0.05922454580613035	-0.8847655631615369	0.6340628846372433	1.0148166392453903	1.3117290702126776	0.21506932323515462	-0.23532533586215948	0.6395786388461872	1.143150088285088	1.3429665531584076	0.3514452567764128	-0.593821881702343	1.512612100596915	1.3979619706144673	0.8334587195334449	1.1523545951359335	1.0589891645397493	0.39089989563477673
-128	0.5059831725697138	0.5823902473050881	0.26711037687573624	0.5012253510218201	0.5029259311376132	0.33808395181174905	0.035820234476489556	0.4240520585797926	0.825380144419564	0.24053974388904104	0.8389162400045902	0.46585023285551846	0.43492832670075493	-0.08623603709621308	0.8350520112889132	0.993701753491663	0.17090564923052254	-0.9318028068858579	0.7165340763121106	1.0112036441068073	1.3121981587658755	0.14857383034864965	-0.4612752485550117	0.805002031678045	0.991338369727641	1.2089709012979226	0.17767919555150233	-0.7756615857567917	1.4608956538509608	1.1876968115384021	0.545538185649626	1.0683855983462869	0.9211499071706274	0.2939003996581346
-124	0.8814425446190539	0.9290961003687964	0.4837654220764918	0.7146355491715183	0.7048504334773817	0.5192471729520274	0.16307707089735965	0.5383853898760591	1.0478750440844113	0.6721160990911864	0.9710964535990899	0.5728538021883267	0.4283358145866621	-0.060865536178459724	0.9020845271223273	0.9745008920861306	0.25604003603187525	-0.9071361399635771	0.5974017962631593	0.8295325615920025	1.1623172730664075	0.03003481954203684	-0.6947623473746168	0.8147500732832248	0.6792219860094335	0.9624724363822466	-0.05468301461241931	-0.9241291857275586	1.2558034626726018	0.8961319304729275	0.20114177414655426	0.8969354606871158	0.7266087513698349	0.20424389787605737
-120	1.1576306790688407	1.2097115486120318	0.6608942730430113	0.8164471963296297	0.7065230590148458	0.654838441149121	0.3374116114203801	0.6395546181744034	1.099750039185068	0.8751398302871274	0.9956983898773081	0.6846486908793079	0.2987234286872479	0.1385567035753107	0.7797650675159932	0.8451408126474135	0.3565347185669995	-0.7404915671726443	0.3205164066805505	0.5162140117963553	0.9112089849354414	-0.06191071107253798	-0.8565207102131339	0.6624515635931261	0.3095377973847672	0.6578395350059849	-0.2841108732202958	-1.0126774285498026	0.9472140049861391	0.5685615525195982	-0.13037022915349758	0.6708304269066273	0.5010977374776782	0.09828092878085239
-116	1.2561165062661717	1.3377270664773002	0.7894505838489615	0.7956392744957206	0.4456865776253599	0.6764186603634351	0.5081148134754342	0.7497034053947785	1.0182121966403819	0.7270168047669371	0.85165965342075	0.7496743779328462	0.11871487617322374	0.5061650263404643	0.457597820795589	0.6028714164771636	0.4515297997518731	-0.3914232542169057	0.014603251554455141	0.14537805282127966	0.593834756305582	-0.09118880308493306	-0.8894487000897155	0.4236334253582696	-0.013521288487449877	0.33602440272370243	-0.4614370155605237	-1.0251749728068846	0.6032537802724324	0.24720360276274986	-0.3922938098539747	0.4312798369962976	0.2681889825248685	-0.04533507663486473
-112	1.1270154686129945	1.2449783055344052	0.8233207443431289	0.6474325044498322	-0.05325943218135928	0.5031398522071721	0.5505919442580823	0.8242531397989963	0.8557091333719212	0.2352942073365041	0.4881899046493207	0.6596196277177077	-0.058475736380997984	0.895654974106639	-0.013198571246321776	0.22503672483371526	0.4497426736920846	0.08075436184283344	-0.17696337357187955	-0.21899506394408463	0.2090964610065823	-0.09629822498088846	-0.7992976883735079	0.20780861325249433	-0.23455852210906009	0.002808777142675203	-0.5849234447016466	-0.9777269338718089	0.2801530354102353	-0.048436224338312094	-0.5678080306022502	0.20847012049970268	0.04172307242349848	-0.23565295279134024
-108	0.760810134874183	0.9033954716762075	0.6877629143516698	0.3704871525947307	-0.6852681023462499	0.08207675793906212	0.3313025227765176	0.7594698648351474	0.6415860636725093	-0.46767896295725514	-0.10322167698309988	0.31546115795597857	-0.22668641748415985	1.0874782773218252	-0.5352263437109392	-0.3077825598098531	0.24170955954561055	0.5047817813526543	-0.1720277215667475	-0.5466031418351391	-0.2661242478327395	-0.1695402409326164	-0.6586488468707019	0.09503932273234644	-0.3644033363201891	-0.3628941169159643	-0.7001072150674211	-0.91821372277176	0.005696511347365671	-0.32177480974019373	-0.6793062669769332	0.014256975577539048	-0.17095507638207774	-0.45905259135694904
-104	0.19564732859806375	0.34137135657906864	0.32094237127336234	-0.023989763050307755	-1.309242602857505	-0.5727270827138542	-0.20827802963123776	0.45364847664738756	0.37077665235367385	-1.1866781681617626	-0.865771827896076	-0.29795673414343776	-0.4163272370317605	0.9113002396463621	-1.0019123528933882	-0.9768221353664028	-0.2221598619574108	0.6623287184205542	0.0019410473711210692	-0.8414399602626533	-0.8405613878008822	-0.3975377966857514	-0.5689810500084682	0.08976984001383145	-0.46167987468504784	-0.7797028402670048	-0.8654603340232662	-0.8999015666175849	-0.2215077424417309	-0.5841588363203983	-0.7632919530670748	-0.15457716545178646	-0.36148649362850255	-0.6756356341469977
-100	-0.4849123346483642	-0.355664788778699	-0.2750171416014859	-0.5006780611748742	-1.8058505012695232	-1.3646205629227672	-0.9979575847225257	-0.11721130430907707	0.02284141437902893	-1.7474703744637938	-1.6792377191108572	-1.0746486159848931	-0.6569231135948771	0.35085990936387396	-1.3396033014808029	-1.7039090351954187	-0.8762092568209874	0.3953144242319533	0.21476192718166284	-1.1229892940778716	-1.475532647222209	-0.79700833357811	-0.6048374160754714	0.11850735515238155	-0.5922775253601118	-1.2334742514939312	-1.1046105595356503	-0.9446852183332829	-0.42003297699738	-0.8352104404343261	-0.8381894805726788	-0.305700360956849	-0.5147998319979848	-0.8270711877922171
-96	-1.1681078642917169	-1.06538974969815	-1.0053211425194863	-0.9975504849997376	-2.121921533949304	-2.1367669051581606	-1.8491065455481295	-0.8571025111493177	-0.405540703703281	-2.067726845289135	-2.393516296065717	-1.8151369049020831	-0.9383791661412574	-0.43391597161412326	-1.5351237019881379	-2.3641178548252437	-1.5456998309210914	-0.2934907965402722	0.29530006572553885	-1.4037386143529345	-2.080631727687584	-1.286655422776898	-0.7673958520587886	0.07045012694691691	-0.7924185971280585	-1.6678715902180452	-1.377356048921192	-1.0200473044390934	-0.610444901832493	-1.0537611219504097	-0.8881890751348575	-0.4445053327781836	-0.6127458199289482	-0.8582240321425798
-92	-1.7377212003703661	-1.6614521699919431	-1.6988129572892787	-1.438250895683646	-2.2752206268087205	-2.7236607005971725	-2.526865952787757	-1.5731239279130096	-0.8770276285916874	-2.1754324381263355	-2.8787856029307397	-2.3088903368830147	-1.1950119703639273	-1.1829750508005066	-1.6327078301215834	-2.8280513215189145	-2.0172219225498265	-1.2086425989153287	0.11925690591028144	-1.6737474160851682	-2.5420336659147456	-1.7146127180678696	-0.9744654869272233	-0.14027486706126815	-1.0528185341003116	-2.00188230962774	-1.5895519216459468	-1.0468300554548475	-0.8050950149236599	-1.2056560485917533	-0.8729488827600052	-0.5731889591050525	-0.6443897469463755	-0.7434242348974788
-88	-2.1059989876027854	-2.0516970105822923	-2.169369215256512	-1.756788845395162	-2.32033538232531	-3.0089461727467692	-2.848948948342984	-2.0579931684033097	-1.316661592973967	-2.168884033449265	-3.0691440027949795	-2.4283847747527068	-1.330137964705079	-1.6661385255709316	-1.7028863387029447	-3.0122802181485078	-2.1385943835623604	-2.028886074665763	-0.32114794769267363	-1.9005826663669563	-2.7678897310946358	-1.9276965807882465	-1.0987915964994996	-0.5238183723576005	-1.328148480876789	-2.1640255396566	-1.6394411284062802	-0.9424859261559132	-1.004692551937272	-1.2630830971299305	-0.7584883551521091	-0.6937847119934791	-0.6164981707266644	-0.5072150217601766
-84	-2.237797254634529	-2.202703947228014	-2.2937395514751	-1.9202955912744615	-2.303791517163222	-2.9654524251453984	-2.7608892847927304	-2.1874580328072777	-1.6417283970391163	-2.1483244841695077	-2.9807653351866934	-2.1854026262420323	-1.2681314913203705	-1.79715096496794	-1.798981065976503	-2.911718838016048	-1.8943179797983005	-2.437759870096469	-0.9087551809255234	-2.043850178326713	-2.7263221671889637	-1.8466927958593995	-1.0317379210172435	-1.0048316691778265	-1.5630724390620443	-2.1243312305221993	-1.476298566905639	-0.6742903573178136	-1.2011465995980115	-1.2230254380818963	-0.5494506345228046	-0.8123389461988582	-0.5565208182589214	-0.22493198457194813
-80	-2.157834286010122	-2.14369844849088	-2.0670320935513873	-1.9368462513660367	-2.2360122147373023	-2.658954136810956	-2.3510079324492854	-1.9809534499698869	-1.7985333158860808	-2.155060762686436	-2.696318858014837	-1.7201127962552771	-1.0054539416677106	-1.6629245239234673	-1.9224535178284614	-2.595903151633841	-1.414335724120796	-2.2641298713740756	-1.4561911784600063	-2.072450632584948	-2.45529317235933	-1.506983872423564	-0.7447614650996385	-1.4564388953630674	-1.7168909267947228	-1.90633284564321	-1.1381385297650262	-0.29315802380933137	-1.3825044597053127	-1.112769600919775	-0.301304578020407	-0.9379723644416924	-0.5043609129569577	0.001304693749605731
-76	-1.9381729315460978	-1.9503966520657732	-1.6051739413742663	-1.8443559361622355	-2.0974106735680724	-2.2164120618174277	-1.8011054947202239	-1.5905600746051325	-1.7845275357014103	-2.152787441540442	-2.3259403646872574	-1.2303378550937687	-0.6286725386005901	-1.4554960690943908	-2.0175511786067344	-2.173204178091678	-0.9106739140406437	-1.5680520494925871	-1.7968246891432633	-1.9761308381732858	-2.041443342776759	-1.041115281337501	-0.3181421450688844	-1.759928341236845	-1.7746771529214094	-1.5742258985828348	-0.7429726701098005	0.07337097060037394	-1.5366125068015788	-0.9785956715672168	-0.10233444694669704	-1.0771236392482977	-0.4958858775493543	0.082589186519483
-72	-1.6685453611208851	-1.7113742785161095	-1.0921770306668954	-1.690077419782342	-1.8755575371119013	-1.776613946243851	-1.3016308513203265	-1.2229359119056697	-1.6456414419587413	-2.0627114720718174	-1.9672121951980617	-0.8822876192705458	-0.2867017977151734	-1.353705283561898	-2.0034661242447127	-1.7467440322643948	-0.5785371646579559	-0.6158553346343848	-1.868358249715527	-1.7702817872174799	-1.58470165329424	-0.6152430757247977	0.08548013844366063	-1.8591599417477227	-1.745373602275179	-1.2065312831934254	-0.4366510499420262	0.2742247276535201	-1.6532961088400497	-0.8651472308250516	-0.03326366460865762	-1.2278791635029915	-0.5470380173223225	-0.016892997505333403
-68	-1.42200064300098	-1.4925792179570636	-0.6979740840455851	-1.5111571512216213	-1.603517409090851	-1.4448978864429258	-0.9755351518796619	-1.037615415814416	-1.4518340789379258	-1.8288754178602555	-1.682167168184882	-0.7504855375415465	-0.12696020273102337	-1.4238454067521207	-1.8253463460613044	-1.385857101756174	-0.5156541453693936	0.23922581910292967	-1.7434793666689996	-1.4935828409632577	-1.1693820923845082	-0.35634586125050544	0.2900260381528712	-1.7823042824569013	-1.651620741488933	-0.8722801186473138	-0.325935690772169	0.20823337085125254	-1.7255718664471829	-0.7979179004550859	-0.12713956800786086	-1.3767670358230086	-0.6474041326389908	-0.2607308023545659
-64	-1.2322293488862954	-1.318013068686192	-0.5090135323070885	-1.3268609013436017	-1.3628478015823333	-1.2663214174724013	-0.843839464441318	-1.0774270268894384	-1.2648556200517858	-1.4694386683557588	-1.494271632236543	-0.8093593100140593	-0.22766537906864043	-1.5931209285567969	-1.4934835396253126	-1.121262070685931	-0.6944802385916071	0.7098832112509301	-1.5847890337032602	-1.1982351511266636	-0.8511057474582507	-0.30473041457486794	0.18708588135691534	-1.6196652609940514	-1.5176595411130411	-0.618146060336609	-0.4294554282312963	-0.12036363750109608	-1.7486814216332827	-0.7772146443771382	-0.35054802806087415	-1.4990344009699406	-0.7649603466747704	-0.553316412959242
-60	-1.0921026440704036	-1.1735820740633574	-0.5049083816178376	-1.1446872920699644	-1.2409551112315136	-1.2215051620160935	-0.8398449399724909	-1.26507901825984	-1.1163651915021275	-1.0795074674054261	-1.3971728051196335	-0.9695926880198482	-0.5584629163947347	-1.7066997246567568	-1.0892442437327718	-0.9567880606336587	-0.9938955877959832	0.6928226930292333	-1.545726772220462	-0.9360293126315652	-0.6574119312854458	-0.41116636887691327	-0.21026128477416448	-1.4698497019850922	-1.3607858385061795	-0.4666194903990475	-0.6722251159862054	-0.5961595162598871	-1.717548127606357	-0.7851036171164673	-0.6175758227014826	-1.5653690060194418	-0.8609871246534565	-0.7824307660375527
-56	-0.972915587353042	-1.030700680991481	-0.5903424605723643	-0.973780033514037	-1.2676436869087602	-1.2436207501484284	-0.8588646032583637	-1.4639195166820713	-1.0083436940484152	-0.7816760520273122	-1.3662750686482654	-1.1347272367438537	-0.9914897059203436	-1.629619594274278	-0.7313597183835967	-0.8844811297973869	-1.269205924644379	0.2948942773049325	-1.6768917995077102	-0.7455569486868024	-0.5946347102410928	-0.5773135409084512	-0.7678738813086803	-1.3870456183699946	-1.1900585859770194	-0.42119419468396235	-0.9282820797371542	-1.041822907678488	-1.6266078907906707	-0.8005199412161861	-0.8311445096012383	-1.5506046971272747	-0.9072775221806274	-0.8717425443574418
-52	-0.8517591931772736	-0.8761690832905102	-0.6583829505510302	-0.831382272528647	-1.3758821452689074	-1.2484419314335584	-0.8147085884505658	-1.5620168408057373	-0.9285095310610427	-0.6538951380432874	-1.366799351102386	-1.2445512978603124	-1.359552499199601	-1.332521196815761	-0.5201798664311179	-0.8908839799322832	-1.4196238481919174	-0.24745629665363714	-1.891688818923896	-0.6431494935010205	-0.6515946967839892	-0.7139188629245484	-1.2907459703282158	-1.3572455610340388	-1.010482904744003	-0.47097793102563196	-1.0878052684022375	-1.2996280160516405	-1.4728531800277411	-0.8126968720898308	-0.9299489236240895	-1.4420837127516057	-0.8973871446840833	-0.8158918598556595
-48	-0.7333595138154069	-0.7328967433545391	-0.6503475888045024	-0.7387776356164553	-1.4233953916852027	-1.1680629223896697	-0.6760416013815379	-1.5339734515561665	-0.8696105458238536	-0.6822096688212568	-1.3594378198633428	-1.285799380870795	-1.5334751567271023	-0.908457455725622	-0.4907506393916958	-0.9531872844472238	-1.4195662701052096	-0.7043697220184819	-2.0114552923916564	-0.6210199578818434	-0.7980304936287824	-0.7827472070958663	-1.616200562211295	-1.3148007359687772	-0.8293436744731861	-0.5916519150101287	-1.112210866981061	-1.305929776709253	-1.2615039316752383	-0.8254500010630643	-0.9170945859642828	-1.2458305327432522	-0.8471915700503779	-0.6803304535855229
-44	-0.6516094787358562	-0.6556307060854752	-0.5797110781338434	-0.7087253910290914	-1.2697579828628949	-0.9760380362663622	-0.469392298466998	-1.4459704124183064	-0.8402889349703018	-0.7676642517735345	-1.3069754805945522	-1.2747230497601494	-1.4788718186233853	-0.5174072967817459	-0.5986988529348418	-1.0333111260074732	-1.3070638146778863	-0.9654270982209476	-1.8680574846787499	-0.6527858360021732	-0.9830833052610257	-0.8016787151123389	-1.687598701030971	-1.189460036135696	-0.6612060053343994	-0.745664594674995	-1.0471686098363169	-1.1171109648156743	-1.0123553250502497	-0.851444659467588	-0.8550876953470621	-0.9878957246633958	-0.7848810533734378	-0.5651659355199621
-40	-0.6469227655290001	-0.6999708396405194	-0.5080829249905598	-0.7314711194644007	-0.8668885805177682	-0.6948199254613245	-0.25354364450337274	-1.4022510016323861	-0.8574488141345883	-0.782626328876567	-1.1834121912641855	-1.2294858663035004	-1.2618520227998478	-0.29753506108503885	-0.7440758328725182	-1.0796158286493542	-1.1448770732584501	-1.0695642205890996	-1.4118820393201672	-0.7027940732378226	-1.140659925441949	-0.8155888894470311	-1.5701059063370721	-0.9563769673996808	-0.5284214602480479	-0.8862802959953896	-0.9873257850514925	-0.8720648862755732	-0.7623041848963509	-0.9013907886635381	-0.8293679931681931	-0.71045607149042	-0.7364840488912889	-0.5504199848583394
-36	-0.7347115855740782	-0.8830478765127364	-0.49407100552749295	-0.7718893270077708	-0.30561333817569664	-0.3845628490275463	-0.08388765880147535	-1.470275279147714	-0.9277048087539619	-0.644970474998956	-0.9834359263386266	-1.1524134845248228	-1.0056445573212212	-0.2908620827007024	-0.8199713805477217	-1.0405614349796464	-0.9804706548731824	-1.139620182021112	-0.7569715957603392	-0.7359413486019792	-1.204278704463761	-0.8531941153919734	-1.401355263032963	-0.6605122072709656	-0.4552746999690111	-0.9675613617310316	-1.0132051680733116	-0.7135639768704517	-0.5599223361183755	-0.9752964352779392	-0.8994297958553787	-0.46503293396842177	-0.7151216250484344	-0.6524373276450515
-32	-0.88378304019954	-1.1574144334181415	-0.5467686639332625	-0.7827322463300654	0.21962785665374493	-0.11442154617031136	0.01823853696748285	-1.6284689862144388	-1.032757994905354	-0.36516564992261935	-0.724239466745995	-1.02894651630017	-0.8187037685704839	-0.42798450481124295	-0.760963795648026	-0.8835749007805098	-0.824054239099883	-1.2657680479517037	-0.13796128297783022	-0.7266588788759645	-1.1263670892887647	-0.8951781965542844	-1.3003630605291547	-0.4017808427203421	-0.45898747328269635	-0.9573019718796146	-1.1347652645071244	-0.709546504613444	-0.4526579070583663	-1.0607957813183302	-1.063431737122222	-0.301779865456646	-0.7186289411520975	-0.8165155628570144
-28	-1.0191683743494546	-1.4161940777309112	-0.6127471908357746	-0.7281150203441509	0.5154721127847092	0.07215888034960422	0.0771047023972254	-1.7696167185927552	-1.1293574543095963	-0.035502456038962175	-0.4358492780648543	-0.8400990345725269	-0.7364456038955058	-0.5762215242142784	-0.5667092189785901	-0.6076664313233032	-0.6531579477985665	-1.4122061693776373	0.2036699200494807	-0.6628957374048708	-0.8925635196085238	-0.8741295315607353	-1.2891132799026506	-0.28698739336989365	-0.5389043079121635	-0.8460766055680246	-1.2751665083161585	-0.8183748701414437	-0.4686652410118634	-1.137841102588348	-1.254956003835325	-0.25593689019435184	-0.7347976546809165	-0.9489747857930033
-24	-1.0551180812899403	-1.5360475739798238	-0.6070371254853535	-0.6052559002853828	0.5034162389442977	0.1779595012940121	0.14852838180712316	-1.7612376168606756	-1.1682872742720378	0.22834654094741383	-0.14668127857368088	-0.5797332510616439	-0.7128577214362912	-0.620143352373345	-0.2948791377251978	-0.24465991494873748	-0.4372949887202313	-1.4169845545279267	0.14642025493370728	-0.5473996387012617	-0.5262933360163603	-0.709996996517519	-1.2782930103453132	-0.37371861840306986	-0.6705621464011706	-0.6494320614630639	-1.3081780639045044	-0.9187137461355184	-0.6029267891920201	-1.1880503862903171	-1.3759795392582244	-0.33728516016680843	-0.7519963364688539	-0.9726329421282307
-20	-0.9431358552009032	-1.4402645789976536	-0.46841475249282727	-0.45028421169082417	0.2716639035041781	0.2470700138529843	0.28822314666457943	-1.5266445836623777	-1.122647282627014	0.35528010040228986	0.1257852014703715	-0.26721954278236676	-0.6611836535926652	-0.5277470932987618	-0.031453091571789826	0.14995127878477002	-0.16754992263930163	-1.091331240759668	-0.2506625944007834	-0.39842152494928257	-0.08368817695707696	-0.36219999102698497	-1.1278438539639914	-0.6370589717039586	-0.8109972456483516	-0.4029121984799674	-1.129935738571747	-0.88458311334434	-0.8152449110429008	-1.2023453682107077	-1.3483453954986482	-0.523788093198131	-0.7667165975286432	-0.8727007486244317
-16	-0.7070968729286498	-1.1471152276641152	-0.2069559688111351	-0.32525664485827976	0.027626076643455247	0.3335268787069521	0.5156112896299083	-1.1063777180394896	-1.0098593209519373	0.35383558183980535	0.3707730760749964	0.049029841895292664	-0.5222086297202158	-0.369467257520554	0.14592963420263852	0.5095773922452401	0.12478627232994159	-0.36880168225635	-0.7830287794370744	-0.24797248777724995	0.3570319405124604	0.12941071358432588	-0.7525027375295871	-0.9775119399186468	-0.9139937139323169	-0.15432447156089918	-0.7279994469382232	-0.6662107689249741	-1.0432521078473038	-1.1853327721232891	-1.1592448920545724	-0.7649111728429548	-0.7848446945402167	-0.7080902439359683
-12	-0.4451303768840426	-0.7765765766564285	0.08403679707290744	-0.29087546394342073	-0.03004225335880865	0.45621174458715924	0.7878913859502186	-0.6624103767836903	-0.8958986378938656	0.2883240871302517	0.5658532962817765	0.29516377970560403	-0.3210978797911887	-0.28146454620823935	0.18998198163227245	0.7638959269310589	0.3670358350546926	0.5954833611712622	-1.2117105691834618	-0.14001363480503837	0.7056004983253416	0.636705039324176	-0.20877069182138489	-1.2659085957037293	-0.9531562900320187	0.04133357469732618	-0.21138031727351358	-0.33182391440537395	-1.2283971278647818	-1.1573518485412853	-0.8795719720567906	-0.9975283120719373	-0.8186869004560551	-0.5838731512587111
-8	-0.2937925450536858	-0.5081234561489049	0.26260563664891995	-0.37956958913338423	0.15233613512201818	0.5656632170700676	0.9982967947550861	-0.41619637503448653	-0.874165651975378	0.21183790213029896	0.6581680162025128	0.38207265638208476	-0.17304426387966407	-0.39480215211372455	0.08571558424050958	0.8422881939603103	0.46190738561358113	1.4477795325919616	-1.3921995127814208	-0.12457404999275462	0.8703008272132546	0.9782608126737141	0.2986524097531773	-1.403631087574031	-0.9402805543047917	0.12582404879750578	0.22007559184300604	-0.042309008431903015	-1.3425558771569421	-1.1518087358004585	-0.641588030625782	-1.1682504386016597	-0.8809697009732446	-0.5982390627062053
-4	-0.37081292177992814	-0.5072382079669358	0.1996151948895824	-0.5860841259464273	0.4288498748442296	0.5480315671435749	1.0053294871697338	-0.5538315162980905	-1.0259898875081963	0.10905557098272924	0.5655999765421206	0.22542189004728136	-0.23142349661572403	-0.7683268766078296	-0.1571317907180875	0.6821230036679722	0.31943800964767444	1.782822366027981	-1.346570607600297	-0.24393010077878902	0.7742459158423056	0.9868556832193359	0.5043026792191593	-1.3665424550840526	-0.9261925793151835	0.045578561608157465	0.35665577560023265	0.026473699070728808	-1.4016617501156243	-1.208038207818832	-0.5844895824934219	-1.2552403179901857	-0.9800727342656665	-0.7947744111022131
0	-0.7217824440852673	-0.8526647069384151	-0.1618943955387123	-0.8768539406572504	0.5224124776048329	0.27308919956877103	0.6873872262765991	-1.1399559945889288	-1.3812600339348338	-0.10877622636511405	0.20662465639398755	-0.2261799121152986	-0.6031404122383558	-1.3557347025020867	-0.5135294782070943	0.24669578609170684	-0.10638337555490557	1.3515315021724277	-1.2376443116411786	-0.5157359229418189	0.3779048910136553	0.5811554774870387	0.22229373398923835	-1.2108457057899544	-0.9812104677222667	-0.2342388027952921	0.0731509400547411	-0.22632835748273689	-1.4587238990194078	-1.3603099550234943	-0.7929440716750716	-1.278806444754112	-1.1189283104302876	-1.1453111142806087
4	-1.2969533172287424	-1.5010265074025941	-0.7775425295272198	-1.2106873958538307	0.1819474692519305	-0.33553901230019956	-0.0018824207316123648	-2.081283325662623	-1.8958202552614265	-0.5480152354709478	-0.4532802093505726	-0.9662569736880602	-1.2793357339983813	-2.0197086283235777	-0.9487838721162698	-0.4528852987776103	-0.7939909676532635	0.21162119454360395	-1.2636339632555538	-0.9210725403419043	-0.29994931741324826	-0.19487731109531575	-0.5389382825595997	-1.0406044695330656	-1.1627488106934918	-0.7139052134609293	-0.6122566446105117	-0.7711759786208999	-1.57879674036054	-1.626417036718582	-1.2593359915409412	-1.2948745456428044	-1.2974897590303667	-1.5695280989120783
8	-1.9678260038284088	-2.3023562373206543	-1.5161489209996677	-1.5576840599786639	-0.6566035134903984	-1.2403297393001091	-0.9975663398352079	-3.1582503239048467	-2.4556477007855593	-1.2438640563077874	-1.359944220924076	-1.9141648959469224	-2.12237500608561	-2.580425494354803	-1.4158471786991942	-1.3402508463400078	-1.6488717752788324	-1.2692136732481802	-1.5306129416922145	-1.4017348254099344	-1.17122029962474	-1.1812164753654935	-1.5567359885012602	-0.9516504382902152	-1.4823956452136096	-1.3461803163872932	-1.54183232394996	-1.4572238885327775	-1.8040004923096555	-1.996625418390402	-1.885165925034725	-1.3699622119647619	-1.51325964545612	-1.9763386199644484
12	-2.576922887018065	-3.0608000678032283	-2.209455484533966	-1.9039289903254877	-1.8019212438865604	-2.276296371434911	-2.1267812198348612	-4.109029282686001	-2.913057796752902	-2.097944015928176	-2.3633143842157	-2.9229876921288325	-2.9197564051344274	-2.8792383598113105	-1.8547035408876973	-2.2781476916969603	-2.5256988938460014	-2.5664253170067273	-1.9786119411104421	-1.8738906336203214	-2.090802664246377	-2.158579582486512	-2.488534205829482	-0.9838784908249666	-1.8921718549639361	-2.038501734355231	-2.4834670957806297	-2.0799698777136686	-2.1284303611423434	-2.4305829940464734	-2.5230474408345076	-1.5479636153239453	-1.7594912007731658	-2.3043291510577384
16	-2.993792764734491	-3.607991924713328	-2.710124485802857	-2.237843507838758	-2.8782219814111665	-3.197901479276539	-3.1549088875271747	-4.725568759431391	-3.140336744009278	-2.8876476214935702	-3.2563838876524445	-3.8154342078199575	-3.478463402548901	-2.831862204077652	-2.1997346822513797	-3.10082315615738	-3.2723703301780005	-3.2340574182874264	-2.40634893763488	-2.2537634315809125	-2.8938116954220994	-2.929345361943103	-3.032835237475273	-1.1072052689254617	-2.29842876807703	-2.674480908317165	-3.225946895084027	-2.4721670088340617	-2.4954807695326466	-2.8654909061564444	-3.0384266299782463	-1.8256984903017484	-2.021332497261738	-2.538461201934507
20	-3.1506700436200297	-3.8525459669120505	-2.93199800704749	-2.5286669667297432	-3.5001220614755413	-3.768306007407939	-3.8570685289276097	-4.918961512544195	-3.0784361284734234	-3.3545167361443067	-3.8460936449221155	-4.434652794131948	-3.7076303865284155	-2.452708476549816	-2.3937857090594217	-3.6636264231690556	-3.776134481432974	-3.103929273398073	-2.579949372453539	-2.4835958418130195	-3.444396725541405	-3.3843109522250896	-3.0710627955147443	-1.24720537347617	-2.5978834563468585	-3.1476178089780777	-3.6573057082344524	-2.572420829000257	-2.820045225652897	-3.233715526045858	-3.3596451197678334	-2.1504254286832465	-2.2733364047828384	-2.6983423164905633
24	-3.0476555747333878	-3.790105333295894	-2.8610038685090813	-2.714105360808065	-3.4571292313075985	-3.8507184885078507	-4.088272084404668	-4.729036796074245	-2.762109272658913	-3.327868214788248	-4.023550500248006	-4.690389144499458	-3.644286861755481	-1.8492066813510994	-2.403291934621358	-3.888035525996032	-3.992448319845574	-2.3410677850744794	-2.3700146615272746	-2.5463309223736226	-3.6746430304257873	-3.524353018445614	-2.70913409502777	-1.335518952812526	-2.7201745441423513	-3.392612687128446	-3.787818422290926	-2.4356543956297387	-3.0262956542856077	-3.483239403513405	-3.4918148429448794	-2.4423310695020417	-2.482282870701222	-2.8094952035542895
28	-2.732676260724557	-3.4778590114524044	-2.5394458706637106	-2.713377230469327	-2.8109188008865105	-3.4586381824909225	-3.824414481997724	-4.280927170435595	-2.306665891545613	-2.816658728163889	-3.798081150002442	-4.579507816196643	-3.40854071710227	-1.1872736185615653	-2.2291471901879842	-3.778801670070649	-3.942583550989537	-1.331913229440587	-1.8350433064860405	-2.4628250536727117	-3.593976488576228	-3.429206124230881	-2.198896402529375	-1.3541692461156583	-2.6544055871703405	-3.397843829159306	-3.710393181016069	-2.1864802782168504	-3.080316058964893	-3.5903394131612165	-3.4884653003355384	-2.6312708788242087	-2.6148338251852885	-2.8764963077399863
32	-2.2733445110145074	-2.9953675194454807	-2.0416624494504005	-2.4634492335112235	-1.854315872279057	-2.742961399782452	-3.161935559872715	-3.7193581964048112	-1.8623223257729415	-2.01481079546546	-3.2803361333042513	-4.173964013051842	-3.120749465692642	-0.6457981450942174	-1.9048762273378665	-3.4064862642113387	-3.6846635248615476	-0.4771516609065902	-1.2064945667323363	-2.2743153514661576	-3.2670977033144815	-3.1947894015713834	-1.789964194546937	-1.348602053098403	-2.447432034989041	-3.1950051703849254	-3.526891699469478	-1.9444441746256624	-3.0026073380002	-3.559711208892842	-3.4006490621539327	-2.6902708939340374	-2.64820360468783	-2.874648802175193
36	-1.7407115653911975	-2.4204745231552467	-1.4566124640882152	-1.9647186944948234	-0.9605288481303177	-1.9258583735480144	-2.2821047248443187	-3.1575744072348	-1.5585485657443034	-1.2151316373663528	-2.628225319902455	-3.586323967462126	-2.8316378521952843	-0.3696465184892634	-1.4884068928333203	-2.8698182033562123	-3.278697005577066	-0.009866525394145833	-0.7861171940983137	-2.0231325575294106	-2.777287953040512	-2.8780939506345122	-1.5984234769519174	-1.4014844859025097	-2.17865108893608	-2.835958473674854	-3.2861816800119046	-1.7629911855055402	-2.8543486523088433	-3.413866034471637	-3.2370459951689194	-2.646046631808144	-2.578379862951276	-2.7640092303109762
40	-1.2088798254009359	-1.8289307309704674	-0.8810564257311738	-1.3102745976745407	-0.4095511128099007	-1.2169449298651316	-1.3977879250521625	-2.6630110673427057	-1.4590520821927124	-0.676325557908531	-1.9877355048538867	-2.934305660468788	-2.5118417676450258	-0.43141627202784405	-1.0517339679867168	-2.262279743204919	-2.7698130537673924	0.07271362822770877	-0.8042369464596397	-1.7437576011501086	-2.19924520890972	-2.484366887495887	-1.5716310699837341	-1.5826308687306816	-1.9253026198415317	-2.3740584790372066	-2.9735209866789827	-1.6190224845064163	-2.705532305562376	-3.1809813895975783	-2.964164487984344	-2.5615713531670536	-2.4227783618792884	-2.5186192925760342
44	-0.7566949109999904	-1.3020185199289669	-0.41457670822377174	-0.671732245179802	-0.282191514256407	-0.7496483307031451	-0.7013702374870229	-2.2729778232407747	-1.5468146761941557	-0.5133592473420455	-1.4581372701070094	-2.322128766872784	-2.1065311378699967	-0.8135931471310555	-0.6696204526207418	-1.6610776144051203	-2.200497860121157	-0.058491919042013646	-1.3101763692201989	-1.4672369919926043	-1.5972171981539987	-2.0019645640373223	-1.5613754948295733	-1.9021160554545766	-1.7375026897431713	-1.8624772978489663	-2.5558826858840527	-1.4538406096945786	-2.6036562853880696	-2.8908107207745246	-2.5504500801543606	-2.4997193750212126	-2.2166132870976814	-2.1548109000161686
48	-0.4624597716576424	-0.9281523800304503	-0.14701294861869615	-0.2434438609891002	-0.4691764998511335	-0.5611651525634493	-0.3251681915656564	-2.0210139700408627	-1.7457990602285116	-0.6676691157650116	-1.0922052832684477	-1.8381723119102695	-1.616871591300482	-1.4158611261860365	-0.4117986251447719	-1.1389635772559241	-1.6386218029612662	-0.20790819771250138	-2.151024574571016	-1.2331727712014184	-1.0444995138500137	-1.4597367011408742	-1.4504224025346297	-2.2938382567665987	-1.6342650610670537	-1.3681484426288262	-2.051227325982648	-1.2360650269771973	-2.5594410831681595	-2.581294530073434	-2.0272901007012867	-2.488489383136724	-2.004648203556914	-1.7426719621529105
52	-0.38428652189506524	-0.7839630226369251	-0.13515834476202185	-0.16649296837732938	-0.7728685121096687	-0.6144914015514331	-0.3195923856772529	-1.9506995628697568	-1.9671122978136701	-0.9672262048143058	-0.9185928679162191	-1.5585579832781542	-1.1527953118782899	-2.0865042156946076	-0.3356717816461015	-0.7811232785530609	-1.195690390429048	-0.2766399972606881	-3.044955245913301	-1.0978405447898645	-0.643133221433038	-0.965869901125866	-1.2505499092953627	-2.6426262788809884	-1.619041915620564	-0.9869546865340578	-1.5736733635271618	-1.0081528399763262	-2.558169596889021	-2.311668866996849	-1.5265811643204967	-2.5107850965051153	-1.835183854238066	-1.3958494627996714
56	-0.5336852656241624	-0.900977013220552	-0.37523123527203833	-0.46482121827071415	-1.0305544111935714	-0.8379799106421777	-0.6460905058761025	-2.098269934124985	-2.150388950640736	-1.2363959519641547	-0.9581404304155532	-1.539468284534847	-0.9083093977883737	-2.6662394933141687	-0.47388455152076536	-0.6804733259186888	-1.0084916327763742	-0.29607388302438165	-3.7019240762706054	-1.1242190571057726	-0.5157981501908073	-0.6904268843385353	-1.1058934899065567	-2.836985819329609	-1.6975592331942384	-0.8364549258094495	-1.3131971326097889	-0.882309374965834	-2.584427827032076	-2.165140861766821	-1.2564181057679737	-2.5234179433054957	-1.7549103454151636	-1.2392852275077022
60	-0.8636763670096429	-1.2429980008213874	-0.7942796925518265	-1.0298219893204206	-1.1890379160424625	-1.1589609355275792	-1.1887971132781778	-2.4599847731470454	-2.283647769884368	-1.388844367335485	-1.2178302972563897	-1.796125884289681	-1.066018697908232	-3.032795898409821	-0.818962929565313	-0.9033775902828199	-1.184000250688055	-0.3625583937551145	-3.937621106696646	-1.354823824322929	-0.7621763329336304	-0.7918995598826648	-1.1978974312102189	-2.8204510140735035	-1.8824926567232982	-1.0180349324272675	-1.45005368820298	-0.9827043389305006	-2.640555375108141	-2.2292666378958126	-1.4122590983020644	-2.4921894010564594	-1.8020153000157784	-1.3640269006623034
64	-1.2858417001684788	-1.7144554810153492	-1.2746624914412104	-1.6665688711051232	-1.297189828458614	-1.5176089963743993	-1.7850520565741095	-2.9717645570111757	-2.395101779612739	-1.4550315104941842	-1.6657443004513823	-2.277809137315491	-1.683365936797578	-3.1326663415017886	-1.3135642972206782	-1.440143581569065	-1.729781861706329	-0.5345848189208414	-3.7257232571950154	-1.7796295836340035	-1.3963251078637782	-1.3203978505176341	-1.6142351586594335	-2.6131172114200916	-2.1786062662433223	-1.5599549969388726	-2.042989487258329	-1.3631997074041988	-2.7434012820597835	-2.5544533665059475	-2.060426468415477	-2.417797082518696	-1.993707890245302	-1.7830195381924
68	-1.7196251110529563	-2.2107930127593485	-1.7104278759687552	-2.1836254541578963	-1.4413722717133628	-1.868414039662896	-2.275719398474942	-3.5218522459757318	-2.5267081196887906	-1.539787527011458	-2.214247697961808	-2.8640584873368184	-2.628014557879061	-2.98966454704777	-1.8575004292320763	-2.176859134900077	-2.5166056092620264	-0.7728229145565306	-3.1788952270357065	-2.3207561911163617	-2.30505990400084	-2.156816477098507	-2.2656614723223574	-2.2925705851847162	-2.557837956646328	-2.373312467305081	-2.9567360803340312	-1.947313423008616	-2.89658450349005	-3.1075963895539758	-3.057019225985382	-2.3323631227734585	-2.3089981020804964	-2.4059114395433334
72	-2.151787990859372	-2.6894330910491897	-2.0730102009886866	-2.4862978395631554	-1.6817003446081797	-2.185832971776224	-2.5675609046961205	-4.000275601777717	-2.711251252004846	-1.7475079253899075	-2.7391722133143577	-3.40181421374706	-3.6113526729958583	-2.694256775729394	-2.3378097951992824	-2.9207119867970537	-3.3109824573845916	-0.9619375443013827	-2.488592141544057	-2.8500592636630566	-3.2639486707296586	-3.03505729862689	-2.906877033523878	-1.9497404049284528	-2.9453194067025774	-3.25479077471091	-3.881265630459535	-2.528045409495595	-3.055531970892701	-3.7488105202440254	-4.057353963144838	-2.264833921436385	-2.6740281514365942	-3.0454211158156896
76	-2.6687564782473894	-3.217197410090248	-2.4481701789080756	-2.6259143286210582	-2.031947369213698	-2.4787249502542723	-2.6810905865689096	-4.361768234684615	-2.966623775621567	-2.1239728873987143	-3.136198274323682	-3.7720649147165637	-4.319184769215957	-2.380337947557729	-2.672065728116964	-3.4784846218023873	-3.8712563416969648	-0.9952015851643595	-1.8549989415064583	-3.235888949807461	-4.015843858116584	-3.6472530272905948	-3.255360118276367	-1.6446695286234876	-3.2310938753566765	-3.947164763975407	-4.447684276795579	-2.8383140492304304	-3.111990205537145	-4.2536687743557335	-4.63019894384576	-2.196548933205468	-2.9626302644316986	-3.462342015107914
80	-3.434283724697187	-3.959302653806822	-3.0163807792801225	-2.7791168619561826	-2.4866316255730547	-2.805991642543238	-2.75974678296456	-4.665256965302658	-3.3081383621616696	-2.646228068346382	-3.3889989767341273	-3.9581651587688005	-4.5737852934754955	-2.1928815786309865	-2.846621744598249	-3.7555370235992354	-4.0683402912421	-0.8626375772631201	-1.4376870357454943	-3.4002876195889273	-4.382910240551647	-3.7886614703845005	-3.1419823090380823	-1.3886108363378447	-3.309851638066768	-4.239772309089305	-4.394290436140591	-2.6664240292939274	-2.917876474642958	-4.383887279886339	-4.437270630123873	-2.03936314067935	-3.022261611937394	-3.442390910040488
84	-4.608059871483443	-5.0973353257229945	-3.970324983109438	-3.160712949402169	-3.062484971897485	-3.2713725484269798	-3.0200862808271633	-5.054446207636699	-3.7616145515837687	-3.2600936807338985	-3.6020934490812473	-4.070934762213333	-4.4345021135903355	-2.2511899414445877	-2.92929815506456	-3.817257871526901	-3.9628560443007808	-0.6787952167539192	-1.3338742222487463	-3.3565695201051886	-4.3530139813192665	-3.4649338634747835	-2.6061320239072097	-1.1572397918093906	-3.1298661152973106	-4.060571183443112	-3.6995198633250155	-1.9601408193690524	-2.3441057146017217	-3.979742516960173	-3.3931167040033943	-1.6569757419713236	-2.72157310752383	-2.8774521278211913
88	-6.240722163656533	-6.7120652029328145	-5.404326425259196	-3.9126520058075385	-3.811463107976468	-3.9851395983216684	-3.656053295441594	-5.6854319428905375	-4.3627080807210605	-3.929218282316006	-3.966347445964329	-4.307013500783551	-4.179023255287603	-2.617256157942845	-3.045065395296568	-3.870799293281981	-3.791553010904544	-0.6342838390548677	-1.5731590946533383	-3.206708899984893	-4.092295636335427	-2.9029669688364845	-1.8863371563016045	-0.9246114469072186	-2.7270116737179846	-3.5142550379718416	-2.614034646110158	-0.8712769128736321	-1.352848645609349	-3.036145917856319	-1.7274113849895967	-0.9312790012688943	-2.0066957423090686	-1.8211775972162385
92	-8.197124460505423	-8.68888280582147	-7.229053479062848	-5.02241085691802	-4.782050597515106	-4.9984216563865465	-4.734202849833175	-6.634051783024799	-5.132430540478138	-4.6546726109287455	-4.65998886839213	-4.850560652884127	-4.165898789378357	-3.2740728772470664	-3.319991580210356	-4.163887967087291	-3.8571200273405655	-0.8953058100984264	-2.1173183864542118	-3.0950243394911126	-3.8696117303424744	-2.450884097587137	-1.3108965125365568	-0.6917490345656049	-2.2208213750081995	-2.8422253060107163	-1.5674090345863738	0.28612363266231183	-0.04340307776102514	-1.723192091405889	0.08793970175236554	0.15951171477099294	-0.9399272179714554	-0.4895154523411339
96	-10.158496831041715	-10.70706841626559	-9.16188333105548	-6.311977847375555	-5.949732288597755	-6.241355403401028	-6.131749137656029	-7.83268783499121	-6.04002903367007	-5.448306069923548	-5.730815396145096	-5.764591202486822	-4.646413791369519	-4.124611367302422	-3.816536893745518	-4.846513735932675	-4.372672546790874	-1.5119191369985059	-2.8636584209620963	-3.1386008183392224	-3.9256920715399963	-2.4136624275303555	-1.146466609921307	-0.4911685871598056	-1.7682895615755372	-2.3188009203540867	-0.9884096359093517	1.1519691915037888	1.3600810731881348	-0.3342111698295683	1.5207679233302298	1.496603723562137	0.30388623399304543	0.8037673810692847
100	-11.714795083032849	-12.33234974608549	-10.807690593135568	-7.504198532231698	-7.1680922327262815	-7.506560306670315	-7.557642440788172	-9.074698425269741	-6.977632981803336	-6.28045366608918	-7.028077107805127	-6.932398778578919	-5.62526701460616	-5.008523451557575	-4.493173111061834	-5.870662197549829	-5.342676626067923	-2.3949446617695083	-3.6510114577620625	-3.370655289722946	-4.355195034475381	-2.908680431651649	-1.4867421351089467	-0.36554551032281385	-1.4993228874499251	-2.1358489936309373	-1.1253017158707392	1.4577771388441858	2.577756636787078	0.8167375901582422	2.1849999372629463	2.840006582719199	1.4869704208978602	1.753944630962951
104	-12.513517348167149	-13.178667035208509	-11.800741165884704	-8.332947709979395	-8.185198763208872	-8.500018098351529	-8.654786088073083	-10.089550946511196	-7.771083335329852	-7.043496114113855	-8.230499246798113	-8.085144976230037	-6.846017343402724	-5.74032829742723	-5.2090573179336	-6.985651475435435	-6.543951494861167	-3.3591728125638256	-4.288821209569717	-3.724591484202878	-5.061551558113145	-3.8128375910815184	-2.2299508992161066	-0.33528983508334514	-1.4634491168266917	-2.329827064353958	-1.9488092611701227	1.127852675451396	3.374453536097023	1.5056693515910065	1.9793316075896432	3.912205447810009	2.389235252070178	2.173568720098204
108	-12.404596297416756	-13.07380100764124	-11.94854065739387	-8.64778039656245	-8.732214905626616	-8.948902107533147	-9.143795944016185	-10.65575024775502	-8.233476618006415	-7.5645789909110395	-8.969408966307055	-8.910490013513918	-7.910409907396299	-6.166853412317154	-5.774193749154472	-7.839663008923795	-7.623143653696528	-4.200482834701197	-4.613854873452454	-4.066938866837679	-5.807846531509693	-4.827951419085008	-3.1437103668950477	-0.38135060571709867	-1.6147515733004636	-2.7844569612774173	-3.180194846707108	0.3007296316183552	3.6449241546158104	1.6687369304487094	1.0983999939843139	4.50688408667419	2.8849010394692547	2.0542666860213608
112	-11.506199807680595	-12.139772384511154	-11.307303400101706	-8.462587335201404	-8.645270325768006	-8.720603920853685	-8.941307998970778	-10.692192050641529	-8.240558603462167	-7.67392776459126	-8.993174530211897	-9.191473937670224	-8.468190171796145	-6.214959128901022	-6.025491222427478	-8.141124704787433	-8.262182214857768	-4.76451634157793	-4.552453506419978	-4.26411579962843	-6.337670787068988	-5.628861889932777	-3.9759423632374675	-0.45627283934789975	-1.8445683671156787	-3.304415932895555	-4.42666100338064	-0.7390843611176949	3.4424412163605513	1.4018193447960126	-0.08117323348293494	4.570256698513702	2.979614250289697	1.5540796479089067
116	-10.154161427610276	-10.742588016090464	-10.150769208075385	-7.925989607826935	-7.950088004067362	-7.8894748488554045	-8.191859224617836	-10.280429814132301	-7.789398173693035	-7.291943531699475	-8.286623933851235	-8.902102447922301	-8.377819040127337	-5.911278709745866	-5.890320763021436	-7.7946319383282585	-8.322555520979755	-4.98141812020511	-4.158946026792151	-4.245128620873877	-6.497490866468947	-6.012081131061189	-4.554305065100606	-0.5172687755876376	-2.040856356236493	-3.7143862153687803	-5.3506536348673635	-1.6834261374886492	2.941192381108749	0.8985356665813606	-1.1730717390960788	4.214642514078289	2.7937459875143404	0.9209096408481444
120	-8.759156204997073	-9.335152602468604	-8.847265221193076	-7.236299973337765	-6.86085651572854	-6.712702734211723	-7.195589524221798	-9.610189413602814	-7.007592660377598	-6.487882120918257	-7.082558137178074	-8.210365274680976	-7.7556657595325955	-5.364949689671357	-5.413331018131969	-6.941948873159299	-7.8944744864465415	-4.860383975155468	-3.598597755883286	-4.030666341141905	-6.2981004555954065	-5.970825657074773	-4.832672583776458	-0.5578621611815603	-2.142722601249081	-3.932111730184677	-5.792932972587385	-2.321825736859511	2.3525805413930687	0.3596855690934834	-1.9282500695182332	3.656653633422256	2.4994709428624162	0.3865025629775745
124	-7.633303146163553	-8.260610559588299	-7.701627235041345	-6.547149641673161	-5.685842499682714	-5.519532666575994	-6.265534385120988	-8.878910042280173	-6.102280124516319	-5.468665586015945	-5.755100235713909	-7.387418251459646	-6.8948035066096285	-4.717959868917154	-4.733555781811128	-5.88652084771731	-7.2294688042265935	-4.4645228273206925	-3.077880851604098	-3.715554704822007	-5.886504635253972	-5.664526925090534	-4.8771567221529155	-0.6174696072247611	-2.1625864451167764	-3.981479634723121	-5.799672112127255	-2.611002915465957	1.836857910287001	-0.08178143927668746	-2.2947010936021885	3.112268440018254	2.2426621857288134	0.08003375659047951
128	-6.867363435572951	-7.610583762981168	-6.835850698378343	-5.90738485752181	-4.684113490676192	-4.562997806472702	-5.5817108013372225	-8.198439577384425	-5.271061407132523	-4.492064464671811	-4.64384888430202	-6.668329698892846	-6.10406921752938	-4.087373723200881	-4.018684377060828	-4.938259589125111	-6.5948414636047525	-3.888868322090731	-2.7548189093655515	-3.411966315238152	-5.445556150039134	-5.305558191255632	-4.811221110594533	-0.7601157407643029	-2.16389679362421	-3.943699349936915	-5.55199287920156	-2.6656174592428634	1.4524804317042384	-0.38705548546343743	-2.3766910969809993	2.7022955349406654	2.0879929012987595	-0.0009944580935911148
132	-6.314803584367933	-7.205352288174201	-6.1623058163508535	-5.262151228016836	-3.94788097338522	-3.9068808456963766	-5.11317728658998	-7.558238010397264	-4.617559421325182	-3.7443201447365637	-3.8973929783649846	-6.135620101696548	-5.55672977951919	-3.5268576056127525	-3.3881149206450507	-4.2599792372914616	-6.128723605894868	-3.248368970299023	-2.6722173623328898	-3.1839668670375505	-5.080656038808319	-5.031037317925294	-4.754078853048374	-1.0333815786974199	-2.2093756143101686	-3.8816058537710543	-5.247127519711261	-2.6830632618874155	1.162074682162784	-0.5865680560561368	-2.333446258375582	2.4157071052595684	2.01145791499602	0.04294563819056103
136	-5.686809048599951	-6.703105909589956	-5.4559731345709395	-4.507982242646759	-3.373035660810686	-3.4070246133615907	-4.647970664687121	-6.860343438947608	-4.116089333632532	-3.2469470418968513	-3.4163839730791716	-5.68795965665979	-5.224273191613445	-3.0269236488213753	-2.8623666691037855	-3.795837154341603	-5.776550755221519	-2.666395180645929	-2.7479150225879385	-3.009642354995988	-4.758006560710577	-4.831735121925798	-4.780041682572668	-1.4344795906089391	-2.312838548542968	-3.785522212961396	-4.99805878331007	-2.8435149121018206	0.8804097749416382	-0.72925609166085	-2.281097406350158	2.141845459298781	1.936344737886163	0.08402535298113946
140	-4.709807384043938	-5.782788262072226	-4.486218917964157	-3.5672721772728004	-2.7308292319969207	-2.7975954938827954	-3.9139976402645904	-6.000513061632388	-3.6421344188287867	-2.842775814508472	-2.9225084707860485	-5.108156191326779	-4.924304949725529	-2.5442974503175995	-2.3612461030472156	-3.3157875454156724	-5.340410695897862	-2.2493398132754305	-2.8282847333072656	-2.790114157308056	-4.326608646913277	-4.572268474479081	-4.905796038639446	-1.9050379943433786	-2.422091477954631	-3.5717043786471083	-4.797693717287623	-3.2334594644925496	0.5325323925878275	-0.8393406846789642	-2.24685143857163	1.7469676688910274	1.7875988438296422	0.03367156526885786
144	-3.2713651574510463	-4.3146715055249585	-3.1448295037025247	-2.4432363448446046	-1.8004378034911357	-1.8389488412204429	-2.7304346492495037	-4.94947193803479	-3.0516948622903284	-2.271777862535186	-2.115344280624235	-4.193208683871173	-4.4478406793830745	-2.0461230226355496	-1.7499841407462045	-2.5497324402330768	-4.6088166120516005	-2.0434439130689497	-2.7797191072854726	-2.400519364971986	-3.6100010780743443	-4.084386338412281	-5.0985398163815745	-2.3589472711133226	-2.443850987939977	-3.1326122204844693	-4.55450152200929	-3.8212017916524417	0.0911776570163882	-0.90348803768931	-2.1858818475848167	1.1535085410558716	1.5349751672137326	-0.12538674442105402
148	-1.4843317232803157	-2.4346451697869496	-1.508204098708325	-1.2281460731016218	-0.4936256098205334	-0.4517139184991194	-1.1131460638552257	-3.78700899121692	-2.2660863342292434	-1.3061695065899344	-0.8355293252830693	-2.8764860557411107	-3.6871845629106024	-1.5394211968655933	-0.912713883002931	-1.3393864597836576	-3.490896454580499	-2.003436083503822	-2.5620062286542367	-1.75708472285108	-2.515470736828368	-3.2746212399776153	-5.294966684324366	-2.7257363727415904	-2.295089715885143	-2.4070496498370906	-4.166085709543901	-4.484155166748665	-0.41960030688204786	-0.8889479614702217	-2.033222908608671	0.3815391054057249	1.204511639414955	-0.34767773659663964
152	0.35413068443534323	-0.4924334275210684	0.1890724892611022	-0.06844211352472912	1.0866556140167123	1.227986809491184	0.7157468777705496	-2.673671715661737	-1.3194251027173558	0.1187672761064296	0.8452680685636877	-1.2797670332068871	-2.697612040384619	-1.0638544532619016	0.17806313886985364	0.26796635917719447	-2.0822319931864732	-1.996344918932797	-2.2439501228898684	-0.8684468843468416	-1.1025408478556953	-2.186189884388238	-5.423207746164894	-2.981718771082113	-1.9509781549787337	-1.4299639427321564	-3.5852508454402994	-5.067586409172127	-0.9457520222627794	-0.7753658275101629	-1.7522731975183794	-0.46358841540593726	0.8567566253965593	-0.5611848817008201
156	1.882425780312029	1.0942066880256627	1.6476129251843545	0.8891339279614514	2.6840686730329484	2.8997616694671358	2.41619634018265	-1.7816618635971342	-0.34546863945522915	1.849900360205244	2.6499073438497884	0.3295902303480557	-1.6670999484887312	-0.6568785293206977	1.4326851331778616	2.028706068638996	-0.6302269085231184	-1.8500633193036484	-1.949865932310033	0.15568573733600388	0.42522826683449816	-0.9846042369779194	-5.421813951154986	-3.1476266304654823	-1.462281104210622	-0.3332573465039583	-2.8447019982041706	-5.442516313163264	-1.4292685949479622	-0.5764340147723662	-1.3522469963265051	-1.2429383961767626	0.5498400316661392	-0.7061160188967023
160	2.8141689229486175	2.0080780932272093	2.6177027159403745	1.5437102278835122	3.9952754873494225	4.2277521980356685	3.6723821070458755	-1.2224042384756155	0.4848941850340759	3.5607464223606873	4.217584599336974	1.653575296995473	-0.8216506222007391	-0.3174231938454188	2.667243712366809	3.6061015038044046	0.5811679944624099	-1.430986520015341	-1.773796553901721	1.142874237989764	1.800435061677483	0.12148595570648012	-5.25380323990925	-3.254902593024226	-0.9315850115143985	0.7041793447835499	-2.0332262464687703	-5.538220391595951	-1.8198595001050035	-0.335154949772559	-0.871080515569593	-1.8400121880805511	0.312924414083065	-0.754585681440649
164	3.036767713509046	2.1488835757360896	2.984386674975524	1.861315603325227	4.790353286092777	4.9812636249662425	4.319628704609123	-1.0063863967282225	1.0405857536746534	4.876503932084984	5.256668554385659	2.4900886949612993	-0.31700730243754854	0.0038238924365804217	3.669714441571043	4.712048995518991	1.3612028325999754	-0.7095912080969127	-1.7136782364494403	1.9261381577498837	2.802150242406452	0.9765332912585505	-4.912199007983632	-3.3035905277767896	-0.4595853078682841	1.530695315311086	-1.2453501193075753	-5.3426332338866365	-2.0689089246013364	-0.09620226150304236	-0.3447657814858123	-2.192363495059907	0.14438322150016772	-0.706420360212157
168	2.6302111082427784	1.6474249321352075	2.7876667905997574	1.8684824657949255	4.992165552886716	5.118516909074057	4.395150650371817	-1.0555778715185768	1.2813708749844541	5.526815877312001	5.654338345556932	2.807800047461157	-0.17794823601617799	0.3799469759408268	4.282623757040198	5.217815862833361	1.6871679978689114	0.2188394064146467	-1.659688945394649	2.4107494293382477	3.341181746630245	1.537784691742772	-4.420028198526781	-3.240666381283436	-0.09373149997172855	2.08092474412056	-0.5389071093304609	-4.886188494743638	-2.1205260700093453	0.12374823509205717	0.20984882063336016	-2.2902607859962116	0.030944093983725173	-0.5730853066280499
172	1.807973499501773	0.7822840790071308	2.1796691362662735	1.629946108517533	4.682815063097682	4.777229297020686	4.094693650397977	-1.2531938521216341	1.2597155539179126	5.451929078642429	5.49583576722176	2.7372062137160498	-0.3095588974289644	0.8560577013336877	4.461593139828089	5.18560455920375	1.691604013940475	1.1683247059888624	-1.4511159621794851	2.607883923622025	3.4815406711415955	1.8728822422425573	-3.8247918986074887	-2.9767315312570584	0.19332911025350621	2.3916723667796007	0.07823539505517924	-4.224889744582202	-1.914023394520583	0.3484422853732433	0.7881675342687657	-2.1519267504720587	-0.028188468817232942	-0.3651778390724451
176	0.8129667619206923	-0.157068982323814	1.3451536859882738	1.2240011661144061	4.048996438294113	4.1863460435076405	3.6635246184360364	-1.5016554556126762	1.0779218646491144	4.819267260781738	4.996088969014506	2.488619798099163	-0.5646444544841388	1.4049969876102553	4.285851944593082	4.815007674458265	1.5748851259523862	1.9352772187009308	-0.9697105860069163	2.62128519350091	3.3929145250488264	2.102864021714094	-3.1881778159710104	-2.434779399446645	0.48459365841587715	2.5705845291086526	0.6300611480064164	-3.432707062637569	-1.4032231533862183	0.6291202886910124	1.3765644992405732	-1.7964014961664265	-0.009666892675490731	-0.09185738093311002
180	-0.18087102427116591	-0.9943213437725389	0.4243212033525964	0.7232712488987081	3.2981090462385048	3.5490972906151965	3.2769005215880718	-1.7625260308588875	0.829174933724253	3.9432015319450078	4.385580051793686	2.242522472441813	-0.8263586142657263	1.9170196007965874	3.9163994690243955	4.337622154728488	1.494686242144554	2.3691594540861964	-0.22000971380953435	2.5947692328744965	3.261270276418794	2.3256592691832063	-2.578145020651454	-1.6035677154109145	0.8694300033552848	2.7356026103570614	1.1379710407136303	-2.6008038455149003	-0.584562657787732	1.0126955483617686	1.9361094187491839	-1.2327753274310596	0.12416803060415035	0.23116896988201455
184	-1.1206495733577655	-1.7235506729479524	-0.5294672833426365	0.184508621226818	2.583779805335714	2.9581949636158704	2.9696686192875856	-2.060805553955291	0.5544945583648979	3.1468899170579183	3.811079730902241	2.071270937458532	-1.0600010129869017	2.2363967839044223	3.523493042632966	3.9156167408311813	1.4957998953247256	2.407018893840464	0.6518307907813484	2.647211544982693	3.2047841468006655	2.5656747753216105	-2.0633625932096997	-0.5619005546688314	1.3933982813941168	2.9588944837251883	1.5957444865946067	-1.8307449771435604	0.4866758572688812	1.5120776853532083	2.408615583060676	-0.4675306666014284	0.4016284038417139	0.576681135628981
188	-2.0682904668087083	-2.4838368829958823	-1.546898361115209	-0.36018979458468775	1.968402142323353	2.3801696240413084	2.6439192228321917	-2.45940255497835	0.23405745566402084	2.6319451265642058	3.2949902928131514	1.9262174319272347	-1.3149822917163048	2.2340323868614416	3.215584985243855	3.5887989907255307	1.510133024217676	2.069335455438272	1.4191801512173297	2.8228053975361873	3.232274285738828	2.771777146017072	-1.7043155388717606	0.5436125383957293	2.032301897639927	3.2403488077368743	1.967469091216395	-1.2156286208932352	1.705374236569588	2.094671720938269	2.7423460414313445	0.47864457844051017	0.8181697705592894	0.9088146067562144
192	-3.146167747183643	-3.4698958309305175	-2.7027890613981596	-0.9114053226348359	1.4287921154188308	1.7069156126795881	2.1437282508131923	-3.0223309917437375	-0.1859443630053815	2.4092547832696334	2.7614028384108185	1.6888178544321286	-1.68232321314451	1.8764586401293406	3.001894466450486	3.2862107670784817	1.4175860846014812	1.4370741807894611	1.8836305093891876	3.0784008425238056	3.2579448140858815	2.858606808120846	-1.5378255805289847	1.5582226475474945	2.7034842899730642	3.518936863597838	2.2083332482849682	-0.8085644820779863	2.9496679231558316	2.6952986649174373	2.921988718284919	1.5594309529033306	1.3290585245909219	1.1966367929764021
196	-4.464088905507824	-4.825925338004919	-4.062570084805253	-1.5039155445275632	0.8888062812299483	0.8376856425116644	1.3521143163875702	-3.784455766659767	-0.7492669205821904	2.320172780854773	2.1045954174311583	1.2511588303448506	-2.2317142430226897	1.2527420489153775	2.8085122037551358	2.8870828078811046	1.1268990011373974	0.6292678697911036	1.9720625827590577	3.3131823456084075	3.1596429268218627	2.7637369562943297	-1.557924147487213	2.383062595072823	3.30647777676242	3.7120284940459976	2.2941856326354726	-0.5931823834701624	4.123088349422966	3.246214143186543	2.9829080029516692	2.7055201462148726	1.8643934679643677	1.431953784188314
200	-6.06071852107511	-6.571951372720162	-5.639832482403858	-2.1942558233174583	0.26021814280614713	-0.25584617192523273	0.25847309762546383	-4.738894927458048	-1.4570577107835632	2.131987804752136	1.2580810753530085	0.578591643303143	-2.9639253541501085	0.5449298010419397	2.5331623490273536	2.2941727580322335	0.6288487299301013	-0.21117401069730563	1.7795555546653794	3.422491064967439	2.846893541777739	2.487367385306305	-1.7048634247651526	3.011033050564376	3.7686173820714597	3.7588155174721836	2.2412173691431057	-0.48016407964593283	5.180534349713377	3.7046167756961803	2.996838323656245	3.8392386339530944	2.355950588000161	1.6339342552893854
204	-7.882260779507163	-8.592088677647881	-7.382040482003009	-3.035401575054243	-0.5267325626426013	-1.5166600904319707	-1.0376682255295537	-5.841583714041702	-2.263518804557381	1.6533610779026908	0.22609583976405515	-0.27925801206654777	-3.8028728865931267	-0.04630720603695517	2.10358929102989	1.4793829880556886	-0.007228257581968461	-0.9210740304580199	1.5279978475139415	3.3445780192809718	2.3018424452839876	2.0913922733910066	-1.8714238357978752	3.514513006873778	4.0686907665524945	3.6436514762437797	2.102437729295737	-0.33735921893775483	6.123005374708134	4.0616893665762746	3.035256378139937	4.891132819224563	2.7608106066618254	1.8371390057910522
208	-9.79744050413347	-10.678090068560433	-9.183648086249553	-4.044534196178914	-1.506157275211906	-2.8392550873597684	-2.3813807904200868	-7.0224609197699905	-3.0952842157416773	0.8179605582566559	-0.9300149655703339	-1.2279574840060286	-4.6270460965636815	-0.38988727232724424	1.5141054353633474	0.48607471462551677	-0.6837994439026922	-1.3387994732433914	1.451494809300721	3.081727258531032	1.5784536560260791	1.6637382465318866	-1.9338477801135363	3.991137494500983	4.2300066841139605	3.3929889116453187	1.944136137822241	-0.0453240907538023	6.967281800799197	4.332066525012291	3.1336550633468265	5.8110012861403995	3.0707464140610754	2.0703124947729634
212	-11.640680283720458	-12.6066369692089	-10.917654009911159	-5.179146753586509	-2.670812123231213	-4.127465237687062	-3.6395542529722635	-8.19756791906143	-3.8838660618952305	-0.2997514597954159	-2.1335213130490454	-2.187099451265214	-5.3243970736543575	-0.48325979587613876	0.8216841200110183	-0.6038262232794099	-1.3344854082747302	-1.3544087375777611	1.6688151317424573	2.689561121825844	0.7670318464940643	1.270752069125949	-1.8005150511105696	4.500738609394784	4.293124664911635	3.053627006450489	1.8152466966574823	0.4445506323080985	7.713665465906947	4.533852088925438	3.276314727140698	6.571221811869953	3.304059497120698	2.3354129732296256
216	-13.266277279738292	-14.216810190546434	-12.472445456486177	-6.340257628645708	-3.9763348002176775	-5.3393812044759015	-4.7599153398500444	-9.282075858523019	-4.592927444306072	-1.5381637772825865	-3.3352250968650106	-3.1331880013515456	-5.845139011884289	-0.4504107523513628	0.10486939522969128	-1.71653222604337	-1.9581848333510414	-0.9697035526588506	2.105234140802959	2.2409689369843093	-0.055048204819455514	0.9225084758355628	-1.4583589993850141	5.0269555918613795	4.285092343001983	2.6653656892239677	1.723494644582005	1.0789639922557361	8.33255002779046	4.672018516188906	3.4082488927621863	7.162499409711837	3.4859287650788806	2.6002163821374773
220	-14.588886224152931	-15.45080657872728	-13.778954471131895	-7.405120830913242	-5.348898397292449	-6.492209894955181	-5.777933582976817	-10.204356167778958	-5.227460371170828	-2.734043829690831	-4.530036914832287	-4.098415364408355	-6.223255618595651	-0.485759882892608	-0.5846847877045684	-2.817672722378248	-2.6070439749699705	-0.332880466335995	2.5087294515212917	1.787204022663647	-0.8571345784481258	0.5711818919065982	-0.9894494985394778	5.483721242411038	4.204500187748915	2.2444679680423696	1.6323746401581303	1.7186046795369778	8.779319741017941	4.736176478825995	3.467009535619201	7.589525680453768	3.630712261570027	2.8101556230167333
224	-15.59673686858101	-16.34880633994882	-14.817759476443735	-8.270511606316232	-6.694822771335723	-7.626680831727148	-6.770968896936929	-10.918583842367308	-5.819688782303769	-3.792267551384307	-5.738358483131666	-5.127930628227536	-6.555726988453263	-0.768138823954038	-1.2452273337396482	-3.9113511940432444	-3.3382697021124508	0.2853039495894302	2.564963572701946	1.3391708101794046	-1.6557228523413081	0.14248295092372001	-0.5447755442216504	5.763391957036969	4.031118859603898	1.7862124397956671	1.4806356392671254	2.1966171209189187	9.027684188938245	4.71299790146142	3.4156410607885666	7.869307974974436	3.7361431027497627	2.914076559338831
228	-16.337669331309943	-17.007589297269927	-15.608747442891506	-8.890473343337405	-7.916114787142638	-8.758036591352438	-7.7911205095041165	-11.414435357839036	-6.403756602331825	-4.709333884747037	-6.967901212266139	-6.225776656644706	-6.949330312349647	-1.378444668150621	-1.9162242364187128	-5.012622820596297	-4.16180657289699	0.5800343141216442	2.059226746128467	0.8735100604891487	-2.4857480463211354	-0.41795268549300396	-0.2831034951214903	5.79868124451501	3.750048627922174	1.2803111044030233	1.2136568992490433	2.3920676647827532	9.097338653484064	4.601673114602596	3.257303706528296	8.028967837089645	3.7889506721202206	2.8887009547733817
232	-16.887023883145613	-17.52586551056101	-16.192790944224555	-9.289766288191103	-8.929489113197395	-9.846119855817207	-8.818113304762772	-11.721861809699577	-6.99516437671757	-5.54204700978087	-8.182140329683879	-7.326345425228342	-7.462101917500336	-2.259648555772597	-2.6432919435521596	-6.1139855230463365	-5.018817412102874	0.3386888793500472	1.0064763997416062	0.3547349861248728	-3.363834134192072	-1.1101866932495994	-0.3031312815642264	5.601531491442209	3.369409791068864	0.7253879290386277	0.8096918443264216	2.281344646416062	9.050764061011321	4.41744612532163	3.0243203563627383	8.098851183470824	3.77413605690799	2.7472772528904517
236	-17.314847902451202	-17.9666060947754	-16.61447902299388	-9.543822264417349	-9.68561456142264	-10.802735301400032	-9.759777998125042	-11.90512940262066	-7.5826902198081845	-6.3468494255040655	-9.294857001679226	-8.311362245556355	-8.068695047987879	-3.238004676273066	-3.4368672284138087	-7.165930253056447	-5.8042983862244615	-0.455259619993921	-0.32108622708316453	-0.23815543889475566	-4.263868321143947	-1.8739705038441188	-0.6028518661537265	5.25975273711713	2.92077612139467	0.13529807295018376	0.289630084498628	1.944401497700111	8.957879043850815	4.180629242832377	2.7520365645544613	8.099609354550452	3.6809928324269676	2.5289890702292963
240	-17.66514582942323	-18.34805865423713	-16.912033038355908	-9.741004919253983	-10.179159138728805	-11.530995339844555	-10.49862668247789	-12.045440643416311	-8.134226778474282	-7.126138192304861	-10.195320103653822	-9.063500381474771	-8.669955231711542	-4.093141068614787	-4.253029335728198	-8.083255747414007	-6.418002112397176	-1.6028400619093335	-1.4957162104036723	-0.8954237080854944	-5.117847906542788	-2.611277573668388	-1.087287304040447	4.894384848635298	2.4437510905555855	-0.46428760768970967	-0.2918603710912026	1.5220923385337952	8.851295448844034	3.899555434871976	2.4562017855619924	8.030272463551194	3.5034859091995925	2.2754118385086772
244	-17.950973465420336	-18.658012343029768	-17.115451769531777	-9.945034001990813	-10.44528577074733	-11.974227875041418	-10.957718821516549	-12.216599433572556	-8.61235425682035	-7.813198069873181	-10.792474719455722	-9.525937056332621	-9.145175910748542	-4.6485409619268925	-5.006317602869296	-8.775672890441212	-6.814961893041678	-2.7639298369243357	-2.1221950000588428	-1.5770044286966691	-5.8417911382049965	-3.2267064966751264	-1.6170945126713792	4.6012129667460915	1.9655381391491265	-1.0451521847086565	-0.8691958167065535	1.1481467456439938	8.700291611639832	3.5601498990772815	2.1273353046112944	7.866390208410758	3.2371830858515565	2.008001084026354
248	-18.16338534537721	-18.87825388910457	-17.247299150790692	-10.175680134831339	-10.545883152085143	-12.144790618751413	-11.145376177304966	-12.461748091706056	-8.99028203601754	-8.3038577823795	-11.053756685959135	-9.73183820174783	-9.41685101992591	-4.846991049926831	-5.606081948431453	-9.184899306949518	-7.026147347830752	-3.5950200466943207	-2.029563183428702	-2.2249641362282087	-6.370229704986052	-3.6648194697358676	-2.0718655533933097	4.407142628033191	1.4904965124645801	-1.583256121452797	-1.3895536626065215	0.8918638802899167	8.424017884920364	3.1330530564361148	1.7451505616949925	7.572349052384342	2.8788106368814823	1.720569487042393
252	-18.286113692845674	-19.002059888547848	-17.32189746298028	-10.417611095829407	-10.549571010657374	-12.116126029895563	-11.152199717021626	-12.77976032845198	-9.259421325193985	-8.513902642689033	-11.017226191361424	-9.784872984023599	-9.490041708828034	-4.7731184838901966	-5.99590919888156	-9.307143187866469	-7.136822205644586	-3.88942622156442	-1.364838954340673	-2.7788996626311695	-6.678755266493477	-3.923963536845874	-2.3924376904165845	4.263161648477274	1.0091453765186202	-2.057029242090436	-1.8231244041189771	0.7404323201558871	7.942295054410523	2.598495953675024	1.3054648604811787	7.125608426223435	2.433028930243301	1.3926690781717759
256	-18.302213622614595	-19.0303840156736	-17.338109926318253	-10.64028260405628	-10.512508365792453	-11.982945411945678	-11.101550074205168	-13.122057881603876	-9.424732184456792	-8.428506829916355	-10.770644160733983	-9.801090215733142	-9.445189452166373	-4.609089839742562	-6.172116264018955	-9.189031577752074	-7.235936623424132	-3.6496422198657394	-0.5318321572227741	-3.1870052734019496	-6.783221704523181	-4.042813767716461	-2.582341664470204	4.076784123618243	0.5203546272491582	-2.4397258696947763	-2.157359117783172	0.6269177182581883	7.235015374036809	1.9749873826708018	0.8420270660122086	6.539203627288926	1.9228695582479431	1.0161361668680966
260	-18.189756347507895	-18.952758741211383	-17.26957507541707	-10.811057063463982	-10.464938137335896	-11.810646980984206	-11.07973668162108	-13.402755703465981	-9.492073988791164	-8.114056566733215	-10.407241795013302	-9.842444395011057	-9.384799933581048	-4.543527114840953	-6.169332965533551	-8.898542381708145	-7.362840633876434	-3.066395036584879	0.0003815514200512673	-3.4104781064711576	-6.717995626654414	-4.067803849440476	-2.677451126968113	3.7641904259058787	0.04943626734053844	-2.694570772997278	-2.3814494549706944	0.48288115737115905	6.372713072899704	1.331371065593079	0.427603362911189	5.869030937635735	1.3952263558447626	0.6181743725428059
264	-17.91614146477586	-18.732198667915707	-17.062276797131855	-10.897077532912329	-10.40631577725441	-11.603131264955397	-11.08574959817084	-13.520153965193506	-9.458545660933922	-7.687885265013784	-9.982777570315928	-9.881189321365872	-9.36265943070726	-4.67678974878184	-6.030365928683481	-8.489150979543517	-7.482464771452831	-2.4154756008198452	-0.07181438040483343	-3.427536002088491	-6.510223849072298	-4.021199216226843	-2.704795353736234	3.2938084519195288	-0.35341554790913365	-2.781902544627372	-2.4748225149613905	0.2845840446916506	5.4948720793274655	0.7684865574507797	0.1485621031348197	5.196082578891651	0.911489365183757	0.26193287902503865
268	-17.435243562547626	-18.30351061968163	-16.64359660714888	-10.855491610776111	-10.306395504679536	-11.30502888686282	-11.028714152147849	-13.382170643398325	-9.308544135433731	-7.262199383520178	-9.49655721174127	-9.81623265649081	-9.340816474219439	-4.966274725773129	-5.779293045711422	-7.978352526548491	-7.5018811036486825	-1.9285368870681683	-0.7378124576060442	-3.2412025846664814	-6.167991622610912	-3.888619889931934	-2.661837332680752	2.7000467709082567	-0.6378055794825301	-2.6791787079879215	-2.4109265743420725	0.06611826999183512	4.743643748704603	0.37532818222652076	0.06408046169791545	4.590337264869253	0.5234993086949233	0.021811963935260782
272	-16.69760509089924	-17.59335322706543	-15.946530301840932	-10.63005540071296	-10.110378239854608	-10.833929034536608	-10.771583529933272	-12.93504997802329	-9.019911743279158	-6.890676004178643	-8.902659393721676	-9.52797601201595	-9.204559302932596	-5.242644296761154	-5.4121727806776185	-7.349475842040061	-7.314828854212497	-1.6996284680370366	-1.6850612120999995	-2.884737484324404	-5.686757073349838	-3.6296663192661494	-2.5268089707474957	2.0639016576156872	-0.7833275179159344	-2.4010717808183695	-2.1750330870073484	-0.10554087880429372	4.191478241828423	0.18359142495532996	0.17200243429626538	4.077408303456754	0.24804481801350228	-0.05499840513887141
276	-15.679493864526853	-16.562456089165263	-14.944310150562702	-10.16837498958611	-9.751328443703017	-10.12738702124477	-10.200096104618327	-12.18816277287775	-8.581747987061197	-6.550181849154519	-8.147361734800983	-8.943551994631616	-8.829028107286483	-5.295176492673445	-4.91684101770702	-6.577963335595609	-6.854570848324975	-1.6681386190259646	-2.469767325841463	-2.4226252971518916	-5.070997225356143	-3.2076587596016353	-2.2913181723918576	1.4736278019892863	-0.816705522859434	-2.0077271410796578	-1.7880402758277343	-0.1789206112874275	3.80437563889341	0.14577090703400242	0.3979291607823585	3.6258344558725035	0.05337024466629755	0.016891974913149057
280	-14.414385759200435	-15.245158157005282	-13.678613628184547	-9.455138182610005	-9.171472526282734	-9.182848907174423	-9.28373620550369	-11.223241777694312	-8.011904696263585	-6.167528136894308	-7.214846592807213	-8.079623201951987	-8.162412622824506	-4.988330351632971	-4.305306423761494	-5.668892846100019	-6.129680618068966	-1.6742370086361171	-2.7577741076460542	-1.9418997715559145	-4.3574933895721175	-2.622955315643299	-1.98978328202462	0.986087677373344	-0.8039233068196234	-1.5937306840713097	-1.3199661936812608	-0.15748637874896104	3.463449707823623	0.1520835753415813	0.6168059691115073	3.1663393894361813	-0.13068982925797631	0.15442328116052612
284	-13.011166539720763	-13.765788997227146	-12.267154662631928	-8.547383286830577	-8.352825143706065	-8.073524454713967	-8.100360849909883	-10.18365189842205	-7.366217594622303	-5.676913247080746	-6.1579379879927405	-7.043251019815157	-7.279921036460054	-4.350098598941373	-3.6396372226375817	-4.684410560225002	-5.228875623852802	-1.5543237885332903	-2.5014104779985105	-1.5333999356655856	-3.6244938282056003	-1.931778902898606	-1.7033514933495975	0.6095138176788074	-0.8192708471594452	-1.2593145338688763	-0.8807017780956556	-0.1064893377118875	3.0345485133803716	0.08012601712977828	0.6995804888228709	2.634340279603813	-0.38080432914911144	0.23397715330654995
288	-11.643490761923813	-12.31988045442996	-10.881495448295908	-7.584396343155928	-7.344748001628413	-6.934057218210961	-6.816222173647627	-9.238584495107434	-6.732349855591562	-5.074500547948616	-5.09820364618589	-5.995531067016059	-6.369486792695447	-3.574406614815823	-3.0338902396851344	-3.7454452420085036	-4.297669399854994	-1.226180073503314	-1.9558875511379084	-1.2707509962423458	-2.979563705551055	-1.2410167424340557	-1.5311282834496414	0.31304693143009144	-0.9105690694707484	-1.0776088210555443	-0.5884350523397227	-0.12308286099352879	2.446063512348453	-0.1484149094649185	0.5640808925692103	2.0110502192267856	-0.7414981704110697	0.14295645022062026
292	-10.508129093342571	-11.12362954192286	-9.702216123880724	-6.755463583102785	-6.273913844480935	-5.924703583064022	-5.634286866267957	-8.533860185058078	-6.208598121226652	-4.438863743065407	-4.193493832491059	-5.099357115268671	-5.653638825447614	-2.938154928418664	-2.6209807329761654	-3.002392522860972	-3.4984223754294175	-0.7226222735280322	-1.5292646846307991	-1.1934411495594826	-2.529842131903168	-0.6797978860857994	-1.5439215859533522	0.052505254612920375	-1.0804772349734733	-1.0733027431092628	-0.5279398547194787	-0.28676146196444297	1.7302072004503724	-0.5340464697705892	0.20695322699748234	1.339737888768366	-1.2008167474946574	-0.1694906796706108
296	-9.761970495372925	-10.346329662903907	-8.864435173542304	-6.230852111343806	-5.322442994984975	-5.1851472723701875	-4.732731330366676	-8.145581224856748	-5.872421726659156	-3.903664579072417	-3.583787432205469	-4.4739737397724175	-5.2903928623144285	-2.671674006392489	-2.4987630781028507	-2.583819382819745	-2.9672205373235516	-0.16990406768340682	-1.5443980654824836	-1.300761696392406	-2.347485059533375	-0.3593736877904836	-1.749987717024882	-0.2021856302878702	-1.2959376540843341	-1.2230743138904887	-0.7193155866581764	-0.6192109569174776	1.003930923788255	-1.0067825291963997	-0.29926618858120224	0.7066566330234502	-1.6948448376780205	-0.6691202504430496
300	-9.463749861665411	-10.052842114816768	-8.415546395989116	-6.086671813856264	-4.673011767986936	-4.792312133133729	-4.214918602792191	-8.055130938219879	-5.751777634403939	-3.5951208977530262	-3.3365154182118504	-4.16882847687096	-5.30365656467352	-2.8441135811524334	-2.681935303592534	-2.543274873034415	-2.7763020922184163	0.2684754126446135	-2.0535306878695327	-1.5562870463179452	-2.4432694850270162	-0.33366891657509323	-2.0916082806231273	-0.45201569681485526	-1.5165402850962748	-1.4742187224360976	-1.1102135153396806	-1.0735683414057113	0.4033977379150818	-1.4684712849734967	-0.8406091311212267	0.19698622773027294	-2.139270538650985	-1.2517235247480272
304	-9.54900548431393	-10.181320164724324	-8.305846193324188	-6.265017970479958	-4.441352833024943	-4.73724840875493	-4.08694647710821	-8.162636736288295	-5.81548546276482	-3.5661070256796727	-3.4166273984478197	-4.161907185537117	-5.582119927617928	-3.3281419193163657	-3.083391658627538	-2.830106012828424	-2.9151925967047876	0.45945587638248114	-2.810257427749753	-1.8991653871270655	-2.761338226976045	-0.5800943956034261	-2.4744756159296735	-0.6739448291929231	-1.7227711634055478	-1.7709989503016066	-1.597982283372404	-1.5590827425694318	0.01073765286327423	-1.8461990309833267	-1.3124355044607718	-0.14966762028100009	-2.4716665682377914	-1.790343995342487
308	-9.849760984348052	-10.563459369692133	-8.411484697085797	-6.593636496109016	-4.623221862564548	-4.926567065198332	-4.263659466469181	-8.332042673055412	-5.9849595872453865	-3.7636473083840567	-3.6948580648596128	-4.374810207765701	-5.944255813849619	-3.8683516881551037	-3.5378634840334517	-3.2989430344260966	-3.2948038494847647	0.3523963084860478	-3.418586483907351	-2.255753034618492	-3.196090213335677	-1.0074607108429419	-2.8112523484778316	-0.8396779873628966	-1.9226504515743021	-2.0733952469929635	-2.0703339524450284	-1.9848797271206184	-0.183164879217233	-2.1250483936063262	-1.661933656311223	-0.35567927270734284	-2.679589026361519	-2.189747804835188
312	-10.156370137321497	-10.984148951454701	-8.583059289242945	-6.860309106672305	-5.083128916304517	-5.210875974850395	-4.5992421987762135	-8.449513414030799	-6.165078147581647	-4.047560681614388	-3.99376152937595	-4.697086322369513	-6.229795440203896	-4.21271799931264	-3.8623831174609444	-3.757805576373659	-3.7744669818949474	-0.00987166163813187	-3.5661158471670773	-2.550391667602628	-3.6239313987789195	-1.4859892092380451	-3.0579166335148544	-0.9339887476228316	-2.1333825534363586	-2.3596210420161623	-2.4439766345308462	-2.2977595271271816	-0.2604973309615702	-2.342872375295143	-1.9006624173814646	-0.4848719226993085	-2.798939220991219	-2.4193558631849266
316	-10.297368977297541	-11.257462473103518	-8.699666954964163	-6.907130223955216	-5.600489602254166	-5.433983312238763	-4.932346808378321	-8.467178323348993	-6.280734046337495	-4.252326477758781	-4.154770363808309	-5.0140309207209155	-6.368172629490758	-4.236190785203084	-3.9277975460067265	-4.03779410296473	-4.205453862062914	-0.509147404338916	-3.204639665142095	-2.7176752021839397	-3.9388663669321495	-1.889858717915333	-3.2225897230801737	-0.9617655849016398	-2.3516244828932855	-2.6152441435588862	-2.6852383545790675	-2.494589084049058	-0.31651258388716186	-2.5523374016217635	-2.0824804253452696	-0.5976618513276578	-2.8840033935212035	-2.5104114945926064
320	-10.203209851253531	-11.290261240110553	-8.704405762630422	-6.698677999750061	-5.956611141424625	-5.487703786346295	-5.134254919440817	-8.410847642644045	-6.3004221757128365	-4.2648806464282565	-4.099798192163653	-5.234674440519069	-6.391540034369505	-3.995493401930171	-3.711220255064884	-4.056673993358957	-4.477548111101283	-0.9909611915364546	-2.581601374783963	-2.7187373569511557	-4.081736554330837	-2.1356496756993115	-3.3445267592865946	-0.9430547332795687	-2.5366945202678255	-2.821543448000189	-2.8067850995724846	-2.6072571211791495	-0.3990271677433162	-2.777189247749013	-2.2626271190737928	-0.710792480104683	-2.9694847985635624	-2.524787658038976
324	-9.92785355922413	-11.110010119044647	-8.611783005906263	-6.330327971688357	-6.023713096669028	-5.352563844518302	-5.1474022735336	-8.35127828396876	-6.241538508869316	-4.0771412746488345	-3.8610861203939066	-5.315525518348387	-6.392217143132443	-3.6828758623599573	-3.3073968803825355	-3.8491220377062176	-4.553621280617469	-1.3124333586935655	-2.0975434727162967	-2.559600823615754	-4.0548653500224585	-2.204370969928883	-3.4607503326778506	-0.9011936761037636	-2.62412952714241	-2.9550092145699587	-2.8487822937566127	-2.673997395439968	-0.4868060934173866	-2.9921390934740173	-2.4618024763895265	-0.7890232185470009	-3.04948901360205	-2.5166840489743527
328	-9.615430807632551	-10.84189126138418	-8.483668305912339	-5.971671089354132	-5.812226280796731	-5.102249609463029	-4.997385489244387	-8.354244211085295	-6.152202113831197	-3.784363975507045	-3.5621094613739697	-5.269575105714156	-6.454271777070009	-3.5080156237725064	-2.8885581420448605	-3.546636095629345	-4.474696624902428	-1.3864242995544247	-2.0745220131949527	-2.3003249110318373	-3.9155988594377935	-2.1386189406759457	-3.5815246014769286	-0.8528587200566692	-2.5640792781942907	-2.998323671400297	-2.856801979481604	-2.717342131429776	-0.5179629908835839	-3.138535730067292	-2.6552464894967085	-0.7752400021053597	-3.0863082330983236	-2.510394090036376
332	-9.424089407969158	-10.642780277084642	-8.385117509652368	-5.775413021764919	-5.44681690748224	-4.86209343636331	-4.770343768473618	-8.437922456418463	-6.077809318456276	-3.5255787283576807	-3.3526744757882403	-5.152049051628557	-6.600729925656537	-3.580296268960499	-2.6269605093435144	-3.3112726127946255	-4.330079544579075	-1.2138587205757432	-2.5732605392337327	-2.0413241334875094	-3.748192300869976	-2.0150206038145395	-3.6906978990833728	-0.8068339804305914	-2.3596277177363603	-2.952687732871108	-2.866033308422531	-2.7415552070064613	-0.44760388022900915	-3.1643481174685526	-2.7909538675415315	-0.6396578534188937	-3.0426967067191746	-2.5032343801240327
336	-9.445137953753417	-10.622371646765075	-8.345342615038433	-5.800853714602299	-5.087200151950976	-4.739339816525528	-4.563445079725967	-8.561495759329125	-6.034881576560264	-3.400556794164053	-3.3283631717572133	-5.025616156287369	-6.783867818870915	-3.853700628087724	-2.6161889963854805	-3.253378621470457	-4.206483353484875	-0.8841770269005106	-3.3609154139540793	-1.8865122747475125	-3.6248295215641275	-1.9058368157906416	-3.7637693786962485	-0.7697566728230918	-2.0775923676488706	-2.8403413224034124	-2.8955326007217095	-2.74456667207149	-0.29253736064485225	-3.061191074271968	-2.8236515450712827	-0.415804206275177	-2.9152483866521566	-2.485002511426167
340	-9.655253385962183	-10.787705394211416	-8.341133096616444	-5.988592609544564	-4.83738373488761	-4.757823455242289	-4.429704654953766	-8.651171662423028	-6.005847438907738	-3.409836045239258	-3.4734425457042777	-4.921221720668371	-6.917012197196867	-4.164452542281178	-2.82609271289654	-3.3726947222434314	-4.142478455575183	-0.547300456572606	-4.046894540106059	-1.8950579118566742	-3.5719592481075244	-1.8475904418074505	-3.790993919337962	-0.7537307124181494	-1.8198757125683414	-2.693142645712065	-2.950221292676529	-2.73278545643351	-0.13283786144096857	-2.875129930866605	-2.74452208779731	-0.1979820723303435	-2.7467756202012885	-2.4573783812468877
344	-9.918936704388244	-11.03174588279205	-8.304948785794716	-6.193313582996199	-4.687560069646982	-4.828083979814655	-4.34169148302632	-8.642769791716702	-5.952016815416938	-3.445433131102143	-3.653800001456194	-4.812639701136606	-6.9230832878797814	-4.3319573293033375	-3.1130378167710724	-3.5503566175468313	-4.109168519135845	-0.3611486247004463	-4.30181597577226	-2.0439004846467763	-3.5549220949065203	-1.828303451690435	-3.7909026050223966	-0.7763043622444267	-1.6681569772565092	-2.5314238007529344	-3.023714296336192	-2.7253436973428014	-0.06668854487986446	-2.6822278431883526	-2.5878982478607164	-0.09574010944036258	-2.6064855986591247	-2.435373061707109
348	-10.044867490203112	-11.17625710526655	-8.15504358140024	-6.256402953564453	-4.523910987876318	-4.776582228998639	-4.19736145867148	-8.51545236344928	-5.839174255887385	-3.3441979800668435	-3.6697513964507107	-4.624542701489435	-6.770943624567608	-4.263527859413849	-3.283923617654935	-3.6004257111246427	-4.030971516922385	-0.4180957068377814	-4.0358924763826165	-2.2280721608175296	-3.4917151839790663	-1.7997772648194026	-3.800200452746725	-0.8524934627944077	-1.6369639593756693	-2.3488557279411695	-3.09953283481054	-2.743615858780433	-0.1486706282915205	-2.5457706387141488	-2.4132461486922954	-0.17311140851183401	-2.5515301163149635	-2.4335274634909436
352	-9.86615083110843	-11.046648951296904	-7.83009288718282	-6.076759799873721	-4.198196877370543	-4.423985470092718	-3.8687829873636095	-8.294821718254365	-5.6575722551557	-2.973367445114429	-3.3454334651406286	-4.273208607375248	-6.478338702058074	-3.9997079271423086	-3.183295718739074	-3.3571276579974563	-3.832797994473506	-0.6945676190006272	-3.4335997017954716	-2.3037588538179676	-3.291715375218881	-1.707711573103909	-3.8477489851126383	-0.9834089850392562	-1.6650427537841472	-2.1163659042331058	-3.15279459157304	-2.7937374044455145	-0.3539346149568496	-2.483851903366328	-2.2743673267162707	-0.411194383059887	-2.5949089461614974	-2.4490876135981425
356	-9.309704757073868	-10.548078510355966	-7.313134651793678	-5.646187768032344	-3.6130988506647896	-3.6743135359503007	-3.270798674908531	-8.025502184632574	-5.4222407204105	-2.298182004848283	-2.6105790072333845	-3.7179887200899095	-6.093981727473062	-3.6741111185771547	-2.7622206141350722	-2.7538361479849764	-3.484516373419849	-1.0473700735351492	-2.827342979922192	-2.1556332056934138	-2.9000594542716818	-1.5201344451671563	-3.9315721889415323	-1.1461849183708097	-1.652539845109049	-1.8029149725217466	-3.1540181557179	-2.8582384514170647	-0.5921062812161044	-2.4654231009226217	-2.1932139341294152	-0.7163079958950485	-2.6981272629327564	-2.4577522215779752
360	-8.423891046236603	-9.705799078278416	-6.634804232058544	-5.037374483741813	-2.7829468180012005	-2.573128693759822	-2.414965861899013	-7.731183509380784	-5.159292208043375	-1.405616637495776	-1.5382850131297534	-2.9960622711832285	-5.670737252223292	-3.42590426533724	-2.1006026214970253	-1.8576250029393422	-3.0193815155091186	-1.2618681160538965	-2.500886672381547	-1.7588316157757466	-2.328127139889256	-1.2410672871726975	-4.011832703951907	-1.2970812287961075	-1.5259839257813552	-1.4031347000935948	-3.077960960246474	-2.904809229192551	-0.7655590753300275	-2.4379458365876983	-2.154598230644147	-0.972748098301646	-2.795836441610625	-2.4297540126490302
364	-7.353610973865558	-8.65210244855349	-5.857770428173198	-4.358911026439876	-1.8315950585852008	-1.2998564210498431	-1.4165945017335013	-7.392584782055732	-4.884024607725175	-0.4669372725618651	-0.31724500576031267	-2.215569967398167	-5.248044000727013	-3.3130316650667955	-1.3682784999633977	-0.8395249226354997	-2.51265143713761	-1.1448657483759714	-2.5324585373836226	-1.196927306014304	-1.651684280040103	-0.9018855668185694	-4.028099526725779	-1.3859535420711773	-1.2877242532643116	-0.9512739157501197	-2.9142033980225928	-2.908709757136805	-0.833400068563134	-2.36603640912643	-2.1216814464407547	-1.1096947165128654	-2.8365981507209685	-2.356086248171327
368	-6.279115184189482	-7.570615272481493	-5.054703699701479	-3.705882301510856	-0.9263932085489909	-0.09433544403339038	-0.4492582965475403	-6.962074262207609	-4.585151183949729	0.3458476355880766	0.8297126868280589	-1.5073060951324062	-4.851727950244461	-3.280208817783332	-0.7395039182112096	0.10650877627661579	-2.034906382191457	-0.6242524369691411	-2.7645046641170983	-0.6191787108047355	-0.9742601489264906	-0.5353321419551484	-3.9334554572931006	-1.375364657744274	-1.0155110333552706	-0.5071676956723444	-2.6710779599462398	-2.874708168401239	-0.837406215937663	-2.2528233471258887	-2.0592431970103835	-1.1393784255825135	-2.8118884492452687	-2.264109367376325
372	-5.348907934035589	-6.625341875515051	-4.28948973526383	-3.1289789597667137	-0.19333150934045237	0.8449901321058018	0.33175840890093117	-6.405360205690813	-4.231917847439214	0.9387661194941622	1.7386475757571265	-0.9599403714739361	-4.502540577011084	-3.2019488730651484	-0.3101238898553639	0.852437494033105	-1.609203334560199	0.19974525222415393	-2.9181144163843005	-0.16130983788771472	-0.37583190107824577	-0.15034188292215817	-3.725547542702661	-1.2573960987769792	-0.8121446946620257	-0.1215639483839718	-2.370355123257372	-2.841199152448854	-0.8715359546591719	-2.1304938739392574	-1.9503095100753314	-1.1438297004431013	-2.755110733705635	-2.207175964504931
376	-4.635357368210178	-5.9064493030197776	-3.6087112335646614	-2.632764571218509	0.341632931562005	1.4418045245961826	0.8569711425125643	-5.745087132254082	-3.797766914315979	1.3316940035576568	2.3643584191709497	-0.5773504957881187	-4.222464073964547	-2.9644019528885295	-0.05578204602820646	1.3872765267632716	-1.2020175426652706	1.08906972133331	-2.7720441748249915	0.12812346187668414	0.1249897998395939	0.27314752271353654	-3.4557652386200024	-1.0572608682642055	-0.7348023634478419	0.1975481505174742	-2.036842102630295	-2.859470360212172	-1.012813088720969	-2.0275850244828906	-1.7981744959254389	-1.2160885303311608	-2.712091439075479	-2.230497593016606
380	-4.130041112009172	-5.416824803981303	-3.0435066146303376	-2.196524137673304	0.755439160347033	1.7614045098656252	1.1649277180823998	-5.077469336088093	-3.2865319169037206	1.6366444784804797	2.780659430159075	-0.2823315851712755	-4.033916940041169	-2.538673394469372	0.15013728997948317	1.8068093015829594	-0.7528478484219653	1.7665463641388373	-2.2980868758354616	0.31472662011794356	0.5748416766912119	0.7656550388078737	-3.2117087759946084	-0.8233166316226498	-0.7482829075040778	0.4950041460414181	-1.6880664782819872	-2.960308305895691	-1.257773992223901	-1.9374569605548635	-1.615670438502001	-1.3910090888189723	-2.702237360807511	-2.33285712606811
384	-3.7766907119766135	-5.102118002407697	-2.6148576670431387	-1.801482076864964	1.1716061800940418	1.9611935566024172	1.3695942128888476	-4.543128955814859	-2.745958321314192	1.9893708178838156	3.1254062573678967	0.03579800939462505	-3.9498717685156914	-1.9998153397614375	0.46323716523516273	2.2498431148946434	-0.22178375664982766	2.0409910627333456	-1.6723802047467622	0.53879600627288	1.052904126369993	1.3385481800616528	-3.0773484629183083	-0.6074882730405193	-0.736289380121944	0.8444563725131857	-1.3303146328717472	-3.1270646969999403	-1.508296724326072	-1.8134908630361217	-1.41247748971997	-1.6130717952056446	-2.69874643598112	-2.452672236925884
388	-3.513710013101391	-4.8950500364693115	-2.3330964983209235	-1.4470818006219823	1.6821401076762224	2.202206844491842	1.5922651250692725	-4.263385761941064	-2.254532569915152	2.4747564730151463	3.5226228148214425	0.45466419939644054	-3.963083018787512	-1.4818196259279546	0.9818658803945621	2.816618673842701	0.37289330269127113	1.895210618956203	-1.1640584439451902	0.9297549701104801	1.6187745291847768	1.9597167919271907	-3.0925266664627507	-0.446112273997271	-0.5684261903716551	1.3001573052959097	-0.9659053658894179	-3.2954652226215226	-1.6213266808583258	-1.5985524614028859	-1.191871759266509	-1.7631717875787536	-2.643306963922605	-2.493573659323228
392	-3.308280936471612	-4.7542986749777505	-2.1947207395455326	-1.1527147263987572	2.289509767473938	2.5669422084849143	1.8942062806942734	-4.27837275378555	-1.889553303716275	3.0822276991273028	4.021839131691536	0.9722834204921502	-4.045205106058812	-1.1054537268385143	1.6913952784749988	3.5135111720069228	0.9530255174417117	1.4883934221836352	-0.9782336329557652	1.52415418240066	2.2710139694096734	2.5526962215824054	-3.2325460829183177	-0.35076180011882135	-0.18189325882764415	1.853550071804916	-0.606163857836954	-3.383615962068763	-1.492725845382841	-1.2706234423028484	-0.9588264202705412	-1.7303692058744629	-2.486711495796852	-2.379345649434014
396	-3.1647727409568605	-4.676290023441306	-2.1771681253778126	-0.9472630596086653	2.9000408576225585	3.027261249528531	2.2502655926157447	-4.521387088804322	-1.6919715361792322	3.711276045012253	4.584251392234472	1.5095369777714271	-4.151687611588309	-0.9188646650957086	2.4650993284930194	4.252251137487975	1.4194812738819746	1.0676205131278815	-1.1418256730815228	2.2341163102010735	2.940813057150356	3.0256943626306314	-3.4199066075765034	-0.3088857523748931	0.37112200166463055	2.4238998828725506	-0.2787694327945574	-3.3377365981709257	-1.1249396772592877	-0.872712609948712	-0.7303528171219482	-1.4855097494766822	-2.2285606804848754	-2.106415504859424
400	-3.107599965832653	-4.678197372069302	-2.239641660757802	-0.8536900260352527	3.3704638396044104	3.473641148380168	2.5732338363529403	-4.848723399318208	-1.6500046211545734	4.22070454485522	5.1152071823673255	1.9557619045470391	-4.233808029929559	-0.8843491055095427	3.121858827338401	4.898243414909736	1.7053823428012571	0.841331956646593	-1.4991499147712237	2.8846344874984924	3.522309532809294	3.312887660245382	-3.561446180888584	-0.2929871074908695	0.940928695210443	2.8904900477864426	-0.02444446080711912	-3.168439857112763	-0.6361955388219223	-0.5048008548389342	-0.5399605022149169	-1.1103942366221833	-1.930101985826729	-1.7623224213928488
404	-3.155364267012109	-4.772128569952266	-2.335572952095799	-0.8765513874811344	3.582815161242347	3.784788360576774	2.77061747805125	-5.110383020849965	-1.7091478066207908	4.4990391617672385	5.5211448530038085	2.2293491307239734	-4.251409519905871	-0.9172452665058947	3.5137450606324308	5.340233789312616	1.809918518265173	0.8860412813704437	-1.8115813686409183	3.303705922368783	3.923958530055726	3.405125609383841	-3.591182461254791	-0.27186641028429115	1.3574181760848725	3.1528077045948573	0.1175093275322016	-2.9543554708277124	-0.20088005015200633	-0.2762026481807529	-0.4291453648699575	-0.7615978698575457	-1.6883242087653452	-1.4935283623180706
408	-3.2979085362139866	-4.942840563692402	-2.427961104938713	-0.9950028036745354	3.5069360644490604	3.8967776200138773	2.8006920743803483	-5.22101639383114	-1.8010585262602594	4.51789139560636	5.757112011679289	2.318371051657052	-4.181951512268736	-0.9440610384947709	3.594948521120771	5.541629777268495	1.7929427578481325	1.130818960195799	-1.893206830013203	3.4121620568911	4.110840787045441	3.3516523753422125	-3.5010478408158554	-0.21975570861646535	1.5196962318198741	3.1836380878177994	0.1264210936215523	-2.8103160787200636	0.04281882185854097	-0.2457118475194001	-0.4289789487021648	-0.5869776591739992	-1.584975596240936	-1.434663292123673
412	-3.489605179559345	-5.1443810333068525	-2.4989371236651556	-1.1626185149403419	3.2221887030311374	3.8363759420810495	2.697340958460865	-5.192010866408034	-1.8742805672054574	4.345135200974168	5.842013344320159	2.2805142345071476	-4.026985635127028	-0.9443771219252167	3.439085713286748	5.548331246672962	1.7368015007038038	1.4177815878358508	-1.7040502982031798	3.262024632801167	4.114901055437289	3.233257762375139	-3.345860472814721	-0.12303851513792786	1.4450589381927024	3.0433018130714062	0.010868509272612771	-2.8354711461004007	0.06242019294834021	-0.3872548629997077	-0.5440076575849477	-0.6437851174313005	-1.6416811901605735	-1.6383637148500405
416	-3.6615743544639097	-5.316249833989869	-2.5488252575418855	-1.3164539303920937	2.889144890166548	3.7054223920729306	2.552634948007731	-5.109683023903489	-1.9082970571021791	4.119009484381995	5.841029629265269	2.2066924516277338	-3.81614254941668	-0.9449411010726576	3.2024338164538166	5.456730828813411	1.700952883240602	1.6023284156398734	-1.3426257338004424	3.005865327875397	4.012414922120603	3.1237182538321195	-3.21774219654212	0.01782478946417394	1.2510617939834014	2.8483354973405044	-0.19235749494147567	-3.06758188426865	-0.061617787771819185	-0.602377472787157	-0.7476782183843582	-0.8655878283581189	-1.8071702673108079	-2.044141287411061
420	-3.7422766591002437	-5.402488218018964	-2.5811479026476567	-1.3930445874329127	2.6839842728561596	3.6280558017683844	2.4702305731394882	-5.070520388199143	-1.903643722496313	3.9913113016447093	5.82928799111132	2.1718037073615712	-3.604236355264802	-0.9734438633183525	3.04923628990884	5.363565431404588	1.6958483414749252	1.6366506773635208	-0.9520791744990021	2.815024845645431	3.8846146962317194	3.059807769679513	-3.2025101103989364	0.19102209758213817	1.0842241021438839	2.7129425934007227	-0.4312413920005146	-3.4659545334093402	-0.19301848064804353	-0.7739359120856115	-0.9915086005926897	-1.0999480458145119	-1.985477919334074	-2.503926747675995
424	-3.678753605137699	-5.365309224887734	-2.583073609506198	-1.3494135107303264	2.7285582950367115	3.6929864790183906	2.5188116963688834	-5.113705145322778	-1.8592928601052363	4.0662736790036655	5.8599910588133435	2.2053232137314107	-3.4543285282659637	-1.0156693432913944	3.0792331617813478	5.327348695656183	1.6948349433070127	1.581585999310407	-0.622184632637814	2.793522827724865	3.7858416938565855	3.0390696448844596	-3.3382377540229315	0.37404891754125874	1.0378686163447826	2.697202675685335	-0.6535824520775851	-3.929345120999767	-0.2267332071301904	-0.8293341973346908	-1.2218916385318415	-1.1960686415038375	-2.0887379593565707	-2.8514368462096273
428	-3.4534742744991993	-5.1917319166711895	-2.5193014081291216	-1.1828861206707262	3.0427510661550725	3.9183199306742096	2.7074615886995947	-5.195353494878598	-1.7579660371265038	4.360630024390858	5.95107887672912	2.2938826026221992	-3.409735432599131	-1.0041320298592196	3.2933063423932087	5.359250055133745	1.6715822177645239	1.5457787474705749	-0.34810671122400505	2.937441103194636	3.7362835312924987	3.042429916329833	-3.596649399259787	0.5347780571787153	1.110761639651651	2.7912812162498115	-0.8165310004599723	-4.338203419222871	-0.1495266552964622	-0.7742947320462534	-1.393900390920437	-1.0907665463564917	-2.0818581528553857	-2.9761392995080653
432	-3.0928044241067028	-4.894601809541732	-2.3487684667414386	-0.9398280358427995	3.5360934645066706	4.249515045881114	2.9899816437571745	-5.220902429750617	-1.5740519722298192	4.795951354315948	6.088603958016424	2.4059262214952004	-3.46725915987089	-0.8506591894607209	3.6064293293498415	5.438455091097102	1.6322417218006167	1.606176372287568	-0.06750009191875483	3.1561086098141846	3.7358782197090497	3.060139886759363	-3.8948283097160643	0.6364904626035263	1.2270506589427053	2.9397010729002337	-0.8909702278530555	-4.600106227704696	-0.03895671655832862	-0.6787691099195735	-1.4778945408701154	-0.8433774688408304	-1.9944020459366036	-2.8648376392513555
436	-2.6644132070028617	-4.511931884818184	-2.0557420201851166	-0.705287216313193	4.039815892510406	4.58527182375045	3.289536706248551	-5.112496363129785	-1.3010638919406543	5.22593449226843	6.23739193295205	2.515943520869533	-3.565393200455645	-0.5117161261036709	3.8954214951393715	5.534588799808245	1.6166989762496484	1.7576966241327994	0.24970211025613656	3.3359055434880487	3.7831857108921	3.100554458419411	-4.1291355982480304	0.6452719552914687	1.2973939147618099	3.0852281969377207	-0.8633481242316935	-4.67682312738283	-0.006348926557962277	-0.6261140688347108	-1.4597899876931688	-0.6015403255534002	-1.8957592201053306	-2.592943184981768
440	-2.2626852932069466	-4.105532158976569	-1.6782773690766608	-0.571555672633041	4.367040623129555	4.815633761645405	3.5271639734861244	-4.871407019713819	-0.9799700354629778	5.489428029506005	6.350554927051107	2.6116156512127007	-3.60263489767302	-0.041739359392642235	4.056292046796201	5.620956883544044	1.667744513115705	1.9172689866296981	0.533770500265976	3.406382313711113	3.8822941682071828	3.1754527011807507	-4.219915379360386	0.5411661849663894	1.2805070844745499	3.2022235312675797	-0.7390888910706864	-4.586554515702778	-0.12192507802459293	-0.6596144421136253	-1.3407789434913844	-0.5176326619430727	-1.8507618857386523	-2.2761528434506544
444	-1.9845224568807367	-3.75586365705178	-1.3139899935925894	-0.5987637623928384	4.380561817553426	4.855801570076705	3.640535583841368	-4.596002567131561	-0.7059383970557201	5.471551881327261	6.375450118180879	2.6801147393271108	-3.487653961912904	0.40750086204641556	4.04283284120274	5.672614083273241	1.7878881647746516	1.984823221917514	0.627022801246662	3.3686618719881105	4.030958165481989	3.272553435646288	-4.1469793215000985	0.3279519966905402	1.2029449909356342	3.2979383385362993	-0.5494836554959269	-4.388316620237704	-0.3716355254803964	-0.761899588568637	-1.1419559688346728	-0.6655218584423995	-1.884544010172709	-2.0146748968757153
448	-1.898562545751329	-3.5454745203148947	-1.0907677384493843	-0.7855710963442604	4.0397400754024435	4.664064872410159	3.5872075467140454	-4.439692486044272	-0.6001436695205495	5.146005140663592	6.258601649695376	2.685596459283974	-3.1984300532650725	0.645645020762176	3.87003826117941	5.655935750032879	1.912997956214456	1.9070010137094553	0.3766371300248059	3.2728321469645545	4.1988015068856175	3.336161843459936	-3.961612691413905	0.035807654171183416	1.1253877849775777	3.382446280522644	-0.3574051549947792	-4.158751954069253	-0.6733459217237321	-0.8808331467324089	-0.912522552093685	-1.0060857509007346	-1.9778478095663508	-1.8595029068728945
452	-2.0179452845169945	-3.5311665445819758	-1.1118210526052141	-1.0662232610485847	3.4126105222372582	4.247380722766385	3.343853226802333	-4.53235482025246	-0.7536863069579038	4.584627616751344	5.95938490316689	2.5649471218200293	-2.816506140273649	0.5368403182780924	3.591967812052369	5.52819679771867	1.9297447155868472	1.7007589297269925	-0.24603594777454801	3.168230048763683	4.318442333762508	3.278743020362717	-3.770175685900533	-0.2836853556623186	1.085064527633095	3.435312024026256	-0.2502126091361877	-3.9729137320347867	-0.9377791261838184	-0.9801961158800401	-0.7301587443990496	-1.4169819319235633	-2.0909924454348627	-1.8138979627589098
456	-2.2903275431981918	-3.717109432372403	-1.4017893040551215	-1.339151379065257	2.6495602063994927	3.6587908175599266	2.909952156349366	-4.90939139080322	-1.1738506525920371	3.9308864971097672	5.471106992259781	2.252231353795474	-2.5115687783726437	0.07336351256921525	3.2699952042989873	5.2538270817671	1.7318202213432115	1.428122278422536	-1.0842086049362814	3.0622982901505202	4.302670944794759	3.0236213130905774	-3.6952183153317253	-0.5719674215181098	1.0562149259603277	3.396442166336307	-0.314706920782895	-3.89240406960988	-1.1328062982568823	-1.0787812444153162	-0.6857959014744034	-1.7658706858873692	-2.19867157380985	-1.8611978245474483
460	-2.612844937403445	-4.044315804761008	-1.8838629675032248	-1.5143712720783744	1.9267706822386432	2.9865810795720344	2.315020316954818	-5.488788590878469	-1.7652327969805934	3.343741408489017	4.837032782740058	1.7191429094779407	-2.4730663237121626	-0.6114917382060402	2.947503797718791	4.828999030318935	1.282082912069143	1.1444588870717618	-1.8475184393967437	2.915007107050715	4.0830821887878885	2.5544235641836353	-3.82896136270829	-0.7843120674358486	0.9575428342485439	3.1919810691352364	-0.6019709691108152	-3.9570093055002347	-1.3080240455027936	-1.2487628428402189	-0.8529702999514069	-1.9840006778216903	-2.310886138803635	-1.9920115420592774
464	-2.8710691856376	-4.407683838206385	-2.4042632519101654	-1.557705636860018	1.382860657061591	2.3357701242602182	1.6247625309930838	-6.109664901566767	-2.3603942334662364	2.9358642027164397	4.148801793114149	1.0083811257652395	-2.816991560499474	-1.301373001627679	2.6427397661243544	4.298840988749741	0.6445395930229625	0.8605842568604367	-2.2559032383229467	2.673257344172305	3.651309480985187	1.941227550373835	-4.196714390649432	-0.9072810984593049	0.7070727926522212	2.784067623738727	-1.0978348227439807	-4.179079998909287	-1.5607602556877551	-1.568938132139581	-1.2522176472519675	-2.095446819736971	-2.4649982390157357	-2.2130796853457384
468	-2.9883654042135257	-4.698828685341188	-2.7973666120474356	-1.5082008800575153	1.0705801221520865	1.7992675258985704	0.9338327026632036	-6.609973413944966	-2.792002432449773	2.728030674722492	3.5172123820195504	0.23483543038682622	-3.515081396764921	-1.7995539858206377	2.3537900388417974	3.748176088406638	-0.03589491909620456	0.5471262321963674	-2.197765344792973	2.316481107585285	3.0747191828346145	1.3216748204240782	-4.744493949355533	-0.9658818816594357	0.28491872477121943	2.210336202762943	-1.716544623809452	-4.538070190416254	-1.9663317153876625	-2.062491888561019	-1.830219502596547	-2.1892569009820573	-2.695176356186667	-2.532204860016099
472	-2.9630181714589177	-4.8564348098212005	-2.9619424268327275	-1.4598203860619274	0.944449064731279	1.4259556495904209	0.34090459260701106	-6.902515393949777	-2.9707312508919586	2.644423716544297	3.025335781088568	-0.4543156612369964	-4.388320911772118	-2.0208494612216983	2.0690360017036764	3.265734425882621	-0.5986558183814227	0.18113541557356083	-1.8000966265053027	1.8814818811597491	2.47355770440245	0.8418977835380171	-5.35533236105184	-1.0143794987817114	-0.23911723434158424	1.58440768318695	-2.325695747225717	-4.979765879456108	-2.5178494389860586	-2.6611638001964906	-2.468317502465607	-2.354863399282203	-3.0001802368710737	-2.932435266720458
476	-2.87152671088974	-4.895673739470666	-2.9070720599210906	-1.514895912160363	0.887327728415383	1.1993850439307672	-0.08572799690775271	-7.003573876818408	-2.9260580465827504	2.54977011036848	2.6865842274546976	-0.9435464119930795	-5.172592626863555	-2.023181433338003	1.7749265387545201	2.8989937232257885	-0.9435827708263007	-0.2073176199923967	-1.364241000545796	1.4481838905010969	1.9678430507567715	0.5877331480446198	-5.88824175301692	-1.113730308581839	-0.7343755941923276	1.0508065197163534	-2.7942392755532564	-5.424875722540078	-3.115454189064166	-3.2235493578586345	-3.021650306702121	-2.623576872877448	-3.3325860416195985	-3.3577365790469442
480	-2.835179560178896	-4.900971400284928	-2.745521300059802	-1.734674568565009	0.7620405535531749	1.039490935562183	-0.3371427050661549	-7.007882577369053	-2.7896358896395856	2.310388559230306	2.4332363544065956	-1.2006339996542374	-5.632392392243199	-1.966650242608538	1.4590034448026985	2.627176516575635	-1.0730495425788962	-0.5315004573754365	-1.2035843103538808	1.0940389605556882	1.6221109587723004	0.5454081283150545	-6.227391227258305	-1.3057100739891656	-1.081523177277351	0.7165722828893152	-3.0412201804625263	-5.788380608249513	-3.6149763969704742	-3.601784458603512	-3.3725037489620533	-2.951310627161694	-3.6173632053598337	-3.722127189775506
484	-2.962234251172811	-4.981808172999536	-2.6352872781976133	-2.111361021433242	0.46578478695572034	0.8337681868483373	-0.46953916431135373	-7.028659802810981	-2.7270250251583805	1.853164429754193	2.1480035727628475	-1.2888718810919195	-5.6672077035871835	-2.021558994911313	1.1120408745345909	2.3725385605992715	-1.0810843678836224	-0.6938677412634416	-1.4698041640365989	0.8489148595357732	1.4195059502048493	0.6124483331476253	-6.323368056544796	-1.5935291011631882	-1.241978522979723	0.5982923492585	-3.0640089434512547	-6.007420047851522	-3.9070792099536886	-3.720399370337119	-3.475291004943385	-3.2501983560518504	-3.7904286288883395	-3.943121900139789
488	-3.2929971134968947	-5.213041292380328	-2.699214928487872	-2.573870652376113	-0.032331686385302635	0.48856848354965576	-0.5808032736419501	-7.135514241322937	-2.8519151138780976	1.197497126416918	1.727096076419531	-1.3331459727007193	-5.356730924433318	-2.2766778411605104	0.7336850743843482	2.047870630815952	-1.0987077923691568	-0.6534950120639204	-2.0731236882320525	0.6806048137647313	1.2802200285060363	0.6529855115616667	-6.210109218177182	-1.9394082974105937	-1.28045463238728	0.6166051610637661	-2.932999603495767	-6.06541250604861	-3.978692759959039	-3.619522800843883	-3.371415606569781	-3.4479887398450804	-3.8342580698482376	-3.9816648859586152
492	-3.7776598834982145	-5.593880639258157	-2.96725892271469	-3.023612253184594	-0.680944441029804	-0.021935814936210753	-0.76629203364498	-7.3307256513525365	-3.1717915454893104	0.4480385470999363	1.1434432239273533	-1.4554259740323119	-4.92534064003053	-2.6972634724228524	0.34081816587230496	1.614829178547765	-1.2257285087156358	-0.4687458264913963	-2.7458066870982663	0.5213711248585912	1.1135081024666775	0.566772638320471	-5.991147503031765	-2.2801060619007565	-1.3250637020988716	0.6419665797237947	-2.7576439311021934	-6.001581653701223	-3.919209231972013	-3.435550681023334	-3.1680836597564848	-3.5355851560973095	-3.788932790726833	-3.865616788641135
496	-4.292285908352473	-6.040649398811326	-3.3641719733178057	-3.3767528448680735	-1.3618782724328649	-0.6320073588627089	-1.0712650987281158	-7.565312843295661	-3.5883684067727604	-0.24402509568115996	0.47608953594169673	-1.7139151053071797	-4.640003669467978	-3.1472392002754206	-0.026839008487054263	1.1194202871670216	-1.4866744242326528	-0.2782848768360793	-3.2053384699956773	0.3197775475057802	0.8737539030903091	0.3334217659161561	-5.799254879614881	-2.553856604803963	-1.4880485497098355	0.5662234411248971	-2.6422200136232252	-5.899729236966188	-3.868985881573913	-3.329349509416466	-2.992725364758548	-3.5730597882658786	-3.732054224128494	-3.682769289255368
500	-4.688435065830076	-6.41986225414663	-3.748196115567232	-3.5923628716369427	-1.9253787945773624	-1.203101035895262	-1.4645999633051092	-7.778014163406835	-3.950102319281101	-0.7368554454319467	-0.11547335953168472	-2.0782427735310174	-4.691660869197175	-3.463724366026055	-0.31378507534912625	0.6797685009959993	-1.8311235858462178	-0.22684827389663878	-3.3198709404096354	0.08147583136253442	0.5869400486432409	0.008596478008381543	-5.747524723800662	-2.7245845725888587	-1.7957241489849092	0.3587458720686495	-2.6533925466302954	-5.859067902077393	-3.9394333263118217	-3.4022357377938475	-2.945310346796594	-3.6496951487901663	-3.738862266637551	-3.545484057058035
504	-4.851694094806314	-6.604017241016889	-3.979550828423059	-3.6753189470958336	-2.230645412535276	-1.5784143169606266	-1.8472000313851573	-7.930690268520633	-4.126546849322682	-0.9409805512512667	-0.46160206082149	-2.4511845049960463	-5.114876257380368	-3.5371041208609304	-0.46518525363776075	0.4298628259773075	-2.1730782930822303	-0.3752785315575482	-3.173671952817937	-0.1273312416438134	0.33351051723200253	-0.32137343206328967	-5.888671383295375	-2.7924981046744737	-2.1696162169038375	0.07609171401124458	-2.8106820512380604	-5.957495197513702	-4.151736248978323	-3.6475641635355367	-3.0683355253952875	-3.8250656031356063	-3.845129480190663	-3.543165913219283
508	-4.741551864096848	-6.522153361066104	-3.981388081988977	-3.6583564189099	-2.1841041986635235	-1.6494872528392293	-2.092851156672846	-8.020476320997803	-4.0667710201584155	-0.8388766029159147	-0.4632625866160952	-2.721783869547224	-5.78183744878117	-3.357929698095529	-0.4490065265286447	0.44879147297083805	-2.439739936390908	-0.6614624245155758	-2.995252601690644	-0.21873678211776376	0.19906245121765337	-0.5940954670211713	-6.200301631532023	-2.788420908563552	-2.473020308926512	-0.1788771744026571	-3.096864215661394	-6.222315295722049	-4.432647693886765	-3.966399898051599	-3.3453268920360393	-4.088939656424467	-4.034290780372256	-3.706672897517161
512	-4.400987137173487	-6.188531859985811	-3.766426792172205	-3.5765726476014916	-1.7702534154066385	-1.4040362799481911	-2.103705877714776	-8.068136194839875	-3.8172423743192985	-0.4818848657362538	-0.1421638276563983	-2.819510452781323	-6.46922777449929	-3.011901371027272	-0.27534836461166645	0.7149664741584757	-2.6008937293189947	-0.9467402076660156	-2.998472444593281	-0.1413581814773258	0.2232671821440911	-0.8005311468893757	-6.604437811389363	-2.7553300787978547	-2.594072335369542	-0.32168131985509957	-3.4757172973617423	-6.6223134827309496	-4.667403686183468	-4.235971916948022	-3.722310533662372	-4.366899479331084	-4.254423130738107	-4.001995553403012
516	-3.9313330551072974	-5.693300232818181	-3.419601908633181	-3.450692406525266	-1.0668870183711274	-0.9324249601664526	-1.8556774807808682	-8.095703104560315	-3.494855871913642	0.02928000122366822	0.36542567518479546	-2.7433252265332424	-6.957506639080713	-2.6322336130441903	-0.00028882874102983936	1.111138102587102	-2.669015877660797	-1.1075849505117223	-3.2414350427805187	0.0778456030310741	0.3764782240422359	-0.9756397580309786	-7.005269509748698	-2.730140440723635	-2.516899340950738	-0.33654144321350116	-3.904566039717724	-7.0808434307615045	-4.778158652639679	-4.38880823934657	-4.136775960014629	-4.570004928494805	-4.453329551897293	-4.352788914181163
