time	FP1	FPZ	FP2	F7	F3	FZ	F4	F8	FT7	FC3	FCZ	FC4	FT8	T7	C3	CZ	C4	T8	TP7	CP3	CPZ	CP4	TP8	P7	P3	PZ	P4	P8	PO3	POZ	PO4	O1	OZ	O2
-200	-0.5514288530732606	-0.811831591463811	-0.1272513863211772	-0.6215873940986725	-0.7901552895623617	-0.967854318559363	-0.8367948510977453	-0.5376560674444288	0.1433289196448813	-1.2369397847417123	-1.0821462842322598	-1.1929229467791136	-1.9836528251156593	-0.24704749819847724	-0.22598060908483406	-0.8041592816076935	-0.6906456929889533	0.07253141682909044	0.19163998913064223	-0.31150048892529836	-0.20222806879484312	-0.3849501898106412	0.006235408580951576	-0.15129990837521423	-0.12116602032587537	-0.35100513608050254	-0.0304538439190402	0.5023124205304891	-0.02670625963024888	-0.3314609817242529	-0.08911947883516798	-0.0012071088391613248	0.025314573134643747	0.22841015400438974
-196	-0.4470989990867139	-0.6756483895409474	0.06924445164602494	-0.5492063746891318	-0.9132253504584573	-1.0256830427976673	-0.9354234910235977	-0.3142011753732527	0.29642724916004043	-1.2229987352011045	-1.2287926642865128	-1.3824601138497117	-1.863213892047241	-0.09557251608083851	-0.33127266084956053	-0.9090009904799565	-0.854733345734767	0.4050294150616886	0.26621138982318115	-0.33808177624222024	-0.30064657254607036	-0.4741806375929396	0.0875747276121661	-0.13857252860845862	-0.12240307747216235	-0.43473243603619516	-0.12520971862651806	0.5676653966876628	-0.17317269698766957	-0.4458013761709075	-0.15515524109768108	-0.10959225865351245	-0.05265240730462839	0.14316628837202222
-192	-0.46436944486677967	-0.6956856829245012	0.09632893627403143	-0.526723860364486	-1.0424928638840718	-1.1301023931581182	-1.0815159055107069	-0.16206030506702573	0.2628535025635926	-1.1499834031634655	-1.379749294612171	-1.507161851892414	-1.6349971253123368	-0.17519117847556961	-0.4371425498416031	-1.0245561573863888	-0.9298061108955683	0.4295466531398947	0.1125891429323497	-0.41206151142989006	-0.4026757468547404	-0.5376219139830587	0.1290239390453549	-0.3045196823537966	-0.2197425806934867	-0.44674295074204706	-0.22941607178940193	0.5476895556927173	-0.304744630282611	-0.4702139484931523	-0.1767278011151608	-0.2641033225544099	-0.08462962486834673	0.10125179563231088
-188	-0.5980090483825978	-0.8539164044755381	-0.06950632465218445	-0.5334120379332018	-1.2031904428621996	-1.2804158893682738	-1.2376110522494779	-0.10627803179611163	0.04822582739336676	-1.0728230449293217	-1.5224182567306042	-1.5339305362120366	-1.4173891508556404	-0.42545929443706426	-0.5070406185700042	-1.1261281938731083	-0.8842523671713165	0.22466522398492939	-0.19676683793456984	-0.4868371772395585	-0.454007058189451	-0.5286382423405487	0.15235614738145098	-0.593752919128512	-0.351215778894607	-0.351205288477153	-0.2651363902550487	0.46469396235444	-0.36587247160090375	-0.3819207837475805	-0.11109063746299616	-0.4267302442744011	-0.05488808439225129	0.12788407472270938
-184	-0.7542626838714266	-1.0309108469684283	-0.31680747786644353	-0.5186930285709497	-1.3556457723723063	-1.4102970326103017	-1.308640357528215	-0.08972530789371608	-0.2285306745958213	-1.0137957308922552	-1.6163443286141301	-1.432220932205523	-1.2843688693997974	-0.6827136856962049	-0.513398109570341	-1.1765665978290154	-0.7131917458647692	-0.05958133175827445	-0.49070119733897943	-0.5142564760575843	-0.4144010235337398	-0.4074805666649208	0.1741803433073759	-0.891909597052344	-0.4370582092694589	-0.14932899139372485	-0.16991218881623696	0.3574188938653653	-0.3307940653555449	-0.19874124178776975	0.06212664007356256	-0.5487040267442331	0.03052992179732331	0.22433234694586046
-180	-0.8158943632507337	-1.0850689383767973	-0.4737979757744477	-0.44791230446262076	-1.4250680172226668	-1.431621547899175	-1.2006403177465677	-0.027657853369620896	-0.4047397960934562	-0.9567224955245713	-1.6168546635814085	-1.1943607300167556	-1.2407884566451424	-0.7829391340515585	-0.4536528575887675	-1.1480812997441956	-0.44524764902234215	-0.29293027446221964	-0.597831843774128	-0.47287538528262113	-0.2838236086355261	-0.1708693351007848	0.19243414651446328	-1.0852779122608522	-0.42799582969372163	0.11424332083230232	0.06474346651181999	0.2575300627405309	-0.218029260084905	0.02795152731633294	0.3273046008429468	-0.5928306564622309	0.1496170010365524	0.3684124639269494
-176	-0.7205317002224583	-0.944337842464409	-0.4171288896996431	-0.3346881559981791	-1.3650684322224789	-1.2977665630000046	-0.8882324673161445	0.12557896939996935	-0.37371835018216903	-0.8754541255782345	-1.5067530832395764	-0.8528764226361227	-1.2399251429723952	-0.6589744670442877	-0.35841786770927864	-1.0427801582711638	-0.13780124450701237	-0.4159234751690714	-0.44762727505202443	-0.38435527585264	-0.10998151423581595	0.13281835582101506	0.19176100146039193	-1.1240115137331887	-0.34108385357572046	0.36111217646025817	0.37873962425930474	0.17521405175794444	-0.08853057004511278	0.22806414904234218	0.628766475520519	-0.5579410181263991	0.2709220640971765	0.5211498128130989
-172	-0.50199049584487	-0.6519487483730612	-0.14914602003588756	-0.2373152667252842	-1.2103347747762296	-1.0454957458802745	-0.4484830487372265	0.3408611408210795	-0.15399238428337153	-0.7728601674594212	-1.3152101006680612	-0.481314210868615	-1.2239378659818143	-0.373602836380886	-0.28361266779819855	-0.8981366134855968	0.13936860824206881	-0.4323461044839925	-0.114186107824043	-0.30784407180310597	0.029703762307274114	0.4155574430464299	0.16109947819567227	-1.0502020094105675	-0.25937029653868016	0.503581284205264	0.6634484512744776	0.10108150516261752	-0.025175500597572693	0.3317315570085277	0.881515143076207	-0.4892128693626956	0.35839086680526355	0.6378331764329915
-168	-0.2695149772515164	-0.3399071386815356	0.2024123067513787	-0.22178378645215	-1.0732613774858932	-0.7851235846724166	-0.03634862592579904	0.5321958051596306	0.11834761470478682	-0.6932106596610967	-1.108070609156126	-0.17238894061433557	-1.1553766698277053	-0.07530308495821249	-0.2831302576069269	-0.7694193105345148	0.3270136407702104	-0.36570376065429294	0.22255094293195596	-0.30914372127682965	0.06629631651591028	0.586567877242203	0.11231911899103772	-0.9722307299863019	-0.28777190970244665	0.47883343575700416	0.8104745725196358	0.022693373205586974	-0.09672090386766538	0.29097232149093616	0.9981866453718192	-0.4622684109460741	0.377965717553495	0.6823042613922765
-164	-0.13916313613088563	-0.1488113846598022	0.4601236868208586	-0.31176325600112725	-1.0768322917453712	-0.6404982193034602	0.18921320092590044	0.6160601361933159	0.2709110074355986	-0.6921178085018991	-0.9518592929649808	-0.00032468308845516705	-1.0244990561368383	0.09522633230485708	-0.37428587580596506	-0.6963428837361354	0.39791393179565687	-0.21900354270478253	0.38138654731780747	-0.4182061542442713	-0.020676458202253483	0.5972669109523732	0.08467169084629075	-0.9947596763291104	-0.4851858305602256	0.28074577379870763	0.7654927949652046	-0.05656816796087402	-0.3192242077874049	0.10028844301414146	0.9248980856432198	-0.5428871498706442	0.3096538178255296	0.6401734931995438
-160	-0.16208209056463613	-0.14526389502566184	0.4979123758619564	-0.4622924614201803	-1.266887184759181	-0.6757989508732699	0.14600178562495697	0.567895768639138	0.19928905317535608	-0.7848187665198049	-0.8748947359884298	0.011991982317986418	-0.8404923060177619	0.08768732823644311	-0.5190184699306016	-0.6766059977614911	0.3657378545110184	0.027421791037229113	0.2815127961680632	-0.6021895989472993	-0.1870493735120826	0.4671992349749916	0.12437242238114973	-1.1469937533983696	-0.8153480270781018	-0.029437320232575073	0.5562252388262265	-0.11276674987217075	-0.6357383115930046	-0.19364508937582398	0.6691700203213113	-0.742436287912821	0.1601981963642991	0.525761543377017
-156	-0.296856998647786	-0.29000329898094684	0.30589541715638396	-0.5806521162631814	-1.5616757830291936	-0.8549480416647058	-0.13022340801262527	0.4364349831052609	-0.06742431951427542	-0.9131337977243135	-0.8505607821924452	-0.0976816338814713	-0.6172748192461268	-0.03942207237065697	-0.6347964986032866	-0.6645016653449997	0.27551996638354154	0.3818949749364579	-0.0200573652476312	-0.7713971118524583	-0.343981712188094	0.27410638263161735	0.25267004902942786	-1.3549840416076806	-1.1489357919295382	-0.343168198195931	0.27822840143529715	-0.11459458590423803	-0.9287269091999898	-0.501489459202153	0.3029775313834165	-0.9957245563162984	-0.03179882458764629	0.37825459146366963
-152	-0.4416786123091698	-0.47197452068376033	-0.015147787480554818	-0.5826747402738828	-1.781622643740971	-1.059141275592832	-0.5037705289519481	0.30880701463934357	-0.38008588456512515	-0.9641775464510312	-0.8137143829782225	-0.2484111332582058	-0.36575803068322393	-0.1692187334795097	-0.6355002506423728	-0.5972677454173979	0.18282733811472218	0.7985362390384247	-0.36818501260306075	-0.8194841721825578	-0.4045309414186905	0.11348594696479541	0.4429554928086468	-1.4736511670099792	-1.320119973664393	-0.548911570116817	0.045896109077686924	-0.04607799265075982	-1.0637153360213472	-0.7205866557048025	-0.06295798703033927	-1.1783271998219458	-0.2045030439697253	0.2468450063195253
-148	-0.5054631816500061	-0.5856040105339737	-0.3237863174846727	-0.44929647332242256	-1.7472727254622176	-1.1545505494532042	-0.8075724223728493	0.24830752548468654	-0.5566485510123527	-0.8360784628739986	-0.7028667312996203	-0.3550662091350534	-0.10051097695484852	-0.2098124468989778	-0.48087596771901037	-0.4369854021960496	0.1283412721493047	1.1692268818899048	-0.5982991441879872	-0.6801153404230715	-0.3334940365477638	0.04761152702470135	0.6241245850064208	-1.364650961291526	-1.2123433320907997	-0.5828823432511113	-0.0661079956412179	0.07703550885539646	-0.9496269202098444	-0.776768145984253	-0.32441028870692845	-1.1626731127948182	-0.29719304963418114	0.16962410466760364
-144	-0.4667955029146248	-0.5947674497846724	-0.5209984170157517	-0.2434930199197546	-1.38932346946898	-1.0693603727044825	-0.9230951047479612	0.25300663645762467	-0.48915338392735996	-0.5124953972274968	-0.5026682006542551	-0.36814919021164116	0.15099731049561474	-0.15398271342978112	-0.2078860992905067	-0.2026177490602396	0.12043435096136294	1.3608674968693157	-0.6182954295760391	-0.369356422683874	-0.17221046940716744	0.07251615058948588	0.7122682911055955	-0.9762527918009457	-0.8256924131527538	-0.46110480907370677	-0.05922098442861402	0.20767228252907602	-0.5864163622355665	-0.6601545794032162	-0.42819026004448807	-0.8848783947538118	-0.2799223654355369	0.15511530598578238
-140	-0.3871718635320675	-0.5492258654079242	-0.5978810176059436	-0.0752385033257614	-0.8074139932274363	-0.8367578962180778	-0.8315046408640621	0.26088225775655777	-0.20848214573675575	-0.0961173844890965	-0.26148036056304635	-0.2952125661072295	0.34914931566778384	-0.07491003703039473	0.07801581154438109	0.028462678122184667	0.1336490806543135	1.2812838522033017	-0.44190904386528973	0.010885511497492025	-0.022534860241142478	0.12212148277921257	0.6538528187456036	-0.38028761648485815	-0.28643450068635307	-0.27421522071270243	-0.0052950861730103865	0.2881641082640785	-0.07461608927484643	-0.43502893934088177	-0.3926508416752779	-0.3886162628852628	-0.17229282812487792	0.1776352222249303
-136	-0.36856624391008164	-0.5441454039186759	-0.6232406481266334	-0.033380743031862094	-0.23258869291233514	-0.577050922844234	-0.6125531777175205	0.19727675566933586	0.13242247667257762	0.23442022443236915	-0.07053013128116468	-0.19525970469290682	0.4565073240198541	-0.06593007577701256	0.2541373365661591	0.15466505250028587	0.12097688733789998	0.93771689893483	-0.1583893295103837	0.3169016830072732	0.004573234345393486	0.1060143259471299	0.45657876018643706	0.25663685733850444	0.21107031351681946	-0.14394928478613728	-0.0030204595456009013	0.2788448028676856	0.42217042935595134	-0.21408723240683125	-0.2933356158479913	0.18171274616139765	-0.037732094431026514	0.1897297198750587
-132	-0.48343926546110433	-0.6507852061053384	-0.6831563693918341	-0.12941896882760642	0.0892893371711878	-0.4295327950600194	-0.39524930615770054	0.03310862175211739	0.3469725838484047	0.32141986408145246	-0.016121985350078256	-0.14768756888772197	0.45736735943714685	-0.16392898518182222	0.2434349202924065	0.10245477382303356	0.03608160829375034	0.44858497267953507	0.13303980197695775	0.4313242126542209	-0.15140362045686157	-0.03958914791483087	0.1889506275651666	0.7508666496392781	0.49827936165891196	-0.16211463470060133	-0.12106985568235366	0.17774149730629651	0.7460325937509092	-0.10643594685146474	-0.2204557353652625	0.6397900565206717	0.04688098642314652	0.1468404527771517
-128	-0.7236125450938303	-0.8661814310139383	-0.8172776678431884	-0.2892727546541017	0.029842514469380313	-0.4738017904717037	-0.2905442409332401	-0.18888059210773234	0.3210508219242574	0.12525342373218928	-0.1308538016353394	-0.21134424156235435	0.3701243689252212	-0.3096188895037794	0.057075731312177386	-0.13077057865028188	-0.1437395509428634	-0.005318965749424525	0.3736768355471878	0.32177540578664	-0.46372687699540094	-0.31442814985998435	-0.054338216644425404	0.9849089955258865	0.5129509555263649	-0.3419513395735913	-0.35820242672128194	0.020853467232983144	0.8130961039995284	-0.16297814208844344	-0.2294175768066787	0.8394122102525141	0.03191801525044465	0.03389456859614136
-124	-0.9966065858474578	-1.1091570826183488	-0.9902636383804093	-0.3977360119314515	-0.34741234691644723	-0.6839793307201701	-0.34065622005285906	-0.37667670750883686	0.07596383224620186	-0.23746520220883813	-0.3698676815231441	-0.3929352154347833	0.2426340275837428	-0.3781358292092545	-0.20741288311566844	-0.4661619055422621	-0.40226066010957257	-0.2653867893671179	0.5533814416265278	0.06016344189355212	-0.824239669149311	-0.6498327238842324	-0.2015559668220527	0.9535098051792891	0.3240208319589494	-0.6080938562299083	-0.6420603378297897	-0.1388915326664911	0.6481907947387502	-0.34828093560024365	-0.3127272717209681	0.7418220024453168	-0.07634755204713582	-0.12307096241634555
-120	-1.1716060608847525	-1.2628160683220109	-1.1124647827671632	-0.3680170765168301	-0.8181304314938369	-0.940179762850731	-0.5053932654018611	-0.44500955826938793	-0.24574297604505546	-0.5493516908127274	-0.6248652919251744	-0.6364669187688995	0.1310044374734677	-0.2592877441058747	-0.41263186827430576	-0.7709522227849781	-0.6797583086017684	-0.26970624855611774	0.6811296922652982	-0.20911653287065973	-1.0883086892307392	-0.9360458231181262	-0.23869796037013152	0.75083458234047	0.08849415905782754	-0.8304669836057871	-0.8641863443490535	-0.2604020827394596	0.3683009734391785	-0.5556669221200251	-0.40766844050477846	0.431727497679753	-0.21650172715361915	-0.267313330690684
-116	-1.1476267547242862	-1.2363222806233982	-1.0940409871136054	-0.19453893552778018	-1.1133985491298568	-1.0879336568067595	-0.6860769373738098	-0.3682999601602199	-0.4611742186823725	-0.6114588364422072	-0.7675719837836552	-0.8389786460675125	0.07840378562682516	0.059987455455006805	-0.44905686265103045	-0.9101952291396611	-0.883794484291308	-0.07740360478885813	0.7507720570682584	-0.33637502704570843	-1.13565742682787	-1.0660366985109087	-0.2092129135810182	0.5120820390170231	-0.03390246993684445	-0.8849923588343347	-0.9309223270754589	-0.33269944703026916	0.12343775449820604	-0.6597437245878167	-0.4342002261643394	0.07370526324975271	-0.3033162347764975	-0.33947575006606284
-112	-0.9020750499838319	-1.0065568660118498	-0.896465537668893	0.045663189027653955	-1.056685087397129	-1.0125068400568862	-0.7717605213707364	-0.1949459309424402	-0.4489521968950691	-0.35734495430370805	-0.7024885398294753	-0.8886148907160578	0.10429973873984993	0.46726035953805445	-0.28835523055706824	-0.7999330738852093	-0.9157280302769677	0.16920965867236554	0.7321122270219862	-0.23681241214090618	-0.9193620062504588	-0.9759315823710621	-0.17900119676696039	0.34462639602435696	0.03840442737181485	-0.7120327931546826	-0.8041729906759572	-0.37169498111340976	0.02457533398026396	-0.5812598452197768	-0.34268793377186585	-0.1684747632064628	-0.2746067338209211	-0.30952712815337935
-108	-0.49464273327873504	-0.6194722040748686	-0.5499860034408256	0.2435152077487162	-0.6475437863213469	-0.6888936740648488	-0.684027193249804	-0.012986113284524026	-0.21128433889450632	0.10550859543864875	-0.40420386093131133	-0.7092837673399374	0.20727372117163045	0.7743774036883482	0.0057378485653969006	-0.43805518635777735	-0.7062102538398543	0.3246732047943689	0.592779932909655	0.06985791009908503	-0.4812915611036575	-0.6655881388072223	-0.19020439636369027	0.2844289534063366	0.27281966736577723	-0.34403067740365334	-0.5133787380608379	-0.39971390265636203	0.09293790138145085	-0.3303374341730735	-0.14392083846949003	-0.20953011459855078	-0.1280419227228373	-0.19491763363740452
-104	-0.03262406206834894	-0.16061750013807416	-0.13496661152142467	0.3240335873528991	-0.04760300728581028	-0.18572474969226105	-0.40469282763349174	0.10537625822642031	0.1328693028910082	0.5557236657417081	0.07556500266785547	-0.29597243591923006	0.37790474200204377	0.8179874995560265	0.31254360000855647	0.09818483864313647	-0.24992632802805428	0.31358969132404585	0.3331677011184424	0.4700337040478066	0.06999471020907976	-0.19506534884794619	-0.23114411474520596	0.2975727908250864	0.5488990531414458	0.1108220067802523	-0.1361977305549909	-0.42114531887536993	0.25670626694717014	-0.0035718586205662362	0.09611722802690435	-0.07687592486999387	0.07462675850623429	-0.053412996097654764
-100	0.3786929836248858	0.2837940745341144	0.257125078982627	0.28680279778549034	0.5127034770418823	0.3698563864429877	0.018342813430608975	0.14389821850685489	0.4145591546559297	0.7804073671664711	0.6278749092462197	0.2734463804016858	0.6066755041064141	0.5570508823635707	0.5123836981234697	0.6807135326365271	0.3767509748960395	0.15995666344311785	0.006678922084992621	0.8071987012510512	0.6025938376471454	0.33672675405364	-0.243387087565095	0.3170800499063132	0.7259796839504638	0.5164681063963913	0.23703281521556793	-0.41272449389205285	0.3932882537448966	0.26239487462552624	0.2910587780279646	0.11344796390500819	0.23758719801522415	0.045305020992812625
-96	0.6721043569761953	0.6510170085682846	0.5597124681646511	0.19684597800147055	0.8537595250508853	0.8471379258702155	0.4887193131028791	0.14143434131199525	0.5044818507809017	0.6914940458958995	1.1250874967779574	0.8586003758687415	0.8757331945243683	0.10366975489906759	0.5387520180451469	1.1735377282077564	1.0282224390772667	-0.03978996713844304	-0.2978181533446848	0.9493112540119109	1.0062800620422119	0.8213022926575512	-0.1633585687327619	0.2881887845869532	0.7129359227300391	0.7647104243998581	0.5360661731537041	-0.3368087700446439	0.3931992640104716	0.35744106679316573	0.37924125694846794	0.22317413929383165	0.2791904502018654	0.05430329577325579
-92	0.827570317086306	0.9053221918137074	0.7456678729304494	0.13635474409009404	0.930140969789071	1.1601828307423898	0.8959391094475659	0.1536286618407092	0.37441792989613154	0.3708008518393916	1.4631646834625416	1.3034067121022808	1.145761844603262	-0.3288227013392208	0.40258136289997687	1.4747468195874742	1.5317577084968803	-0.17875863566565933	-0.4994687127377573	0.8447653629909213	1.2224651544224223	1.1677650183758344	0.03104997045903045	0.19844460437263275	0.5083692060986933	0.8143920877876076	0.7280851584171938	-0.16834719436580434	0.216229110410266	0.25230574544148043	0.35490146189731014	0.16640427666612753	0.1744976635341977	-0.026879411122884226
-88	0.8587593414559561	1.0296555731526278	0.8191565254510547	0.1525211330377727	0.8331962802831614	1.2882025209327819	1.1529567212559342	0.20634317345974645	0.09914324407580202	0.01727404068519469	1.5913056095001008	1.492442842530162	1.3502109016661183	-0.5385949002019157	0.1786194141169767	1.5432096680779523	1.7479768947338163	-0.19906225750255832	-0.5694260582852378	0.5411530719445719	1.2503218619250278	1.3221238818166823	0.2963257126479219	0.07871506343279815	0.1940453047621579	0.697334824231983	0.8153845647252569	0.08134031275239913	-0.08813166596096061	0.01173081432301411	0.2669504278118853	-0.047214168936019145	-0.032282337464843505	-0.1530315872143404
-84	0.7917681912459116	1.0189859841369024	0.797581015003666	0.2303796851778916	0.7183188181861141	1.2661899296263588	1.2243951528153767	0.27248439123976215	-0.1937282825585592	-0.17097328560101063	1.5208665094124394	1.3937661612607417	1.410010334269656	-0.4446254063347804	-0.03573365127959131	1.4040582144574132	1.6249138075811418	-0.11246962071871561	-0.5434508905995066	0.16065144498318804	1.133079525947843	1.2779430118720758	0.5409027920417919	-0.019057422828242666	-0.10874262424670676	0.49334928268805234	0.8221138694987639	0.3619876494805087	-0.4044193615239527	-0.23878391026768064	0.1885281796463876	-0.319600402501955	-0.2502099567295019	-0.25746631557310456
-80	0.6523232443552394	0.8832136370294383	0.6991899591912886	0.3088233761142931	0.7058566194832947	1.1576969594336635	1.1361664504929667	0.2892298095076494	-0.3940043737477425	-0.10884623947080657	1.3129601445427603	1.0690611573884654	1.2679023710664323	-0.12710657683706097	-0.16571474033478434	1.1333848209376116	1.2189507453660486	0.0215132478081425	-0.49341371530889183	-0.15449441930388594	0.9337714290885292	1.0745482417633447	0.6742395145559487	-0.05051179589989192	-0.2944166950898755	0.28954389618250037	0.7786122540843029	0.6061804279281597	-0.6056774839368148	-0.3749773790905809	0.17475071505295275	-0.5160724507653711	-0.3863258948109063	-0.2861007146764536
-76	0.4661188411865206	0.6558228714597459	0.5407087193188932	0.32350218214374576	0.8135635832273215	1.0240601275338204	0.9589172577489495	0.1992888147567776	-0.46063852193880617	0.13687558437598762	1.0500321361733866	0.6435383542025533	0.9236553288027907	0.21659791414888258	-0.18747384798877884	0.8270576575378872	0.6682848317439869	0.1365609463581739	-0.4804009485036722	-0.30271798295839736	0.7101908904264839	0.7798684815744173	0.6535069329928453	0.00012810839656992456	-0.31464627305698917	0.143200888868227	0.7075480204838156	0.7601132373692286	-0.6139903053040715	-0.33391913687322855	0.23051501752351242	-0.5344654904223024	-0.39023113152208533	-0.22480609956250033
-72	0.261766373450279	0.392710654936159	0.33868026647889893	0.2439180159370913	0.9519802307889248	0.9004448629533409	0.7698638419741273	-0.013760968076712336	-0.4310167420949233	0.39592945475751534	0.801422057512584	0.2493046366834554	0.44891044384150935	0.37941741847565685	-0.13107344475078217	0.5639798626965711	0.1316380497469916	0.19432194481902323	-0.5143936859495107	-0.2641508274561759	0.4973838614780674	0.4647311556526859	0.5021335469919698	0.11681755602668496	-0.19016826104788642	0.06416863186847684	0.6164746864966821	0.8056659678145218	-0.436228393406991	-0.1413698192841888	0.3063186101332208	-0.3544056406609979	-0.2748906307432695	-0.10617502751961921
-68	0.06847082806227717	0.15487205943106816	0.10985689582506644	0.08430690297060577	0.9830954646085293	0.788105843461579	0.613842128157534	-0.31832504192091593	-0.38737493655630456	0.4986135947036461	0.5987106546544776	-0.028338156568982666	-0.035480055868454076	0.255515217135953	-0.05855084568380594	0.3793446114022475	-0.2765894525220462	0.1928432429928463	-0.5502669797355874	-0.1030212340138069	0.303532420822552	0.1788412328019483	0.2895567707857394	0.262631683878621	0.007519584130137113	0.022593192699133666	0.49822911494349315	0.7615441660727387	-0.1595723624968988	0.10629951927049891	0.3250449589628944	-0.04446746770241435	-0.10464248034760427	0.007540562171077362
-64	-0.08960725344445587	-0.014899514577918077	-0.1287576254931708	-0.1134817299361882	0.8096754530491498	0.6662499291764927	0.4857084440842967	-0.6554274542473043	-0.40099009770242583	0.37699422145075373	0.4342120278839751	-0.1744517828589977	-0.40699538485767406	-0.10323482725782025	-0.028160555217097042	0.26088935070926816	-0.5212711082649106	0.1485149260585991	-0.521310447330363	0.06853820366244504	0.12063770710766196	-0.05923163503355043	0.08746561385959963	0.39589312572661645	0.1912672812878027	-0.02452009165056754	0.33965238843040874	0.6643793566142293	0.08949608333164985	0.2948200397200522	0.22571161332364187	0.27476838161714384	0.04140614707744729	0.056127138294133204
-60	-0.1965113724277075	-0.10420565280830953	-0.3592504253853993	-0.3028856806260495	0.44356480128832493	0.5162624703724353	0.3461394003235155	-0.9666162108812144	-0.4878955471118406	0.10465058657927327	0.28344011235200944	-0.22590364458746215	-0.5921853765795216	-0.5194101320504318	-0.05923874661271224	0.1714019771063141	-0.632829187702797	0.07083804887529693	-0.38720640442362764	0.15031291506487046	-0.05448352159215005	-0.2508400970324764	-0.06811147165983363	0.4851739096313006	0.2954089932135909	-0.10102325652365783	0.13729856873656823	0.5437912927249594	0.20560213871544736	0.35234403521271174	0.002027780743784097	0.49054697032101247	0.11026430847223881	0.012061028710848935
-56	-0.24236503182255062	-0.12506382135763747	-0.5572383985755607	-0.4445611823301971	0.015758955811409705	0.34646144421842384	0.1635379638119217	-1.2072329490699498	-0.5965711459356666	-0.14657190405079418	0.1383988257728605	-0.22552068474574716	-0.5919184073762467	-0.785642502708521	-0.11708337784055088	0.08545445629240787	-0.6583994610375913	-0.04435917723900177	-0.1604147400382214	0.10849580141331504	-0.20008838126209835	-0.3927130689242663	-0.18303938163797528	0.5195868598217447	0.30157282872354135	-0.1894346917853266	-0.08634116478817025	0.41097250477027075	0.1549711372515959	0.2869248382953598	-0.28313273119967886	0.5499048219148465	0.09997250114472657	-0.10422596309096546
-52	-0.21568435376071668	-0.09121969319200991	-0.6847746950980449	-0.5038670884762405	-0.28048539090866376	0.2020724410677275	-0.04530503216868349	-1.3388863768152546	-0.6345680936050839	-0.20607961662237628	0.029077554048199734	-0.18118248834165335	-0.4626790273428951	-0.7678159455941049	-0.12765961853221316	0.016909025566802068	-0.6128978117727417	-0.2019284809497972	0.10130579744034103	-0.005578332566542075	-0.26533162526851756	-0.4569647002603833	-0.2780051820411769	0.510553716324196	0.24206580160537244	-0.232176914224944	-0.27577963401784994	0.2671521597316183	-0.00905610898085819	0.18154863967358412	-0.5172971473984791	0.47975057242384755	0.05618646726727672	-0.2320962989430888
-48	-0.10018266712167398	0.0026751493501922462	-0.693304060139224	-0.44394162185164354	-0.28611376809362643	0.15002843699723695	-0.20519548602749393	-1.3155043091939296	-0.5218975530799184	-0.002305450610583711	0.015761157457970538	-0.05687647671048662	-0.26923474601481245	-0.4698026168405958	-0.017657123461489233	0.018344137771306734	-0.46333786728225645	-0.3866192092671054	0.3257138124825528	-0.08292438813969229	-0.1889188731907427	-0.393173067769159	-0.3529255381256723	0.48526573058634526	0.18196688546491707	-0.15725786944263032	-0.3541998258231081	0.12133272706631064	-0.17142416493527574	0.14988844058817422	-0.584895728541896	0.36575758364838923	0.043891530373145644	-0.29770144745050925
-44	0.11528684914807281	0.17854380562527003	-0.5422925339358662	-0.23356153011958047	0.03978063156097866	0.24261681674260738	-0.21904845480450738	-1.0884166928467995	-0.24032708941818054	0.39831712741422204	0.15054418108601508	0.19141031753374133	-0.046904012442423176	-0.024985562946894857	0.23705471992246757	0.1459473516832533	-0.16480302769060182	-0.5540101514180313	0.46324977161750086	-0.020292144217518404	0.062166206381722634	-0.16204334754562993	-0.37507358098700544	0.4740882205914487	0.18659581196880937	0.0796971915140244	-0.2593481236108797	-0.0022246700189719523	-0.212724103986582	0.2729993157646767	-0.42330607664998965	0.3026616267669045	0.10821542116499949	-0.2515873604621388
-40	0.41672626032520194	0.4493271101097598	-0.22877694608625024	0.125458374302732	0.5886647686401071	0.47714117048913623	-0.032992858356384956	-0.6391590221480279	0.14427491986088428	0.8234836438368888	0.4284649778515643	0.5591918215938526	0.20697882719234875	0.37740090394102943	0.5790503010435317	0.4077734638886076	0.2758348279187726	-0.6465078575977661	0.50414842239887	0.21244028157003939	0.4529776859767789	0.21740524415916573	-0.30168509407169236	0.4943578528797503	0.2866201393520373	0.4570432889843212	0.01207940091123199	-0.07471398990364284	-0.07111053150819968	0.5502944574767594	-0.061494920247505525	0.34428661974767266	0.24606612262588937	-0.09733184402449005
-36	0.7468151431301896	0.7841740826835418	0.18844820511446211	0.5705233797927822	1.146786329235075	0.7788004855520283	0.31190115134646695	-0.021957492400402772	0.5021879064278677	1.0839239331535528	0.7638693432595561	0.9608359908640698	0.5065211640920981	0.5868886694395742	0.8785749651661499	0.7316620927457789	0.7588833551320384	-0.630763588743321	0.4659979629672213	0.5411071763682107	0.8682122208609534	0.6423492415422866	-0.12582740155876593	0.5394976721494045	0.4583021688811215	0.8761664606861467	0.3788996329278003	-0.08859731234593152	0.22387540283900478	0.891535220279455	0.37946435713329896	0.4787113356424901	0.40364283221377945	0.10343007717245027
-32	1.0116250489443053	1.097631213277942	0.5937353953629922	0.9777328347316266	1.4995320997525585	1.026469347269559	0.680600581834963	0.6196395739169752	0.6996044498900101	1.0753744813471353	1.016941425616979	1.2499662606151958	0.83482050684919	0.5613737688196365	0.9908249353188421	0.9808418129952616	1.1087762089391957	-0.5278206454302289	0.372810213816664	0.8156366923720202	1.1433765859346627	0.9464260315841978	0.08967089630375412	0.5802777394902924	0.6308952554032974	1.1888507574583402	0.6887980086102259	-0.0782368032149085	0.5630404934972827	1.1548428506304447	0.7277074437842058	0.6392663701129974	0.5008528219929145	0.2535565191066117
-28	1.1175652714170055	1.2793964115266094	0.8569893815338195	1.2052320211498917	1.541347499770581	1.114409324693406	0.9082335210757663	1.089867112269102	0.66728323529571	0.8331956842367152	1.0640988323048637	1.2921348777572654	1.122789022471932	0.3778011193273633	0.835390506065738	1.0180414889381761	1.1523941726199645	-0.4115466167072978	0.24308705268521438	0.8872354604255036	1.1334086627954616	0.968744335112902	0.22312219384604104	0.5803822264323197	0.7201136928497038	1.256781336472318	0.7761421184017576	-0.11415390641478439	0.8100734332613102	1.21456157854516	0.8306159952173493	0.744885502365103	0.47250708818348386	0.2634066038633894
-24	1.0242086623082256	1.2552559344070773	0.897203502773994	1.1649638384970424	1.3328071799006713	1.0180970404669667	0.8953886009498103	1.2258806197687184	0.44332316405901556	0.5156878219936066	0.8760463573272276	1.050550577372334	1.2690237728504052	0.18257769896187193	0.4566844690236793	0.7873267511516869	0.8193551281269449	-0.3701072921945362	0.09353539324033204	0.6946188193903601	0.7884290794493799	0.6398409588871814	0.15421661695645042	0.5197070823899531	0.6716762168138546	1.0178222630552458	0.5418745861677563	-0.2657946043456415	0.8687106945039514	1.0253213618140835	0.6227133854402815	0.7465751748309297	0.30470117849667944	0.09592848246911902
-20	0.7839458564992732	1.0469231579097515	0.7340177279059997	0.8833425022711173	1.0697954866102444	0.8232794979290484	0.6787760836629946	0.990828750016098	0.16459314483571635	0.3230910889097678	0.5549240694340649	0.6309559925361702	1.1979906528744122	0.11353613407556958	0.023355549142402194	0.3654723456215368	0.20409408160179265	-0.44478815681692874	-0.04399587202885183	0.30970153134355183	0.1955621386597336	0.035856369792293404	-0.15620711406369905	0.41226538911682953	0.4929102646780676	0.5258174525336751	0.014528184161162935	-0.5490626678909412	0.7300374489472379	0.6493251307306067	0.15973250527584473	0.6534090025617266	0.04730461898423744	-0.2073213601838469
-16	0.5356343375033967	0.7845370749693076	0.4910351621628128	0.5072585331507529	0.9813718770999109	0.6933642608302951	0.4269017268369869	0.5140560852423554	0.0048353792977441	0.3981640924891476	0.29927268548746633	0.247536211580918	0.918697116439668	0.2314344340680127	-0.24329094527331502	-0.05491695539199148	-0.4578734922769792	-0.5926339611349687	-0.11677462578139387	-0.08808053262645302	-0.44241410382151886	-0.6377756579509285	-0.6223689898036389	0.3045689753949014	0.252967178182883	-0.06027942135612132	-0.646141587056546	-0.8964083768146978	0.4736186552010937	0.23127990902682266	-0.40079563754933706	0.5237129913459037	-0.20565676637224606	-0.5364892469212517
-12	0.44858848935356793	0.6573001129721295	0.3426143220357541	0.2427705669234173	1.204995390710731	0.7842757086026273	0.3541668048499859	0.04669098544253377	0.08676214494257536	0.7580439429217859	0.3062314681427792	0.11918968677230571	0.5430020080208364	0.493698923533422	-0.18037743820902707	-0.25130170520277395	-0.8961459375644143	-0.6954278332318539	-0.07100836169673201	-0.2999243728694727	-0.8890304542983827	-1.134329316136338	-1.0561505529441328	0.25199580128943094	0.04888943570429813	-0.5388842211469249	-1.2131004302868251	-1.174470540896136	0.22097924295900304	-0.06875322741792937	-0.8678215720200818	0.42670407783541076	-0.35995939283089023	-0.760183094012729
-8	0.6414748414056393	0.8220260718572314	0.4283273805294477	0.2527448826607544	1.7075723366540654	1.1518868178849173	0.5993973001605565	-0.1541480269116483	0.41401362314600026	1.2895867791995508	0.6619427187419633	0.35321983605850776	0.24642567274342794	0.7825577239306037	0.22388598266342571	-0.08388162383120708	-0.936591384430378	-0.6246196015800306	0.11051259907000442	-0.2119236732139142	-0.9788786148152512	-1.2817894187990102	-1.2550053564810744	0.28348347473097407	-0.04544110584707186	-0.7526545505594467	-1.4954776726158834	-1.2490856615955073	0.0671161858533064	-0.15193359515454388	-1.1030491562650564	0.39669254322032566	-0.368545292877496	-0.788144467271296
-4	1.116760012668123	1.3145279851149738	0.778831360757944	0.5693064317634756	2.2996501864546834	1.7061942772703376	1.137408253659082	0.04424089182174365	0.8638018347865782	1.8102613641810552	1.2829207149539907	0.8813704826037024	0.18471804214570758	0.9657633876259213	0.8126215914236695	0.42604970824439625	-0.587843416637176	-0.32735204614006824	0.37966439032066013	0.14240892195509589	-0.6932979208608275	-1.0655765506544044	-1.1137031288638901	0.3765731742411234	-0.020281335287744708	-0.6582138521742293	-1.4298515283723938	-1.0665067407384206	0.02669915922695794	-0.02820881635279177	-1.083443400508587	0.40727847711732007	-0.2579373412772529	-0.6202014072972096
0	1.7512568191182354	2.0186364599760647	1.296910163466034	1.0753959390192003	2.736381762271598	2.245532030158213	1.780834312711162	0.5805086478835692	1.2469974724757185	2.1596286242319103	1.9477513979373198	1.491377826740004	0.41208925739196295	0.9632820462701867	1.3347576822913767	1.0994043322462435	-0.03001971162726957	0.12254190414007432	0.6289435013150549	0.5985991343643844	-0.16628260868528694	-0.6290426238390662	-0.6906166059223763	0.46178176882503413	0.06442590041583908	-0.3424671283658529	-1.1078648539228808	-0.6993801576122866	0.027760095824249195	0.19125322949283238	-0.9063922739986583	0.3831310560566891	-0.11719664156649935	-0.35281774312586817
4	2.351484054350549	2.7136111190948355	1.8071603729398	1.568317290161168	2.850043528036876	2.5580477649954076	2.2758259715795313	1.2304657666611338	1.4062197172900905	2.273023361189268	2.406744950893768	1.9404605578068017	0.8486441948445315	0.7859265188401586	1.5754160841267049	1.685846920525445	0.48870426293011127	0.5380880223040255	0.7348772268814908	0.9479445791153065	0.38231560491357586	-0.19016115319401491	-0.18994545888627853	0.4557479608473328	0.1117652130285385	0.02232630731489023	-0.7241876107051713	-0.3258984974739231	-0.045354127769402966	0.3516524723234513	-0.734415410094937	0.243191077691246	-0.05469975979226862	-0.13650503720151574
8	2.7409202983319165	3.173368445967507	2.1431863253842627	1.8661525202365379	2.634782784485508	2.532112353607641	2.4359478888998716	1.7204039053396252	1.2969281640687107	2.196775192436464	2.507183068621143	2.0828635640009185	1.3137985434740542	0.5210053907591728	1.4678196869984572	1.9842793891399564	0.7821709493916328	0.7012822610315566	0.6226100309865019	1.0442508432726387	0.7480139713475302	0.0739600284020407	0.13543018664499487	0.30767869871659415	0.040595084326294495	0.2598596208687283	-0.4758428323175943	-0.1474014069888778	-0.28360813784520705	0.33114066636403866	-0.7095757704939548	-0.050615820905923536	-0.14509932660185246	-0.10528379652144593
12	2.8348989415120016	3.26839779982304	2.2258658352920944	1.8971135568404978	2.23870753676724	2.214113468302113	2.2395961228093086	1.863561863962561	1.0081344817457818	2.0408651777238975	2.265590185167386	1.9399326990740036	1.6122153956716738	0.2840244464855897	1.1220121355338908	1.9330900858710647	0.8097332695544359	0.47566419719765346	0.31699240127639233	0.8714798666885798	0.8259402492651041	0.10923414649802544	0.1109526527106895	0.03451609602796754	-0.17014686720328637	0.26703593067459974	-0.46763568998525745	-0.28499734329747967	-0.6961767059869212	0.09856677775531228	-0.8817986227660431	-0.4639483082501824	-0.39132833382034055	-0.3113988034015683
16	2.6646108560044377	3.0160632057335612	2.0897009319951305	1.7200605825865858	1.872150535625142	1.7791720583818627	1.8336535645919663	1.6432460505005555	0.7099015694814745	1.904876823384313	1.8464546156994783	1.671152349067489	1.6250042874316823	0.16152146417845545	0.7524688820914401	1.621760483461906	0.6662015302050572	-0.1124033105515704	-0.05682569355326621	0.535484133798942	0.636325894179717	-0.013938189448988475	-0.2735835008866454	-0.2790513031589886	-0.47174495339498757	0.04806208225871129	-0.6764002425282459	-0.7139612418268767	-1.1986067264812552	-0.2777770452638751	-1.1908174723123837	-0.8989472366524955	-0.7231866103033407	-0.7010506969871888
20	2.338821405227856	2.5532402927785416	1.8444684697312874	1.4662007056411557	1.6828899341056036	1.4285529815845956	1.4410337173318934	1.1989610164889057	0.5540766702014327	1.818143720804831	1.45986449349895	1.464716311571417	1.3582547868768275	0.16875247614693137	0.5445258603653167	1.2207429378206303	0.49178492898754944	-0.8718271233481645	-0.33618393455504103	0.18716846359204314	0.2843296520683915	-0.1748305852767501	-0.8645513631927364	-0.5205666409700889	-0.7768152932581514	-0.3081775001851377	-0.9888093446562064	-1.2744735447177495	-1.6536109405729584	-0.6718298775876976	-1.5089564285327806	-1.2384303776944918	-1.0331779692313812	-1.1441036433897973
24	1.9757065723128457	2.0563366361198945	1.6042507846383158	1.250155326547946	1.676595326005346	1.2768423525044323	1.2319704263100448	0.7365565281391528	0.5875960573619826	1.729593391820025	1.2419260708924533	1.4186867439691246	0.9298243499168235	0.24666835305401824	0.5424718843115425	0.8772504903579399	0.36677837279223535	-1.5274007281840891	-0.4090579141779519	-0.07089845073204369	-0.1132108640792709	-0.29903957172233836	-1.4278680050085664	-0.6078723057658376	-1.0100659106502072	-0.6877582055847444	-1.2828301158941608	-1.752776975974749	-1.9402947376854551	-0.9658279990606947	-1.7170886950055881	-1.400950189868092	-1.2291841475924092	-1.4998208246511215
28	1.6493586260161286	1.6584062534423212	1.429001685349332	1.10983860212499	1.7339651540846832	1.2981549468643805	1.2376744715913588	0.4191302348522135	0.7322850208867537	1.5585142334689994	1.1903544634329373	1.4876223765007675	0.5060725795366511	0.29819172545487144	0.6308005436229884	0.6416225417150198	0.2630533271346976	-1.845629806627159	-0.279934673794652	-0.23423002601137108	-0.4863589691757329	-0.41111376777803177	-1.7682938531099501	-0.53036135301201	-1.1449650497139163	-1.0098178361192782	-1.4987226686785524	-1.987751836526514	-2.0108010718122533	-1.1025896044549983	-1.7680383876030878	-1.3756952251033636	-1.2750376430744796	-1.682444925828834
32	1.3748933042145801	1.403429266247331	1.3076255288488314	1.0080159877122674	1.70140766667909	1.3561803068253024	1.3495818342467472	0.298179953537558	0.8370906689490187	1.2627409664697835	1.1858532398801538	1.5218510589323537	0.2233736658417135	0.24396121440328322	0.6164733751945004	0.4613379824434794	0.07960718105006023	-1.7400996641094784	-0.06974571180615922	-0.37807682061107584	-0.8268516638860636	-0.609714744935838	-1.816681022825736	-0.3510262659270221	-1.2084610431678013	-1.25325011890616	-1.658002372370343	-1.942975635391394	-1.9050352525297258	-1.0983800860330093	-1.7019950108472237	-1.2187095849738965	-1.1979050606047308	-1.6907020764580112
36	1.1367480726152166	1.2593787876757818	1.1899483173844632	0.8896980859228262	1.4979078731865298	1.2987587419144309	1.4003289902618115	0.32020547905186464	0.7747266273012055	0.8813920594850566	1.0819995375971934	1.372572060934308	0.14001911843234385	0.06981867534176067	0.3625754108811549	0.23973911940127818	-0.265856742187663	-1.3028396335133194	0.05673015103322277	-0.5854082092763809	-1.1586540908170502	-0.9837772225337489	-1.639806504877831	-0.1657778318511198	-1.2516241042007927	-1.442326303655229	-1.825020785492363	-1.7064982609579245	-1.7169568495316778	-1.014644143403846	-1.6095305640591897	-1.014772054971211	-1.0618548366440255	-1.5890023668225053
40	0.9295265651122775	1.1675722569551175	1.0363938782274733	0.747242687246084	1.169277545837836	1.056545254900839	1.2712750402778878	0.38712546131622705	0.522999285331165	0.5252060876937575	0.8049339631738833	0.9942432616880803	0.23071697296066276	-0.1644977774043165	-0.11013196380942979	-0.08314965644347154	-0.755301712036528	-0.7512348871337707	-0.007042689231138406	-0.8707078077267535	-1.4917831383234534	-1.527238841969288	-1.3817709649485586	-0.044468782729886386	-1.305821415465325	-1.6073330600211588	-2.043055529204574	-1.4270831310481455	-1.5347773990028672	-0.9110236144906579	-1.5699287613332469	-0.8291664698647163	-0.9257665253154047	-1.4578715526012715
44	0.7809109668089069	1.0933390828185026	0.851618645425248	0.64359927014936	0.8550546743739398	0.6837388259791087	0.9578183269160002	0.42604109537324797	0.18055449380588537	0.3136581472583975	0.39856541056140704	0.4772949504722685	0.41577753319670735	-0.35584604650300333	-0.6228731854925209	-0.4839855122267693	-1.2602769104609899	-0.32109841623299035	-0.2395932221323976	-1.1549606294082235	-1.7980531408689826	-2.116684431453981	-1.1789135903157657	0.009391899196933161	-1.3580052818344277	-1.7540475085795735	-2.29636620895443	-1.2300286261974547	-1.3943276370131084	-0.8139413574649541	-1.6094226796524187	-0.6787762028722839	-0.8140828588912936	-1.3475217785192213
48	0.7428224664053458	1.049081680510198	0.6836962086582019	0.6740993840364354	0.695272086295449	0.3220118872141893	0.5605422244224745	0.4255737353547441	-0.08826747514373845	0.3021329037667593	-0.0056061502404530315	-0.004763825318855761	0.6042460783961477	-0.40724834696946216	-0.939320085061306	-0.8686285593036583	-1.611443277105203	-0.16031707782800347	-0.49503531927055694	-1.3079615798352267	-2.0241954275523617	-2.5705726081797278	-1.096273181054808	0.0559698006587749	-1.3600233758921378	-1.8622333956431614	-2.5243246491595297	-1.1627644271103836	-1.2720020977330224	-0.7189228516547429	-1.705269690022916	-0.538552104067075	-0.7171170097365422	-1.2635182110356922
52	0.8561266043028741	1.077009675167775	0.5913183674188078	0.8932729340888493	0.7448257189065441	0.11599441588441504	0.21675717775932032	0.4208834756715327	-0.1464758958694646	0.451860009483095	-0.26663261584674536	-0.2951547496019433	0.7264908533827669	-0.2737226479295222	-0.903652963740987	-1.1280863256583256	-1.6996072487835503	-0.2780783765447763	-0.5844033941772943	-1.2299245564879397	-2.128454203000193	-2.7522213389527983	-1.1188118429546905	0.1751274313081433	-1.2649753061781925	-1.9099999617991126	-2.673574202463131	-1.196265932877546	-1.1183423967736248	-0.6199969633661462	-1.8272324754358147	-0.3757756342937199	-0.6176639183662382	-1.1894623011121919
56	1.1165894241752063	1.2113252847606064	0.6073732360763933	1.258908268611113	0.9479327177910262	0.13485924865529408	0.02337680192350126	0.45191573982581934	0.041635993762991784	0.6576336605634505	-0.30921119373454503	-0.33426895653253214	0.7494171242866451	0.01634042147146737	-0.5334096537474168	-1.1991827457669102	-1.5391217431309978	-0.5604619965708093	-0.39381572504750467	-0.9211369729627438	-2.1123239940718017	-2.6496543817380003	-1.1882606714765538	0.40728944437193104	-1.0677236291630827	-1.903262968026449	-2.7466750075611617	-1.2703418699616404	-0.9066892243381797	-0.5400880561544141	-1.9811055610229695	-0.186310201412928	-0.5227908478889117	-1.1245897979953394
60	1.4644020758849545	1.4455773793916498	0.7201821189817332	1.6351427990638	1.1858799427609459	0.34646406682278735	-0.0011519654624882094	0.5278536664033511	0.3959921290413384	0.8165795782453416	-0.15064585170858402	-0.17297606126505202	0.679870722961531	0.37651127481768043	-0.009504761522852989	-1.0911595793831483	-1.2510735957030372	-0.8374215939359761	0.03393650046363498	-0.4930064665744922	-2.02234124626737	-2.378437989905666	-1.24938714188802	0.7178671341891466	-0.8200641849794027	-1.8836603117115	-2.804537766051547	-1.3412519659511277	-0.6614674313057243	-0.5333022461778028	-2.2124969903398854	-0.006078893303424586	-0.47344973563822673	-1.1006928654537447
64	1.7994208290445457	1.7208585695688239	0.8777884818803242	1.8560805273878218	1.360940691372915	0.6500313265601226	0.09800412481121434	0.6211844667010081	0.7671842555703702	0.8909782744800798	0.12635427681492778	0.08148216435602582	0.5571520910501438	0.6988142115115732	0.4267214823916412	-0.8687891938209225	-0.9767725443020748	-0.9641916727518073	0.49998640887864687	-0.11340198637226066	-1.9210579346792138	-2.103537315779777	-1.271828171380007	1.0071183417642164	-0.6098999961713322	-1.905286784130043	-2.9138109610423824	-1.3945156300622554	-0.4455777395442748	-0.6509688480154278	-2.5590493614436847	0.11145073147291693	-0.5213081227492227	-1.1604887217786048
68	2.0067858645317416	1.9340605686948473	1.0015907262309922	1.8095314457029787	1.4479351007144325	0.9319014525727121	0.25105303462539885	0.6857690197796775	1.0087293360991383	0.9169878340457597	0.42188396943388407	0.33625438724498763	0.4382051218413313	0.8884401298980176	0.6026386007352587	-0.6152823551856056	-0.7886709550972677	-0.8775138236778927	0.741871533905	0.08043531308131747	-1.8507271958354807	-1.9348918150687862	-1.2408173052931408	1.1628829211438978	-0.514452456129111	-1.9949945161041753	-3.0765421312858225	-1.4187586271705424	-0.3120554677714008	-0.8893540479140513	-2.9796922131648667	0.1410125937477906	-0.6832920295630004	-1.3076480594044997
72	1.9737192342517622	1.9559255789011791	0.9936260555929894	1.481531616285127	1.4747036658247659	1.1011787625167269	0.3890200247479519	0.675906358442884	1.0307139132225878	0.9496018266544572	0.6481013877718128	0.546267567685901	0.37498834634519185	0.8864571429759917	0.48681375261422094	-0.4075244058810424	-0.6629446728181079	-0.6063339694927135	0.576034246420867	0.045778438333326496	-1.8192586852871844	-1.8668971014571922	-1.1331136198045684	1.1269881696857562	-0.5569764957670789	-2.1249051040406477	-3.195187799016056	-1.365690823921652	-0.25224372680874824	-1.1553444833196078	-3.3138015186567706	0.12417362599016452	-0.90332436333517	-1.4641587697255958
76	1.5964596231208161	1.6554983812496507	0.7391383033210805	0.9365233159262164	1.445498701260745	1.0843800278942226	0.4379181254774624	0.550967632333153	0.8067890385285442	0.9772189234856707	0.7208009940068736	0.688526271035381	0.3842494180037862	0.668874500493261	0.16231760341671028	-0.3216968766673467	-0.5353170023754137	-0.24755586621248304	0.005132648149585083	-0.1646916117086367	-1.8225600673436686	-1.805963034838575	-0.908218143077453	0.9328550672820659	-0.6966748220020514	-2.222091192357288	-3.110914699329533	-1.137521860111737	-0.17938943161972468	-1.2822148767523427	-3.315614453527682	0.17149606303785453	-1.0512744161766587	-1.473218675708581
80	0.786745605866594	0.9259513593183865	0.11553957284128241	0.2517015331589178	1.2690072027591996	0.7964998463548149	0.29514041468491103	0.2636220150490638	0.3432469061291582	0.8704249240833637	0.5325435386563724	0.7025206071282835	0.42101654304065783	0.2321617895463704	-0.271101623089109	-0.4553297746606445	-0.40287262099593646	0.07174354028469673	-0.7693241219170488	-0.4605689633185289	-1.8863592100201156	-1.670875068260694	-0.5334971533657261	0.6926335078871938	-0.8568800070109329	-2.215153450141528	-2.7062091759067366	-0.6260177477289969	0.036685619410637374	-1.0982670756268005	-2.7651798655314095	0.4206032742371511	-0.9689187979077191	-1.160307523658945
84	-0.5031885492018305	-0.28027844358252607	-0.9720855926766402	-0.5476849065304366	0.7593892793556145	0.13173466887592855	-0.1721434588854479	-0.24777311024097967	-0.35238969237049445	0.41364812746516033	-0.05053208383080613	0.4574557829274479	0.3743703951920432	-0.4123809923250795	-0.7924675921459402	-0.9310088730194542	-0.3906358768614107	0.23227304161556278	-1.4406027757512554	-0.7892112712007925	-2.091421122039005	-1.4930108747934372	-0.02704803079988293	0.538597701620213	-0.9773228739858966	-2.091516966307562	-2.010001892737123	0.21294043904424811	0.4959245013590713	-0.5185034261963979	-1.604807372809823	0.9675039624582578	-0.5449424968312447	-0.42820447575223114
88	-2.2355852070632096	-1.9120861243609841	-2.53120040254488	-1.4977549276684226	-0.2694606476179408	-0.9967741345034983	-1.0800698968321067	-1.0412882540162025	-1.2735893694193836	-0.5816549644089953	-1.140169379216686	-0.2086572045780191	0.10032174710932562	-1.2325676648491863	-1.4796942435099196	-1.8559216214052519	-0.7203164082460731	0.14624558352263398	-1.7515011981611976	-1.175652500999048	-2.5522777969771386	-1.441477295097192	0.5124877082283402	0.5518019185439679	-1.0560773584405336	-1.926935787104254	-1.2347242801010045	1.2939935889952483	1.1972013681702893	0.39027106663398403	-0.0237057096657672	1.806744213311029	0.21951764766583348	0.6657785160421543
92	-4.24414776684193	-3.792920818289396	-4.423499096192578	-2.6389312677514014	-1.8630466414144236	-2.576515906504566	-2.4419748721457633	-2.125002617239254	-2.38321875924174	-2.1414115374859115	-2.7374374797371943	-1.3837233746878919	-0.5086133467230769	-2.16588949610331	-2.4367041526308726	-3.244265548144466	-1.5821541507829717	-0.22711755277989293	-1.6311820704284752	-1.6981861548464032	-3.3491914187749394	-1.7428177551136632	0.9218047834011213	0.7181789260851795	-1.1535441846333572	-1.8615138483732494	-0.7073237878107367	2.3960127770011863	2.013645882290911	1.4123535120591502	1.5695471723983583	2.814392082738093	1.1924061745102157	1.8995414924346485
96	-6.227055057062621	-5.629339203926933	-6.3497385818383245	-3.9294376274082254	-3.824188699603885	-4.424381244933027	-4.095582474858623	-3.407639494875541	-3.572692146817832	-4.049641122130375	-4.657072055502765	-2.97284602368325	-1.4505486451719452	-3.1088552396484537	-3.6733958628416556	-4.947093474295678	-2.9823779984516645	-0.8764185287282654	-1.235210296373276	-2.4137837825868123	-4.449662674159969	-2.5351700718768986	1.0345443461047625	0.936911580581303	-1.3553107942695144	-2.0299608656176393	-0.7189890724149212	3.230211726616228	2.7327301433232978	2.2599899711770086	2.6896853379052423	3.785197248438901	2.152706617642331	2.9582021161732253
100	-7.80508611615831	-7.073461037896843	-7.9123248854188075	-5.193340765238905	-5.730298027829751	-6.188744052520676	-5.707103238001838	-4.686852920143152	-4.651785361943115	-5.887382492460007	-6.529328806604629	-4.667603004115094	-2.582025521435114	-3.9227826496265656	-5.02308939619243	-6.646535379795039	-4.667872893945955	-1.7379522279729323	-0.8647852518182445	-3.2829508698546563	-5.672826752645262	-3.7472200299068548	0.758953807821985	1.0771561833842629	-1.7132875876085687	-2.4832801756150857	-1.3731249536178485	3.5556225686901524	3.1452062050565543	2.6900424889358345	2.970793954978104	4.507575500551839	2.874860756291479	3.558436384753605
104	-8.637532212384222	-7.8267984192651125	-8.746574379772492	-6.151860221589628	-7.082499486207763	-7.450135212208283	-6.874223214913542	-5.69687269679842	-5.394385324210076	-7.186006051040429	-7.905128935882533	-6.035326465627744	-3.6511211303081725	-4.464874733142558	-6.165343269040938	-7.9410013952035845	-6.191977485282287	-2.6974229744518685	-0.805632410399598	-4.146948803922051	-6.73040197580522	-5.083755480328814	0.1331605609869678	1.0507053110297802	-2.200356716322685	-3.146265975637985	-2.517333501182186	3.285591594030118	3.1392774502650043	2.605185502150566	2.321783775189695	4.84362553327273	3.2170469679672147	3.564925661623207
108	-8.553829171518892	-7.752572993732299	-8.66861913399763	-6.533793432905613	-7.518052082153997	-7.887259940261144	-7.2928848082473925	-6.206666453903648	-5.625889287096044	-7.621358375380723	-8.430566766434591	-6.700024111044271	-4.394453991285442	-4.632868755087799	-6.75572345935335	-8.497251489166619	-7.104478341285328	-3.6134643463456295	-1.1721085280389405	-4.779845702501142	-7.336706619812778	-6.142253860224722	-0.6840175372973748	0.860883591385743	-2.7073266437841643	-3.839788188776536	-3.8043777846606166	2.5241157944847643	2.7512793471491466	2.0884392208777105	0.9618954634222775	4.776453959803406	3.169483892068013	3.0396606845405603
112	-7.638347129610291	-6.944127542129628	-7.767480830608723	-6.211511596255917	-6.9802789511875245	-7.430982570960253	-6.906577092853096	-6.12357805613369	-5.306435571624511	-7.156879406979445	-8.009717921061586	-6.524973852849755	-4.656366336510406	-4.401032436703403	-6.596796019111292	-8.1998548300664	-7.16982601262913	-4.352289188840627	-1.83903193009505	-4.9917931430671	-7.337496262144769	-6.605576975357433	-1.4838292561261277	0.6004943832495224	-3.085756055670519	-4.359844196756123	-4.8540782805913105	1.5137400588917969	2.1474459117077367	1.3559489215948686	-0.6807124001482793	4.405357349717385	2.843014948342707	2.2025530282678236
116	-6.215975268882587	-5.705226406951889	-6.385301097007327	-5.2838902340044305	-5.750516400123676	-6.3177656967872124	-5.95090101646956	-5.543401704143904	-4.561110961842456	-6.06005905528698	-6.865884763549096	-5.694094166684585	-4.465844143082737	-3.833846559381747	-5.75316475369365	-7.217193108456806	-6.492851240931345	-4.824923026300906	-2.499845498449239	-4.727602946743149	-6.788485986736453	-6.404674513859048	-2.1001167244340433	0.4021829356529817	-3.216752044185611	-4.572319019217723	-5.429397569299901	0.5255467282377888	1.5474560221703195	0.6550492031725147	-2.1537935679417104	3.897717704468901	2.408813232062252	1.327852245793003
120	-4.737732398469284	-4.444930542213909	-4.985844122696378	-4.05442809034949	-4.323501099161113	-5.003860460999279	-4.85838936532774	-4.716515529168603	-3.634859075905871	-4.785229194003663	-5.460279927772956	-4.63807104847066	-4.0295982259102265	-3.0719561499283823	-4.541352737405036	-5.942002758282797	-5.4768361907011265	-5.015665518495109	-2.826649181858758	-4.105129231578904	-5.938347801474398	-5.758214459186271	-2.4775383409890797	0.36887770798056907	-3.0710127276132595	-4.474288929133194	-5.533714757299466	-0.25268196995835285	1.1291857929330764	0.15890473087245524	-3.158153287543397	3.422146550121507	2.02105092492053	0.629749296505739
124	-3.6133053211537702	-3.527266731893458	-3.9699330229663845	-2.910218231482972	-3.188742629583476	-3.973726977806049	-4.063973893395458	-3.943121900139789	-2.791591637239018	-3.7789897823290852	-4.298561085338583	-3.834985008094083	-3.637389412279487	-2.289813274324368	-3.3919112596705	-4.826137530539784	-4.6288623692946915	-4.981659876643709	-2.643668644906189	-3.367553940853823	-5.1182508339404515	-5.062913881870691	-2.677139752304593	0.5219585882360143	-2.7260634830312918	-4.1878557099467	-5.378876672515833	-0.7729778270279107	0.962963697863245	-0.08988391585306295	-3.633327236539011	3.092114917577682	1.7616503194200583	0.1936237062095648
128	-3.0604042929629194	-3.1355566899289395	-3.5202011973196217	-2.158892387661503	-2.6242654257321547	-3.531481495524174	-3.8059983157386785	-3.444363823777572	-2.204492086566761	-3.2997748768464814	-3.7150144483231267	-3.586039534097976	-3.5181190878735844	-1.6392575461008356	-2.6536889009233704	-4.185846795004262	-4.313238609868176	-4.827042567463768	-2.021889681479692	-2.7716283728240882	-4.590118873451347	-4.691572654323131	-2.8203618455251447	0.7949942926362344	-2.3303790033631846	-3.8896157643343274	-5.246649728879948	-1.1074881525688514	1.0041747067847708	-0.16401284891680945	-3.7215099240757703	2.9427173063368324	1.6298692185259671	-0.02042366000323811
132	-3.0402889174949066	-3.214624635209659	-3.5492935091053015	-1.9048454713412402	-2.6051664286642864	-3.6793200876802143	-4.026175965634444	-3.275317899063991	-1.895345683080923	-3.3365349685352874	-3.7406225110026132	-3.8821709058020986	-3.726825704701998	-1.2052069871991493	-2.442720407040732	-4.073298444000578	-4.582388389462076	-4.657269466085763	-1.2429612843602986	-2.4699172911273397	-4.430463779707709	-4.807003485940875	-3.0091466827712874	1.0728515359494524	-2.0332295843288692	-3.7151770497936636	-5.3253931864753286	-1.37661587844424	1.13943934152932	-0.18285033060638622	-3.646753540368638	2.9416947290536477	1.571677203978674	-0.11905403405172
136	-3.302585355049835	-3.5137526900269425	-3.7706468010116483	-2.0244371839909605	-2.8577001022668123	-4.138372410816262	-4.416423786457024	-3.3206646358574607	-1.7489563182542927	-3.648463478413637	-4.113967885121042	-4.426515091210598	-4.120540131655963	-0.9827478503210768	-2.6095127993503344	-4.273841847119743	-5.168382631604408	-4.532587039947919	-0.6531618221004671	-2.4461729464759845	-4.50612925345466	-5.288280473708922	-3.2671615994935195	1.2514774767750154	-1.9150761317539478	-3.689058294519031	-5.6105699397531295	-1.670739527298817	1.2551249233981918	-0.23280961752763732	-3.582453241840185	3.018580905922517	1.5254338941207566	-0.20187543281608106
140	-3.5121993929880175	-3.7080156709512706	-3.8488523862939346	-2.245184654289339	-3.0174236221424797	-4.495840061280931	-4.582776534907873	-3.367082587324129	-1.5872153003673615	-3.8931262394841557	-4.421959865849785	-4.7938389657104405	-4.432642925515196	-0.8854351617392531	-2.8333666253079848	-4.4244489558093205	-5.630635724156814	-4.442447651137414	-0.4803494500907163	-2.5336511071132777	-4.550008762316043	-5.801554665223088	-3.532511463783292	1.286915537446041	-1.9523578832925108	-3.7143962289490773	-5.916802391372545	-2.0082180449327884	1.2903888192976234	-0.3194164923709648	-3.575038424048847	3.096377841761255	1.457762952938765	-0.3128436497895982
144	-3.397386542325744	-3.5402004629399046	-3.554091921416185	-2.2847819270622907	-2.8079523969328184	-4.404317844715127	-4.240685452244959	-3.212367288108424	-1.2658901182638955	-3.7831973934024465	-4.299396504037645	-4.639841067997441	-4.405308712327372	-0.7848797420712561	-2.793543808559773	-4.19339035882799	-5.577299103960666	-4.308519352525354	-0.7139496785258195	-2.5076768334972157	-4.2976856123183325	-5.973005279719416	-3.6988937761378757	1.2079051702520294	-2.0354497381318573	-3.627428045651195	-5.987885936877891	-2.3446068704537275	1.2488208977640836	-0.374703644760141	-3.5539114385522605	3.11182259727646	1.3715013230982662	-0.4377154696857377
148	-2.855437509956851	-2.923084013234546	-2.8498406338265725	-1.9804642150468057	-2.15394305639043	-3.7350172902220873	-3.3425588523396588	-2.7559802462614233	-0.7434971313778551	-3.1988549151719585	-3.589741697784918	-3.854555835528802	-3.9137492081057936	-0.566651700496527	-2.3245577753505384	-3.4323785218363967	-4.845927226229565	-4.012978066803019	-1.1169124813490734	-2.202836746376238	-3.6154994873317023	-5.569816575293034	-3.673549165987631	1.0867874594906226	-2.0300016351945627	-3.285965672779784	-5.63664768703226	-2.613164656717213	1.1701316803953108	-0.3090663246457842	-3.4041807565572473	3.0214295310984305	1.2876136270438878	-0.5361030684287269
152	-1.9773942182207553	-1.9636380622877738	-1.8834460926187182	-1.3475319113088076	-1.1881626814407904	-2.6174359255510335	-2.081120008936351	-2.029171938541384	-0.09180529392428843	-2.2159635964712696	-2.395657533319222	-2.5902748042512003	-3.0162570400378814	-0.1801221217137763	-1.4789057932708216	-2.2302060070951013	-3.5579094796951205	-3.4472157868135844	-1.359243270303287	-1.592001910958609	-2.556233638031604	-4.596304405051941	-3.4168429288427835	0.9927583311765401	-1.845243330111411	-2.6416308813157525	-4.835559355924931	-2.7624995638719168	1.091501590834006	-0.06914681178754876	-3.04639672463891	2.804643147063244	1.2219001023913783	-0.5763283357374462
156	-0.9925749872896739	-0.9058593488710671	-0.9004923678551069	-0.5492825494249625	-0.16740837650947865	-1.3602710927951989	-0.7814333419143996	-1.1623703212001237	0.5466650710609045	-1.0553319427548544	-1.0098588441147802	-1.165304777064297	-1.9120470237141103	0.33802297626029776	-0.47950953124098444	-0.8535197951702039	-2.0348534532670297	-2.5666165287066836	-1.1984846561690634	-0.7918665985141873	-1.3227163519842537	-3.267503491735088	-2.9493486806792206	0.9569666957535996	-1.4746911488493946	-1.7612749293682106	-3.7178263570379513	-2.77190779939809	1.0261675093491784	0.3318510345186783	-2.478070491256291	2.4700293478592346	1.173519489186501	-0.5508329258363008
160	-0.1693030442493316	-0.027804220025077927	-0.1358684893992441	0.1927433009049715	0.6505278928544926	-0.30297532601156535	0.25323542888601736	-0.3190363339475472	1.0248612139575792	0.015890540514999756	0.22821937443810658	0.09347047633175494	-0.8385425188827921	0.880262670678704	0.40141120451670076	0.38619729779012807	-0.6360852702293662	-1.4258872234583915	-0.6072255357670128	0.002711012952635636	-0.1646544035092296	-1.8884731483463826	-2.3299956262889574	0.9676472520239361	-0.9901211832797558	-0.790028272064666	-2.498942607292461	-2.641246312148633	0.9712771748815926	0.8263041952251838	-1.7611465409636886	2.0630783982641283	1.1316910953559505	-0.46699586392753145
164	0.28917446659511525	0.46691432477368455	0.27103876999135207	0.7015202027728992	1.111122843798078	0.32934677517708527	0.8650448896502306	0.3716924479160132	1.255733367610523	0.7897239307492112	1.0786243649906635	0.9869172548172335	0.03791945045553403	1.3208395209343047	0.9749649142445355	1.271688338883717	0.3959622671143813	-0.17820312037775524	0.2180337900378965	0.6215181335016183	0.7370212655532932	-0.7116888743551969	-1.6246130425443646	0.996837911473247	-0.4921304869147623	0.12250439791744411	-1.3706922496521277	-2.371248954508167	0.9385384297516951	1.3378965820866133	-0.9743559335904027	1.670547123505968	1.0962775917985104	-0.32339903630622235
168	0.3139201692761686	0.5185973035116821	0.3075682215077819	0.9148735976962697	1.2113357751780602	0.5051317202212471	1.082011339316829	0.8516566731885187	1.2474398581481245	1.1895188063152962	1.4856836758296978	1.4987567625352778	0.6754986626736497	1.5805190761716212	1.2154263227293782	1.7608638957388774	1.012375471420133	0.9618706678901136	0.9721747016203545	1.0052289937388963	1.34161865372486	0.15522499343305338	-0.8922394491556982	1.0386010382179334	-0.046566199393721246	0.8916134811778474	-0.42742064487309134	-1.95773696405133	0.9809323524504469	1.8297157241401776	-0.16969118969512897	1.4109239542624665	1.0946584912319195	-0.09519121026801186
172	-0.01881550433951648	0.21690896098685764	0.0651448739910464	0.8943050481151742	1.0820567580560332	0.37408935929263676	1.0721523734680023	1.1314200134321963	1.0974895926423132	1.285360809895645	1.5734741648048254	1.7605700448408765	1.137306210507484	1.6713108974221913	1.2548192707805552	1.9800953815058666	1.336352106535093	1.7872292950329678	1.410390135065206	1.2308993308461353	1.7466350749740205	0.7577015738430605	-0.18855062079508886	1.1307922573150069	0.3561283340999469	1.5279196462201936	0.3454730501989314	-1.4033468926284596	1.190992233130424	2.325346464008215	0.6408389194521361	1.4055893385685376	1.1808360785234973	0.25873836809636697
176	-0.5301713930095905	-0.25088879402713493	-0.31523066679521405	0.7793175558441494	0.9192600823081503	0.17988410546662792	1.045988437872744	1.2625539270949506	0.9531114673392609	1.252660271342952	1.5656194647361557	1.959424848377818	1.5168225726932183	1.6936068492091612	1.3074407544504942	2.1425645297315357	1.5712591370012747	2.1729481165383695	1.4750393591832933	1.467077966800745	2.119789356601782	1.2299799888074407	0.4267975677205049	1.3437677587914556	0.7943034748050318	2.1155176109308043	1.0271306011970278	-0.7371730785831528	1.6649608570024326	2.890448324535205	1.4648491107196413	1.7370328859342377	1.4144995176842252	0.770259080372635
180	-1.0184879277264167	-0.6876639706415925	-0.7029426080122279	0.7102226597020689	0.8955700970926932	0.14288040959524004	1.156847235619891	1.3004234996388044	0.9520512795253177	1.2874244419018483	1.6716775851959238	2.2382109108682258	1.8578957272352286	1.7814239218557915	1.5611600836438988	2.434606069140076	1.8891248655307111	2.124909395575061	1.3140584197246188	1.8803886127680391	2.602021449195298	1.7019456582014745	0.8932521320678752	1.7400689081128518	1.3624201978617945	2.7509162356540915	1.6939225154070947	-0.02476359525031172	2.4480240283194554	3.584492912779249	2.294494623113208	2.4100146232793116	1.827761287842927	1.4319478237238517
184	-1.3459494079940164	-0.9733809208136286	-1.0249609921326812	0.7587813715850852	1.0879636975476503	0.3647695472567645	1.4412237369389576	1.27460217154085	1.163784024161337	1.5128235778760444	1.9924644181491373	2.6340770654931496	2.116430992505036	2.0194990583930763	2.089206690281901	2.9252941534572376	2.352275127194011	1.7787679388913058	1.1838239401492545	2.5431430275605043	3.23161934990369	2.229115480517044	1.169366356758327	2.3312535227091216	2.1041181034370022	3.479149332799244	2.371358388635698	0.6459739191912162	3.495001068827948	4.413838375391774	3.0874299925101645	3.338064185297784	2.4009740292011847	2.184159273355157
188	-1.4983748159725214	-1.1170232267787865	-1.2900485959861046	0.8950731135658107	1.448430653729844	0.7921794632938234	1.8150010063123383	1.174700495615099	1.5527186354535416	1.922848935040903	2.4824941095617725	3.0724635046634297	2.1806535665768987	2.3855044781538157	2.819287769829004	3.537924757608126	2.894422762238794	1.3419339622949258	1.3012397256422978	3.3900265608074607	3.9245135685064727	2.7744324137258225	1.257259961768656	3.059940330409159	2.969789497506885	4.2610182654565625	3.026221506107694	1.1972597807220215	4.673411834361658	5.314472185068576	3.778169384000468	4.3664803394700815	3.062559358493977	2.9288582727872283
192	-1.5916056592811425	-1.2495939700048686	-1.5829125602811789	1.0013661359300454	1.8297438575324405	1.2489342657981601	2.1171488708448987	0.9551603173935973	1.9806499431194569	2.3863427578758207	2.979092113602783	3.407913676240816	1.9382322977721442	2.7486634185058487	3.5650422483080937	4.089817990467659	3.3579089556791994	1.0048077081106874	1.7273249582548904	4.243051518217989	4.514884460494323	3.2386710561999728	1.2123776643661037	3.820802440533455	3.8254468344426273	4.986735808179966	3.5919451622874115	1.5931929309675037	5.81209610425287	6.174958690311827	4.3113255391942955	5.327062593361983	3.7145934011134965	3.5636527448325976
196	-1.8196741296602201	-1.561888333191926	-2.030448431610671	0.9279043651041661	2.054703707275751	1.5168656072466375	2.175756210555938	0.5552484379101137	2.25356363681213	2.7102720669029483	3.2793576634580885	3.4878728301679667	1.346793409761905	2.9353601858414913	4.104810704358029	4.377154339229509	3.5645973592406133	0.8636434652458099	2.349228614597943	4.892569052741445	4.832471358496204	3.5141062647788575	1.125644204158754	4.511620033317507	4.511434543663434	5.526848302238676	4.004846085927554	1.8514969302161668	6.772165758200997	6.886675340431419	4.6726775051398795	6.102640136569854	4.272823799789549	4.0193004506676715
200	-2.3656339585659225	-2.2150371018752204	-2.749562971802528	0.5644840583854532	1.9977518269645234	1.4273862802707078	1.8699870062345472	-0.07213630509045253	2.199362272431763	2.7336006095534002	3.227694503264429	3.21227740430433	0.47082990289070603	2.828812115202907	4.27263783329832	4.26322268363337	3.3895049009577036	0.888276395939233	2.9587707444829467	5.192307935956845	4.776981818536204	3.5315380007272785	1.081045982492484	5.083173738997274	4.919214236237405	5.791647896449272	4.228505600743727	2.027883524543172	7.503298263679284	7.392491798810117	4.896143424070311	6.669343454688626	4.699183452185995	4.2829475294698005
204	-3.312747946958381	-3.261731616368191	-3.794427385286935	-0.10534566614256657	1.6406179625097543	0.9251102185734399	1.1687258452471878	-0.9329062676717987	1.7437803701243553	2.407450669886127	2.7756829191700527	2.569226020048362	-0.5354907499144953	2.440161937274852	4.023631562564695	3.7308833504894827	2.8107778955066176	0.9524996256621863	3.3711364184143577	5.121003138010652	4.354802120658014	3.281779519378488	1.1121656866604352	5.557318673408084	5.043750750205207	5.768217549065801	4.257258881310781	2.182361358854691	8.05488584392118	7.707635860056691	5.04153822579673	7.097975236138173	5.011458384258905	4.397404659612953
208	-4.601123798197732	-4.617311466003542	-5.125599371366967	-0.993521091813805	1.0682727071493672	0.07686370591784576	0.13615635003046006	-1.9762873599700708	0.9471310353208212	1.8127750112541767	1.98834835980992	1.6375507074973568	-1.4910360537077247	1.9065301370169185	3.444293013459758	2.8772346900775996	1.920559282222282	0.911755201898784	3.514049282738596	4.780112731309061	3.663575878430414	2.811184160764381	1.186867830140959	6.002199157819537	4.981432902156977	5.517280564683487	4.107053746344553	2.350480788972223	8.536457040215096	7.901496390420513	5.1580276359030135	7.510973434558344	5.265424715099635	4.438961494682592
212	-6.054420932742621	-6.09647844682711	-6.618164045790742	-1.9481428812432162	0.40441989796575434	-0.975554046552008	-1.0962464781740162	-3.1012117784403346	-0.018128456502086377	1.1008746596198506	0.9968120430574797	0.5564567432659497	-2.2606158199455697	1.413326975115164	2.703270666926729	1.8564673615314373	0.8920529462226668	0.6813382489168407	3.4403660210532907	4.330164421593021	2.8362510132706733	2.199056381395548	1.2289242713418445	6.478896601531763	4.872733580684591	5.134220110328356	3.804953565527693	2.5335574086119275	9.049806572000067	8.051574686702978	5.256542669376211	8.01476571920558	5.5187935689826455	4.4843978768615775
216	-7.461619358297453	-7.495602588802473	-8.108350733312562	-2.823822729610645	-0.2731167667169101	-2.0899708218259923	-2.3788583218595605	-4.184875000878298	-0.9421200728472056	0.3960387100711128	-0.0730390844885219	-0.5259678350520638	-2.80466126687521	1.0866028043015745	1.9692327926508457	0.8045597652149282	-0.08527360835003533	0.27365299990227804	3.2708628095061476	3.90364502874898	1.9783911655067514	1.5306708774067899	1.1655430764335073	6.9936351599550735	4.823025691253206	4.699506270941284	3.386266699824522	2.710879795859544	9.630954718115817	8.198289850517128	5.30977104753772	8.643411614530022	5.798164353036824	4.582326400631666
220	-8.675374009163681	-8.682535149587496	-9.458706831892986	-3.547353020294893	-0.987265167127909	-3.186394683422412	-3.593622913824313	-5.124553667481668	-1.6716453986878264	-0.28384384441237626	-1.1569825381631895	-1.504697199837174	-3.184703342026536	0.9204864478713076	1.3342102732351415	-0.21487681513417733	-0.8768122770106576	-0.21918103043531434	3.113162271269049	3.5423672109813094	1.1320557565717657	0.8769311286720396	0.9753292774371275	7.487695198227955	4.847877967038849	4.246834267384464	2.8984434531466112	2.861824505256277	10.233730290324424	8.32603452487722	5.278300748850086	9.340757346411971	6.085718139542266	4.737279880007291
224	-9.67296407164745	-9.645432447876628	-10.608368846812635	-4.144793976809571	-1.8477283669551126	-4.2648200881093175	-4.683581817246138	-5.872362122014531	-2.1734535639247885	-1.0363059017720069	-2.262561315546127	-2.3469707906595514	-3.5201246649559232	0.7888630012622492	0.7795620540964008	-1.215494987279986	-1.4486259185456352	-0.692042825858961	3.0158426685484487	3.1920711913579094	0.2839492850287177	0.28452145981479443	0.7054260355305244	7.873631457476948	4.874584185690905	3.765611639052315	2.402439588203222	2.9812121316028017	10.762393924243582	8.381026246845314	5.145493494394132	9.990097974350181	6.331441863287107	4.912159907336758
228	-10.544352504811174	-10.473903629561795	-11.58058545049816	-4.713492381593228	-2.966760151048469	-5.369028554712329	-5.649949536363911	-6.445656283317347	-2.53323602036811	-1.9988324591715727	-3.4279830369231776	-3.086269370870028	-3.923043479551444	0.5396295176233147	0.2032780046099108	-2.2441692295635094	-1.866617913301769	-1.0915638180829945	2.97857140742734	2.7545094420506593	-0.5909490570407119	-0.22445118370608136	0.44795215016755247	8.094747522897688	4.797435271548529	3.232998124543153	1.9643189857479688	3.0794739645456324	11.130726786167635	8.31340501593694	4.9381461018817445	10.475519153849708	6.4828781917927065	5.047433363568712
232	-11.416818589949719	-11.287371606939137	-12.443461386735136	-5.353493200137294	-4.351744640807334	-6.519922716845662	-6.521246893630649	-6.906383496967354	-2.890490763042178	-3.231453887410211	-4.656019199060111	-3.7849702739521693	-4.442192066421262	0.10960917892200533	-0.5031870590857149	-3.3155579483245776	-2.2501847687176335	-1.4329447710098477	2.9919755383291666	2.1660535280853175	-1.4789569340559097	-0.6467170699003995	0.29352319166462587	8.168216684699502	4.55321120066245	2.6539494924296707	1.6376618105549376	3.1715137878453588	11.311566324285279	8.117169359694106	4.719572532182125	10.739579173629798	6.514038546328292	5.08767937329376
236	-12.361206023478456	-12.152333228900828	-13.250023808404816	-6.099318488934197	-5.847551331061547	-7.664844016750424	-7.317049008015485	-7.321668129555336	-3.348360768447447	-4.6330137135835265	-5.868776306593897	-4.4873351937486925	-5.04198168435274	-0.4183313239979836	-1.3736921514160991	-4.368688095506988	-2.703316443293801	-1.768264766043373	3.067530862692851	1.4538100921165307	-2.304875844858238	-0.9910491083872763	0.28643760012787356	8.180236795753137	4.169604290925398	2.0815820641414833	1.4446480237726582	3.263975135191872	11.348123521763782	7.842764357792918	4.557889450009769	10.806133242980808	6.436875803908363	5.005089270352866
240	-13.335205044456844	-13.035196271410582	-13.995202982853986	-6.892879468681136	-7.174473744398402	-8.67676160529055	-8.026864985227277	-7.7288069529903005	-3.9123275181222006	-5.949563488244177	-6.916408044518949	-5.187426553980644	-5.6233816004873844	-0.8548359253281664	-2.328219169460557	-5.274926649127159	-3.256889811876021	-2.1236891692902997	3.2286477007412704	0.7355717998053048	-2.9537250921061595	-1.271824833519908	0.40938356415386007	8.232934930996064	3.7569262886561523	1.6039956767593213	1.367340442066291	3.3520851050621894	11.323168725989383	7.574856738993001	4.48991154490796	10.759032222286738	6.291684611647982	4.811743247281448
244	-14.197822534954724	-13.818891490379208	-14.615097008998864	-7.609973888257366	-8.049777964295405	-9.40782639989254	-8.616313912572071	-8.121527651309078	-4.4899687653667995	-6.880491239342296	-7.641131381770009	-5.831003651202203	-6.0739493216703675	-1.0233563158900896	-3.1970384040223703	-5.8960852474124	-3.8541090391126938	-2.4579350886276843	3.4675319107246936	0.16431686240671878	-3.3262634193363674	-1.5042567215133962	0.6004143342117911	8.374656656102118	3.4484703453736496	1.30412029890773	1.356569048317546	3.4273085507646024	11.307179422440885	7.388305168571664	4.503185737684504	10.688890430166467	6.12266586665235	4.555732715548662
248	-14.78860756001343	-14.373156511257655	-15.028918228352016	-8.12799642418093	-8.33841798584449	-9.772651647689708	-9.058229423541302	-8.46366689452485	-4.952309119118936	-7.235527497143426	-7.966480711850681	-6.35181616133137	-6.324666960960462	-0.8916192032237314	-3.804293146065249	-6.164229854279345	-4.38764666403212	-2.678051464948775	3.7015867139820284	-0.15494163295250657	-3.39926694965437	-1.7031627850447149	0.7868374566239611	8.55632589087294	3.3217072403012398	1.2133672206761663	1.3532019819426853	3.4859173209871126	11.314887971920935	7.306033592851646	4.543892372103214	10.638025256955045	5.952419742814603	4.299306381814972
252	-15.023046455600728	-14.634260140664349	-15.196355781335038	-8.395093896651105	-8.145775774416803	-9.811962102912723	-9.365860915379352	-8.720833756363358	-5.2196111547294635	-7.055249196359571	-7.959697703292367	-6.71978710385326	-6.3840813475597225	-0.621190844397983	-4.066292752489946	-6.137375339271463	-4.7677302240161055	-2.7031755379139075	3.7759656810793962	-0.2290732854781641	-3.255999556903903	-1.8863060426771103	0.915212986542764	8.643906571498988	3.3464927588849025	1.2841803995134935	1.3082123961798082	3.5293090254368855	11.294380159472713	7.281509381030019	4.5432162170145896	10.57518861008	5.769736275410843	4.088663090873407
256	-14.945494614060687	-14.644260369520937	-15.151572189223986	-8.458283403022328	-7.785987834346177	-9.692118620244107	-9.601351713734992	-8.887571312399906	-5.314814077310144	-6.615020735251803	-7.822617034235386	-6.968463880111398	-6.334249480467518	-0.4940184640332561	-4.045496930398895	-5.9920215455405454	-4.980197417083192	-2.537304156573049	3.5305535704166533	-0.18136069132792065	-3.0634088438891713	-2.0764546341922703	0.9610132550771843	8.48771569970095	3.394115439428729	1.4004894459651416	1.1940495937718136	3.5544114023113744	11.154772730320794	7.217215996640342	4.447676647401067	10.413836452894602	5.538310036981467	3.930932511895418
260	-14.706573449197597	-14.525535546822642	-14.98916908294456	-8.435543039005035	-7.635024051463163	-9.63544175576318	-9.851003621979192	-8.989700294686001	-5.350572572550673	-6.303344233810927	-7.808454970672509	-7.183432084066947	-6.2906527360402364	-0.7539067249337267	-3.929685821148443	-5.951359733814593	-5.099740492342899	-2.2965207041932976	2.8947758601535516	-0.19497616539842616	-3.0050494594997716	-2.299053424752699	0.921324608384023	8.007451990891525	3.2995490944526424	1.4208612406143304	1.0032385562362922	3.543130150432508	10.812819453596251	7.007649880836437	4.235529888903483	10.06173226677186	5.218934045966525	3.789546480147891
264	-14.477982484503737	-14.405771219122087	-14.81050296858852	-8.44765088809556	-7.94536874672454	-9.815906499875421	-10.178456280759388	-9.061853385934496	-5.460636125129235	-6.43545721336629	-8.104145983262143	-7.455814819585301	-6.34392498322019	-1.4547690116392562	-3.9430172343838277	-6.183612331037049	-5.249564157583527	-2.1604115908437027	1.9490903566741737	-0.42528164279375974	-3.2030360617831066	-2.575624459439556	0.8028305152650705	7.241777878597372	2.9424142763235595	1.233227845893052	0.7382116895157418	3.4625370415051266	10.23249146739054	6.584344847267729	3.913302650108264	9.474483466069463	4.792585837661846	3.603358736477345
268	-14.355368577952955	-14.33868309215524	-14.664101563623674	-8.550364472736135	-8.719470955768655	-10.273747418214112	-10.58179757307601	-9.114500022764467	-5.716405377260579	-7.097896558007268	-8.736923195714827	-7.8251318734014	-6.514569266084032	-2.4135410724738993	-4.233768452445528	-6.72010658474845	-5.52766607796293	-2.2668278160083775	0.9080077982865717	-0.924775717307805	-3.6653351691211626	-2.9116308615605817	0.6194051488496655	6.333956702453121	2.3047699870093843	0.7986402491432951	0.4049420942573131	3.2817690289610337	9.440369582183424	5.943743690743001	3.5021788985522573	8.684354760178604	4.274230946239854	3.322097769932822
272	-14.306829416393377	-14.270140611859542	-14.51709648281807	-8.707255341480648	-9.711620306291062	-10.895278903156127	-10.982729884075471	-9.114110923644356	-6.080445274260168	-8.108234385046254	-9.55643269987135	-8.247467020192772	-6.740801794199373	-3.3041741764569563	-4.800019728939465	-7.437940101918028	-5.943896278633241	-2.6115989619122058	0.019799049893697736	-1.6213178593709214	-4.286239613201722	-3.2872869885418288	0.40037986535075604	5.45978354029252	1.4741147719358718	0.1627751435700122	0.014098412321675649	2.9979724808341675	8.51166723009702	5.14582584989256	3.024815074913125	7.789735297563033	3.709276428394377	2.938504450054744
276	-14.197742426312349	-14.071227038143	-14.278456651877608	-8.818362213758725	-10.554982158715001	-11.467749566688806	-11.256190271568645	-8.994142509640605	-6.424756033888913	-9.106625533953782	-10.302108738638113	-8.607838608943567	-6.905245286673598	-3.8387577436802607	-5.489799485651307	-8.115882853044521	-6.403635962531104	-3.0221042556755844	-0.5594782219112753	-2.35640835167088	-4.897667872461238	-3.6571276095563134	0.19896110842062986	4.741657245108544	0.5970200285143368	-0.5661714658747842	-0.41167002812399367	2.6534073285821624	7.541665535005755	4.289571751254833	2.502349370360642	6.915029985135222	3.1569352070258425	2.4992139276347936
280	-13.87512584997844	-13.617762531231248	-13.855058635063285	-8.783798195596479	-10.94397637465183	-11.778599709336602	-11.283306093338563	-8.688170411108912	-6.601200087093337	-9.73478124068083	-10.721810313811378	-8.770153977186103	-6.8867239778214335	-3.927640905000652	-6.081105693722612	-8.535398461726558	-6.746970636499472	-3.2325560964986146	-0.8387988784593238	-2.962854854732645	-5.344325528956826	-3.959858645931883	0.08542017617116798	4.198634137043511	-0.18876776051545738	-1.2606499163270526	-0.8316709378225655	2.32791995414454	6.617532713394875	3.4788257987882205	1.9607428262797637	6.162329658208703	2.6688725880951183	2.0854599423207794
284	-13.262888874900655	-12.872226682588643	-13.210129704501632	-8.5619573376971	-10.77468583247671	-11.708953827859608	-11.003771754139533	-8.171242693297819	-6.5229601695357475	-9.806126569785368	-10.683428737370196	-8.642406441803068	-6.616675360186591	-3.718045225293014	-6.395559294765851	-8.578101136484467	-6.826425058295939	-3.031653635000229	-0.9637985205158615	-3.3398048793394097	-5.547286973299134	-4.138535012286799	0.11552964866795236	3.7617595100794965	-0.80575126206098	-1.8190354062884195	-1.192833301393598	2.1032907909696084	5.80326746429103	2.7935202051205015	1.437076922603114	5.579849229076298	2.2740032615469015	1.7732893183759633
288	-12.412567107333155	-11.918951958127755	-12.390037505339256	-8.190863588634022	-10.173886273446707	-11.27728554739429	-10.442878696778797	-7.485508899863114	-6.210086329993647	-9.380415892759597	-10.226725552488105	-8.224257448412992	-6.114486202061186	-3.488436928524697	-6.385945304006433	-8.273839929672086	-6.58318947083632	-2.398562902116818	-1.106793639249682	-3.4890427501326644	-5.529441342698438	-4.16508149049126	0.291560619333384	3.3393132602305435	-1.2496017186086699	-2.197016710456484	-1.4498496018997844	2.016758436833223	5.136272894289237	2.2733590545477957	0.9740017627920416	5.157949911446423	1.972829575326091	1.5922851522298664
292	-11.479859323127958	-10.929055186335011	-11.501675576734986	-7.763153533408954	-9.412381148416198	-10.616860362904477	-9.698942159960767	-6.730542642766535	-5.772675976483744	-8.71374318783878	-9.53458974338353	-7.61017654404909	-5.48192690418925	-3.4640362175267323	-6.15439127321898	-7.779598693279544	-6.078887447268252	-1.5416399201571107	-1.3424447740993612	-3.4999856860486394	-5.3950080735371175	-4.055849065077348	0.542844115317225	2.887883655886285	-1.566334005215919	-2.4156017242478716	-1.588945384782244	2.0327243753610285	4.6277599217877095	1.9146380376159549	0.6021790489252007	4.848452555813033	1.7414139465234575	1.5070509872534117
296	-10.647737476168805	-10.082144711788684	-10.662575694820307	-7.374092560270145	-8.759042717753706	-9.908406232613073	-8.904696442056377	-6.027789100687057	-5.348274217453937	-8.118106821544766	-8.845097519477358	-6.951660138698745	-4.863197314381764	-3.671942463187122	-5.890787109760981	-7.304784756337464	-5.470204339521581	-0.8083038309670415	-1.5936312635240752	-3.4950351626846734	-5.277049051312963	-3.8699688813730666	0.7448057513505948	2.4426951346714105	-1.8138120128613608	-2.544896596205369	-1.6396381813614103	2.05421280342262	4.262169827190716	1.6774964290227854	0.3226361266573459	4.591378200382982	1.5420345029045277	1.4346710407274743
300	-10.041073773782026	-9.487602209932826	-9.954038594863585	-7.076650601640011	-8.360986688485264	-9.30748460327088	-8.184606531459877	-5.474022374637674	-5.034483896896083	-7.811142901726514	-8.351784685029493	-6.397784216940409	-4.387722004302926	-3.931571235267218	-5.771121487351927	-7.02126453534308	-4.93812464420968	-0.5063579665751152	-1.6895837741155586	-3.5675952344466673	-5.279137121223462	-3.6865143682864403	0.7775292376914684	2.087025398707208	-2.033324474923112	-2.6713755063322076	-1.6624864297854745	1.973878021025043	3.9972088236024756	1.5007777176159298	0.10339146081331392	4.336549747962398	1.3369141783339058	1.2904643979870078
304	-9.679014181495456	-9.145937896525426	-9.403233504396324	-6.869141561331401	-8.209484079614842	-8.901048637805333	-7.626793842133357	-5.107456194380303	-4.853881346845469	-7.832312087311495	-8.138380030111746	-6.042366966250838	-4.119854439824198	-3.9875180620607806	-5.869907364330299	-6.999451142758993	-4.609086501882462	-0.7343830447729057	-1.5035154781528408	-3.7439565564043518	-5.4365606170723435	-3.570589056536887	0.5939319714809652	1.8834389400613631	-2.243676418361751	-2.8614885734791713	-1.716783757643687	1.7378592447273173	3.771069040314171	1.321916219234809	-0.10330811861896715	4.053060998220374	1.1012743683667052	1.0384365293987687
308	-9.488471960907193	-8.970771766901759	-8.999775863813396	-6.716192228526643	-8.189114549942149	-8.701930977785596	-7.273679238074934	-4.903125750560251	-4.7676482080251015	-8.054484347034988	-8.167595842721088	-5.898376926788938	-4.038609971340355	-3.7027065660452414	-6.127647384431521	-7.19210765930139	-4.505995262213544	-1.3143621649936272	-1.081843850265433	-3.98120807596221	-5.7078757141961765	-3.5429260641293125	0.2605212920287094	1.814170594403424	-2.4505741534350873	-3.1328227440892844	-1.8239142848695464	1.3860725129418485	3.5212809950616464	1.0990844937231863	-0.33033686792894956	3.729879369855421	0.8326271155316382	0.7166563254382363
312	-9.363164878093679	-8.852581001819303	-8.725461937809193	-6.583477480479147	-8.16886041486145	-8.670451142354821	-7.1258525668478185	-4.795108306222373	-4.721199500561807	-8.272983530138115	-8.318940141655387	-5.90704964100044	-4.0548586743022605	-3.1805992046162435	-6.391125186042915	-7.466810207588546	-4.5515684966565875	-1.8776668262758875	-0.6657714230894439	-4.1980566872463845	-5.996776088832984	-3.5695474057674224	-0.06346558763454553	1.7746391251581388	-2.657904379809822	-3.444417229539156	-1.9496916483291498	1.03955661988056	3.2109482207291946	0.8290286639263436	-0.569857297889099	3.375927916586465	0.5540825710612506	0.42182466281248227
316	-9.2270755534861	-8.72096059504712	-8.571422555263535	-6.460918410201421	-8.07377336370992	-8.740343071804825	-7.147362691000054	-4.711192119147864	-4.685792434305986	-8.314670541751616	-8.447740533481076	-5.970093235201622	-4.055571545851975	-2.7268881728943217	-6.499122126383042	-7.66576002092902	-4.617118823792114	-2.058580631780733	-0.574419139365466	-4.318605888907359	-6.1916341625292475	-3.578403225447212	-0.2032631034487546	1.6297087628226368	-2.8680756019659586	-3.710778465438924	-2.0189311453390903	0.8388705828468076	2.849929087119196	0.5526372180337412	-0.76977443500719	3.021090976716961	0.30983173768973493	0.2608273916811806
320	-9.06361196136951	-8.568279244724597	-8.530368783394529	-6.3586664039288205	-7.895589808556763	-8.833181358923946	-7.267745953330393	-4.600830543346178	-4.668171394006237	-8.104611376327375	-8.434910752934854	-5.987853035114058	-3.955524911430496	-2.6682889394149516	-6.362785800128137	-7.663846473417982	-4.588819015361367	-1.6849566655533275	-1.0102153990989264	-4.303951729398459	-6.205911143846961	-3.4962930591048376	-0.06042966231347896	1.3008211818277418	-3.069883577225485	-3.835073222968128	-1.9572749088461976	0.8665592052515709	2.497618907344631	0.34264588269508295	-0.8589361288319135	2.715820305643213	0.15255469045269654	0.29442447349599904
324	-8.900574661671275	-8.42911145943143	-8.572545983605425	-6.28513811431954	-7.656015853625741	-8.865852333572906	-7.389696102558631	-4.447889316773089	-4.684883582684745	-7.6715631291297	-8.21567533326132	-5.891126617816765	-3.7367079163622283	-3.135460607241804	-6.002903923137581	-7.407515983952849	-4.418959606457945	-0.8722555019290837	-1.9095768880315651	-4.16195105455556	-6.00879000100358	-3.291305772101018	0.32514741934700464	0.8263760784266014	-3.2292499460705604	-3.7525956535962854	-1.7415608123678132	1.094053623298266	2.2388091030816812	0.2717226736837782	-0.7922439555193075	2.5208697255384918	0.12280996857869425	0.5023262488080421
328	-8.765888191979588	-8.331883409444973	-8.62795064655148	-6.225904449002782	-7.360399227632598	-8.759570099649348	-7.407002430334761	-4.26439379569096	-4.723986613744467	-7.106646043001047	-7.785125235929165	-5.655923829103954	-3.4545752914947108	-3.948683251901871	-5.5286731580385124	-6.923991662663865	-4.137137879416792	0.038983784517568905	-2.9387669489096724	-3.9349613090349043	-5.635234818536071	-2.9959278031049545	0.7847713212226834	0.35383811503720186	-3.296114436410777	-3.4646327408101385	-1.42693781492455	1.3882786000487055	2.141833538369856	0.3740683784577288	-0.588135956232995	2.4844777521348895	0.22935853840617773	0.7910632471139328
332	-8.652900673954306	-8.263969400522202	-8.60021207545452	-6.144496902211246	-6.983957273016617	-8.461749055479398	-7.2377056892765985	-4.0775232212115915	-4.730697619892074	-6.511236651193764	-7.191037636721084	-5.304035173376176	-3.2109272398942865	-4.692430484368572	-5.077402102048956	-6.305347426707481	-3.8236861132404076	0.6636064631873783	-3.6493573096644325	-3.676841488138132	-5.174589144039911	-2.6976859501439536	1.100541708074976	0.06450424327061793	-3.229789964150862	-3.0461590213161456	-1.132529375077955	1.5766162832508719	2.2198326531631616	0.6194804295158267	-0.33454766785079815	2.6150102549333782	0.4391225565313978	1.0387433741092977
336	-8.51912782425543	-8.17359254680751	-8.409909227119071	-6.00604103479348	-6.5019841029993515	-7.975636462102223	-6.861114961467633	-3.9167203804310557	-4.630832660427412	-5.965611919600143	-6.5214853122091485	-4.8919110174647855	-3.1090831678094992	-4.941975581089606	-4.752317416590419	-5.6772675370883965	-3.562337627953594	0.7681238035835926	-3.7198488618393637	-3.4341609391292596	-4.741994368978543	-2.5006110605048013	1.1114312382293674	0.07054179889035	-3.0309879703290585	-2.6217980318632623	-0.9902577375205915	1.5342754086858363	2.4161446033511154	0.9152946449059001	-0.15648578067848162	2.8616771625747646	0.6824203712400059	1.1523872584811878
340	-8.315742471680549	-8.00327203637327	-8.042258242329527	-5.806710705401721	-5.936169132504069	-7.376299839469895	-6.336086734033437	-3.805622568058963	-4.379695881276315	-5.5244936803574145	-5.885588154238219	-4.490530002700588	-3.2064065852273553	-4.517419326820931	-4.586375701768903	-5.160573469484232	-3.3976354513216975	0.37830713295790647	-3.146985522907897	-3.236486188346602	-4.4398646242579485	-2.473888629389408	0.792120573904934	0.3451325586665116	-2.758330815026851	-2.3174819887778266	-1.081022140634634	1.2472393481236064	2.62366079621708	1.140318271618959	-0.158877238230122	3.120295993556336	0.8755393602200481	1.1079754801433046
344	-8.024409273868732	-7.730740527661932	-7.564919452641137	-5.582956776828461	-5.379032598266172	-6.796054822929501	-5.785796150858578	-3.754159441052664	-4.004809846303622	-5.229012476116861	-5.3874997956630075	-4.163719643570871	-3.482586613445473	-3.603966227015362	-4.548472392996191	-4.837018000788192	-3.319596282207204	-0.2578316920446552	-2.261462444317822	-3.097137443352355	-4.3239717374350715	-2.6151299410597852	0.2619279616418571	0.7296002488789143	-2.513896697373114	-2.2100241128436875	-1.3926875556116096	0.8156098106772944	2.73036050107159	1.1964549988102962	-0.37567049170060157	3.268110982273105	0.9521037316125877	0.9526889896181595
348	-7.673251132665477	-7.38670251888699	-7.097728234490847	-5.391293035246936	-4.967452036713761	-6.375457747575392	-5.348807321395462	-3.7509622479149844	-3.607246151399781	-5.1101846565926525	-5.094860540878169	-3.948462714716759	-3.8398775957434736	-2.6594154767603526	-4.578209865455292	-4.72687338589294	-3.2786648190689687	-0.8217996338123014	-1.5510690173089028	-3.019752017980107	-4.38599728430606	-2.8482587265582278	-0.28117158937990794	1.0143575642724894	-2.40188693393826	-2.2986164034983094	-1.8242279245095627	0.3945506503157298	2.6660914353769205	1.0520774099490455	-0.753447590356181	3.213817826740016	0.8881562329756691	0.769761083566794
352	-7.315424900658746	-7.0321011365730435	-6.745388967649705	-5.265036569653838	-4.80865381934125	-6.195188029860363	-5.113578783476173	-3.7577085400122097	-3.3135414039876276	-5.168960081401535	-5.008265005818481	-3.841381540136649	-4.1330208674032605	-2.158168787275757	-4.617689121031885	-4.781461703626212	-3.2181796946336663	-1.0994263859647548	-1.3868228162083869	-2.9983637257214855	-4.556491840302605	-3.0566747111394497	-0.6600573046231883	1.049871918888635	-2.4768841204096765	-2.508709185942119	-2.2325329724212573	0.10956713529580304	2.4291677413644996	0.7568076829876207	-1.1769983738746783	2.9393043443856106	0.7105745655239343	0.6298798306774676
356	-6.980349523086761	-6.706387026067268	-6.527807219236644	-5.173862921049801	-4.900012480762203	-6.223399623417065	-5.069764124468143	-3.70812701242743	-3.1991786876015613	-5.346198068472362	-5.048149572978525	-3.7983732127611036	-4.219125260191238	-2.310198062786085	-4.6239056470476845	-4.895458209075703	-3.104899875431145	-1.0773478719213765	-1.8056670381733677	-3.011620513941799	-4.7287135004818	-3.1370265404653894	-0.7993836978757016	0.8257674554003366	-2.7106234958876567	-2.7271928718376444	-2.4991090234602535	-0.007737230489984948	2.0810711331277583	0.4183673252033371	-1.525038953745472	2.511256450034809	0.4839238810242271	0.5559573755532823
360	-6.634571058688771	-6.385207636924554	-6.355069144416419	-5.020171629628752	-5.0981325974494975	-6.312582953727787	-5.106324659806744	-3.5237324148857794	-3.2316152967878553	-5.510591969882259	-5.072618948527097	-3.7499139214253217	-4.00993489206705	-2.932502023922438	-4.560497272421398	-4.93820236866627	-2.941870443546002	-0.9112375355602167	-2.4856259760089436	-3.017515174876624	-4.794748294168838	-3.046556226667926	-0.7461204509970863	0.47177380204298597	-2.9988095684632796	-2.850974791004495	-2.581767552533177	-0.027996862236505615	1.7127335028321358	0.15179739854157598	-1.726699109486329	2.0529932923935945	0.2798423760024503	0.5183339105870847
364	-6.184541209818884	-5.98176191727055	-6.068587287839911	-4.680592525108909	-5.163872705773509	-6.254128440325566	-5.059844481091088	-3.1460876385412675	-3.2712697900196464	-5.483273969157773	-4.924206244434029	-3.6257700828563086	-3.507833710397111	-3.5449838548803427	-4.381426323319065	-4.793900000866537	-2.7578635146129917	-0.7957078198370392	-2.928462497946919	-2.9546832963731497	-4.678355205168269	-2.8179795670887766	-0.624202726695524	0.1830424363760123	-3.2056922831661705	-2.823591940426658	-2.523783915823493	-0.07447552662165975	1.4035593235819026	0.028895532639386146	-1.7880613758719315	1.6889046387947027	0.14543403648374362	0.4612337935246751
368	-5.524147019744276	-5.394137845725593	-5.526628003472143	-4.073269833771158	-4.864833342667428	-5.86747597166676	-4.789141642876841	-2.5704145366621827	-3.133369914726941	-5.099977480409928	-4.488626468769847	-3.3783094797670974	-2.8110289502697774	-3.6382412818604664	-4.0276636975642806	-4.3974771388608165	-2.581334584394622	-0.8267257788766158	-2.7505116393263775	-2.755821697906721	-4.353620995020126	-2.5357160504216627	-0.5566662535918062	0.11279619456661545	-3.2247533716800576	-2.644665472982896	-2.419293159098781	-0.247035741182325	1.1935476034547827	0.05303469286880108	-1.7767214730227545	1.4901311359930296	0.08619503655129172	0.34245484980906016
372	-4.605929363065971	-4.576621520885327	-4.692406642510722	-3.2151679911500595	-4.087692727258914	-5.085251795327477	-4.243111122862613	-1.8654813719380614	-2.683822863478515	-4.287181843423953	-3.742774000254994	-2.997713319839338	-2.0832219071244036	-2.9626300260131204	-3.447793713447868	-3.755580892617679	-2.417556995010147	-0.9425526237532484	-1.9085282039140345	-2.3720273911669683	-3.846275796716089	-2.28824614900789	-0.6029599889790762	0.2950012080373896	-3.024873725883436	-2.3529913366038238	-2.356698507080914	-0.5653684124977528	1.0813382836697245	0.17055587427470245	-1.77659666089691	1.4495339357018509	0.07133394461741498	0.16213966865134377
376	-3.49405526232704	-3.591873398295283	-3.6727769282118707	-2.2334201279518546	-2.902003280942189	-3.9916608232807897	-3.4863595874502296	-1.1615203589677725	-1.9176179122193322	-3.1136891763275334	-2.76943206087895	-2.511762612676964	-1.4972671232568122	-1.6713036256555471	-2.635670655271841	-2.9441811964088203	-2.24181579977514	-0.9722154115926332	-0.728693900652748	-1.798194046248876	-3.219543687321263	-2.1210963672491165	-0.7421611528732325	0.6380127056226017	-2.6583139829276847	-1.9962645718718428	-2.3701579510929527	-0.9607688760342222	1.0439561579096133	0.3106865875029453	-1.8376685334538998	1.4975651464799367	0.05807970077036839	-0.03477662047904241
380	-2.3621065556970207	-2.6061093741422523	-2.6807422570257216	-1.323242422577713	-1.5386699399247412	-2.7935910154383157	-2.6703729562096163	-0.605568765065019	-0.9720769500031696	-1.7844607784994304	-1.7303131775085154	-1.9716787288476734	-1.1739313572808592	-0.23608356654643287	-1.6620095926284753	-2.084037537081451	-2.0121726938943616	-0.763870654561738	0.27769109536632597	-1.0873802872860618	-2.55331205677067	-2.0160896727205317	-0.9046007967998122	0.985460159674733	-2.229938263031446	-1.6071405370190204	-2.424466842252223	-1.3167188134328067	1.0608135435024284	0.42964795123343474	-1.9473087738463353	1.5492916068061882	0.02155904652695616	-0.18033269002207494
384	-1.4324370586469328	-1.8265979243891382	-1.943741555074824	-0.6674495918588581	-0.29393196031746344	-1.7389693216288116	-1.966860647004064	-0.30378878039908375	-0.06840606016531163	-0.5710676894074969	-0.808429298743977	-1.4326615297385903	-1.1405715913586147	0.8105986693897449	-0.6698413474337216	-1.302505370666263	-1.6942590432306468	-0.3006621293583175	0.7055733782120371	-0.34058725747902807	-1.9231260966384087	-1.905712957339111	-1.02478956917474	1.2089443176264199	-1.8434119178006663	-1.1965545385668197	-2.4380028186279596	-1.5319907626573637	1.129803058632812	0.5350291715465201	-2.0371074625081653	1.556081648712568	-0.025575293163458798	-0.21552628224317144
388	-0.8841040708154897	-1.4105110132845051	-1.6031945903355624	-0.35993051438056944	0.5919395074204439	-1.019296881963266	-1.4948159418512577	-0.2769137613934503	0.588319478933795	0.29114121125148085	-0.14328408205096219	-0.9367208457185033	-1.3268947567817486	1.1576049298623627	0.168871953657082	-0.6947828513723678	-1.2827585903206111	0.27249160340176176	0.4825886773799846	0.32647105969018986	-1.3838865722048748	-1.7121421055481674	-1.078633663315225	1.2767190900993481	-1.5541572531562082	-0.7633780817785577	-2.3276038111094492	-1.5678417643063505	1.2654281822680526	0.6777297241266045	-2.0185890146789434	1.5321987828671046	-0.03550968310212294	-0.11492287338567085
392	-0.7754324655028535	-1.3926290238505878	-1.656052942863241	-0.37124767805782216	1.0204172108636356	-0.7005042416052677	-1.2759815422267595	-0.45110234504294555	0.8990349746893834	0.6900443417293326	0.2143032694412742	-0.5043221699379516	-1.5977439840031935	0.8653894044961625	0.7177068572997503	-0.29809406324465354	-0.806214151731137	0.7287353258807623	-0.09568710601012989	0.8247451165357302	-0.9607454514088846	-1.3879469598060126	-1.0846255990300773	1.26334535756628	-1.3529171909506674	-0.3103917531283082	-2.0498948045474137	-1.4545930587283233	1.4832920990687681	0.9177274680809101	-1.8283199025723516	1.5437965354089291	0.05137687908552633	0.10742453458605222
396	-1.0207585070587577	-1.669870968417343	-1.968524808681991	-0.5703512415791056	1.050700900286078	-0.7106168252169733	-1.236044880607314	-0.6909405571659126	0.9033691860279279	0.6730512363607065	0.3125279239870201	-0.13399553265119576	-1.8071712209851218	0.30332696361253	0.9360261535854001	-0.08442859330318808	-0.3118593982929072	0.9013163424624016	-0.5468200431369292	1.1266397209332792	-0.645335791865862	-0.9361243224350972	-1.0709136697434074	1.2986544337863373	-1.1827895611464339	0.14787247739650958	-1.6176130730796159	-1.2596424786236025	1.7841178133742586	1.2847920623766342	-1.4591799937600776	1.6662601190459663	0.27384698321820977	0.41032123462077674
400	-1.4338936769522763	-2.0529880471848676	-2.3487293660945645	-0.7900385836681861	0.8490645267984263	-0.8840473867984514	-1.24587857408682	-0.8592721202136642	0.7429007869083829	0.41876888169417503	0.27276343038357365	0.19236089240621929	-1.8549190712826609	-0.07780644277955553	0.8982759691447298	0.02591906853926836	0.15892660577703258	0.7912071327260574	-0.48746830101916927	1.275246855377113	-0.399418025200444	-0.40307035940447955	-1.0404330465751244	1.4883770905110079	-0.9784844493003467	0.5893768653294408	-1.088864919774379	-1.0438258621564631	2.145545238799938	1.755156274178886	-0.9652329658934043	1.9334139775099564	0.6235970242968457	0.7436622362434661
404	-1.8096930934992015	-2.350437635209514	-2.6331608228959755	-0.899527964705076	0.6031350478203396	-1.0358692381454848	-1.178689953689133	-0.8720186330713443	0.5797146544125209	0.15378609260832474	0.24004964469861279	0.5018063174929791	-1.7182763771543839	0.0028516284583782903	0.7591072301772496	0.1343041655010635	0.5901730641723403	0.5778536185933975	0.14709395133074138	1.3606713975884996	-0.1677694912489386	0.14822024069557357	-0.9584848260521959	1.853442187398145	-0.7051824313479425	0.9962213014246023	-0.5386060462704605	-0.8325798490484506	2.5264813836206375	2.257299894355797	-0.44026479013866715	2.3103616179309356	1.0406049463702227	1.0626010867947293
408	-2.001662010861206	-2.4411995349284825	-2.741840594044925	-0.8464819767561185	0.4516309190314792	-1.0297292444933843	-0.955288765402764	-0.7198334914153222	0.5173881040861766	0.06007681771846069	0.3327374151888952	0.8236572721666812	-1.4451343976727975	0.5221841322112749	0.6825085265094061	0.32971414840423086	0.9957674120557837	0.5193489776850467	1.0709670755049914	1.4768245182898092	0.10369666639611573	0.6686824543282797	-0.772666809992258	2.3190987051586327	-0.37540429735770675	1.3657147849887912	-0.02782992266542727	-0.6171553119336539	2.8812007831309407	2.703582756845985	0.019534112836275475	2.7040250233091014	1.4340399467501856	1.3343241181063752
412	-1.9618807981549424	-2.3048250617010178	-2.682452195070721	-0.657045481930292	0.4586559522492926	-0.8137031177003884	-0.563708780772817	-0.4549654412703748	0.5676730856868194	0.21551889126723794	0.6081669911288631	1.1805622547860906	-1.1227072448995066	1.2040903537867462	0.7709570507611927	0.6607287509448879	1.4035052025645833	0.7948644737202414	1.8215570403839207	1.6791485505624983	0.4480673659456124	1.137371060360836	-0.4567366230877261	2.7560260226284954	-0.03859196966083681	1.7103570656509408	0.4108960916158616	-0.38400944970452633	3.172852508163634	3.0276102943274545	0.34821462543309845	3.0041389389484814	1.7169820026917095	1.5356597861618941
416	-1.7301834778018117	-2.0008251616506727	-2.5107667382745706	-0.4011888195876052	0.6283920987476299	-0.41692197217582777	-0.0524050629305962	-0.1540833558722303	0.6741582138206802	0.5821996912562223	1.0528801653028537	1.5775158365475508	-0.8363732674463134	1.7092723803280567	1.02848887183874	1.1217796774198538	1.8283967925639177	1.3880275452855453	2.0312097021318203	1.9627333829916571	0.8633815028326834	1.5536588391178547	-0.04727835568769959	3.0452799720172177	0.24657082495425073	2.0459864087900694	0.7689960579530334	-0.14632740579854284	3.379335394910381	3.208642951493682	0.5261737094945982	3.132744304376958	1.8400790644918201	1.6504026609713784
420	-1.3920254672191161	-1.6218441683829592	-2.2829492034493644	-0.15072673521134	0.9358314848160552	0.0806405393233416	0.4931163477368582	0.11540304840276908	0.7667259554578493	1.0423743698505574	1.5961927135221858	1.9926652858015232	-0.6425174458494181	1.8379207803099524	1.3734027112618006	1.6579148727520336	2.251643413580894	2.078692192551489	1.6319439369960707	2.2712616863127346	1.3121557202589027	1.9172781657449702	0.3527476778661116	3.1318705002867566	0.44072005041431217	2.376598113735384	1.0473839018127022	0.04493813205340461	3.492008438830621	3.2724318421712533	0.5764047488918553	3.0766751688526255	1.8090817882639285	1.6705732303403136
424	-1.0323573324841855	-1.2484585015247642	-2.029633755327938	0.046654593081699974	1.3449431623834587	0.584628759338621	0.9780442689997918	0.30900621336168	0.8113206008454418	1.4564528428499097	2.1383063739195327	2.37464904185615	-0.564883111481217	1.6299713808868541	1.6899378257046307	2.18526791974518	2.6177165442179273	2.551057809110956	0.8833613969434634	2.5291414197009576	1.735055442244162	2.2105557862737415	0.6096242650852973	3.041859142252905	0.5361709581189547	2.6848924092216646	1.2420496909254053	0.11970590769824084	3.5091588408564123	3.269013396592726	0.5446768985347962	2.8868575023244225	1.6773291783899678	1.6005685289026785
428	-0.7099139672475565	-0.9301071739555686	-1.7623957351057373	0.17028824942033663	1.8057842209047004	1.0128535006700246	1.3206317391431424	0.3981128622970925	0.8238818028629831	1.7150950388521744	2.5819590026517125	2.6519346170227704	-0.6075619443812758	1.3105183806710565	1.8880463790908681	2.6189579897561748	2.85308908695863	2.5558695728622354	0.20911298639430456	2.678446047696192	2.072722191345859	2.39602016797712	0.6144399031384772	2.8566636967060743	0.5491958246670332	2.934380762321015	1.3390446867513783	0.024674192008664653	3.4300286683267043	3.2409729875753865	0.47400966166983305	2.646292441362577	1.5172289571602708	1.4594038688052886
432	-0.45681661252081274	-0.6918221694645597	-1.4959831200023026	0.21390978937978292	2.238546365808175	1.3069374528312816	1.470344539744768	0.35989698676796794	0.8458657839399862	1.767429585762889	2.858286373551343	2.756660692884461	-0.7665878514962534	1.125932929057317	1.9401961516032455	2.898542396856689	2.8997096942170226	2.040183300589389	-0.05827461168358211	2.702838890881066	2.28633927721705	2.433683150822704	0.3345125011104695	2.6635792188152703	0.501403032467447	3.0829238813765216	1.3221096959112615	-0.24461609063377704	3.2543818868487833	3.2006351866976153	0.38559693000714373	2.4264118610156227	1.3855348790473319	1.2762525049412243
436	-0.28513634132874494	-0.54233085972236	-1.2582384316148183	0.17748406484616155	2.5315689976672404	1.4364656173678407	1.4246793949397125	0.18327571405391302	0.90507787237539	1.6217817027153925	2.9418976232639507	2.657418959583997	-1.0278253529347756	1.1867676943379892	1.8793882084126547	3.002476684619182	2.7489225795006775	1.172838446517017	0.13286027278734752	2.626974576039646	2.3669834077202303	2.3076186121852977	-0.16780008333279237	2.5118017133238375	0.402719109233705	3.0991072576479186	1.1858646839719218	-0.6359839423335039	2.9860265179584444	3.1257162015199462	0.27218991449299285	2.254789346724196	1.297796246113028	1.0794153186248359
440	-0.18841145885105087	-0.4714729475992418	-1.0764640542508785	0.06997007113910793	2.5728826457868106	1.4027702772963582	1.2388895718766821	-0.10920354696359114	0.9934778188418073	1.3300369944370845	2.8533880638560682	2.385403388676532	-1.3523948158451748	1.4125523531536188	1.7667063430050105	2.94820307940953	2.4570312437965924	0.26011413270127665	0.5363417850304497	2.496629947081015	2.3315393865847422	2.0457379766312727	-0.7567690591779038	2.396858686117703	0.2487402701058245	2.974420301557083	0.9466342306078726	-1.0618673536193965	2.639064782155361	2.975322715876704	0.10675417604911709	2.1112420505625704	1.2252865998803868	0.8847001172617388
444	-0.13498379256023782	-0.43908277043111066	-0.9477194523725582	-0.07573619465779877	2.307955736055296	1.2446310488748207	1.0220563385908203	-0.4372000981259885	1.0790017816004285	0.9696166490869874	2.65075563715209	2.037812704663367	-1.6636565881687504	1.6053278405666878	1.655564303986606	2.7811558176395113	2.1320538466983803	-0.391978888714099	0.7721243481215267	2.35588716865828	2.211258882661737	1.720119352766186	-1.2719992367100805	2.2798709811823556	0.035221543074135296	2.728009217050427	0.645739732542485	-1.4345815145512477	2.243080371915502	2.7180087497752607	-0.13679279352460363	1.9515052984557963	1.1159892054038336	0.6913852078148144
448	-0.06395305677002971	-0.3709859838655965	-0.8203974345475005	-0.19505481372700872	1.7895085766434242	1.0368102762748228	0.9090531445440033	-0.6667540056560854	1.1398411960433812	0.6270037873650267	2.4097635685161514	1.7498203471827753	-1.8582578850559694	1.5978761871049716	1.5722116192223807	2.556641572219417	1.8952968072723306	-0.5959310516570399	0.5644056186731268	2.2325591984648923	2.0389945455569896	1.4244213068284866	-1.5845524032640992	2.124405617118691	-0.22422552052153147	2.401526683466147	0.3413025430168492	-1.6972708659235431	1.8400702430044158	2.354254716651293	-0.4629861104720026	1.7404611066744837	0.9258051491251216	0.48810937877443245
452	0.10011479978318795	-0.17996919109682996	-0.61044537866965	-0.2068093115830355	1.1810653179867245	0.8723845459846966	1.0109281514393509	-0.655919311774749	1.192811962930822	0.3810101141846789	2.198243612461443	1.6419891077547055	-1.843930478208903	1.3720506395031293	1.5181138477143723	2.3219447077301822	1.8322402192586207	-0.3311588457806493	-0.08570449777660935	2.136667723029505	1.8418580247152951	1.23767745182359	-1.6371995169312268	1.9297267149841706	-0.4902709412117546	2.0482225366378173	0.09063073224789067	-1.8353568269167675	1.4744983874286777	1.922685260686763	-0.8443043806693923	1.4759447537351456	0.6452950222889385	0.26530158452762664
456	0.41122099653371197	0.18914011073042916	-0.25205489929457653	-0.04798934969110775	0.6979498845598674	0.828323064143274	1.361179705997861	-0.326307683359273	1.290476438125222	0.2824373536131624	2.0520684667275946	1.7648448899533746	-1.5884599645564186	1.0764539214612923	1.486076112809908	2.104705805233004	1.9548491190192534	0.2854535274451164	-0.887786803388284	2.067879910016532	1.6409602123791904	1.1918736666151368	-1.4553421699019693	1.7420213178521853	-0.7076655608430159	1.7207156376310135	-0.06959138048006419	-1.865305061399261	1.1812512844779544	1.4881201944926745	-1.2261841266191484	1.1909404962988894	0.3094029120739811	0.028294863107888396
460	0.862486777512219	0.7144058328711339	0.24770434138224368	0.28782132195284066	0.5100402223107524	0.9290118194012968	1.886297340398995	0.2773843102604416	1.4861931763319514	0.33723065171929895	1.9629872987777592	2.069597477456043	-1.150457975343969	0.9338114834097171	1.4743924103705346	1.9107819747365913	2.194640630903157	1.0684809657776866	-1.4184709751555824	2.0230929800453796	1.454070325994963	1.259546872773624	-1.1310660810524138	1.6356005627345191	-0.8304430225386479	1.4593077861181534	-0.13683789933942353	-1.814993257708537	0.9742589568335981	1.116333839459055	-1.5474243124993792	0.9348395443202074	-0.016365507576273877	-0.1995272631375995
464	1.369233008742421	1.2836879459396024	0.7885481099246958	0.7316057663566083	0.6540634019550634	1.127035734192167	2.4224443374508104	0.9810165142086572	1.7864627793030916	0.4985734509754912	1.8841233205909462	2.4237718520958964	-0.6696125252030066	1.0950905056961608	1.4848216734591324	1.7295980409823057	2.4330987868868013	1.8301628781841535	-1.360519286535417	1.9969226071485016	1.2950952020372057	1.3681505883960325	-0.7878314832823705	1.6722472863892486	-0.8487462379961294	1.2821664777809072	-0.1439407911242782	-1.709649558519243	0.8403686859848098	0.8473047592705206	-1.7670915082185765	0.7439595442108551	-0.26716735891599763	-0.3872546543834515
468	1.795505995985582	1.7338750318620104	1.2144771783683712	1.158322808202225	1.0076940034220037	1.3170001473554362	2.7780558992818594	1.5465208252961549	2.1262311881742626	0.6756017191042062	1.7527320340727017	2.666705840053714	-0.3082211605873254	1.5358029565182834	1.5088248214774487	1.543292518533981	2.5535976822277124	2.4189662872276583	-0.685546158013425	1.9757732103055365	1.1682069272110835	1.4332261049324773	-0.5384829030746655	1.8589535904680314	-0.801682350995661	1.1793750494744517	-0.14727926217088022	-1.57197498878322	0.7407296281232761	0.6787443739920542	-1.884636635790456	0.6181573256144431	-0.4121296395386963	-0.5154401646951902
472	2.0224230238397958	1.9343736122884174	1.3988188469855949	1.4429275953102052	1.3511627878407781	1.3846695388166677	2.820024960073725	1.7845573380237227	2.39179968230052	0.7673609237370383	1.5237331351910295	2.6826767853716675	-0.1729509081050203	2.0624003358268754	1.5183712205698625	1.3375990357006458	2.4925448831570023	2.725997441085047	0.32354071654649574	1.9350056599400198	1.062012550533703	1.3941987717714293	-0.45499160770936514	2.129061455119632	-0.7641329149980874	1.1145654888623233	-0.2067146892096935	-1.4360110723479313	0.6213797315167993	0.5669838771810216	-1.9437856625118466	0.5162710534412613	-0.47352927803647865	-0.59363961069908
476	2.0179247805192433	1.864891762793432	1.325726744165679	1.5215612611501874	1.4843150339798208	1.2671785322621076	2.5400674278978594	1.651062961224533	2.480548613961216	0.7061079126650334	1.1975072592065041	2.4552121100426403	-0.2646499865525872	2.4187021194426808	1.4734566174499235	1.1098417015665103	2.2648012580911305	2.690258734586534	1.2133526771428778	1.8447834206734852	0.9501587128491877	1.2362594573279637	-0.5559396729738286	2.3583359658780494	-0.8137022832353636	1.0357704136446968	-0.3647440960735097	-1.3591337169664663	0.42987215410419133	0.444548963378049	-2.0166535326586836	0.37274333740539484	-0.5210565911489056	-0.6653827412018449
480	1.8673287582935658	1.6401814180925216	1.1169481249265591	1.424944039561847	1.3373030390354386	0.9930368636808723	2.0639963097913516	1.2729127374936018	2.3645844399833673	0.49058484907267164	0.8283072689124483	2.072942251693814	-0.4837682830994338	2.433759206349245	1.3470493521059244	0.8722739793689174	1.9493838499443068	2.315366739149378	1.5908135135540775	1.6853814082509244	0.8022576550255806	0.9885618661717237	-0.81171893868547	2.41330098496535	-0.9937326883022234	0.8946408010783463	-0.6328274591681029	-1.417912956472604	0.13382001187393658	0.24782414671793973	-2.1734301989040956	0.12828339603937391	-0.6414163096446176	-0.7949153164821064
484	1.7375299886704094	1.4570077620913675	0.9774296259044198	1.2621440855585098	1.010921475719153	0.6760901195622626	1.5943509300032763	0.8809638001134267	2.1163055843327454	0.19270873021108906	0.5071881996700954	1.6833891826089817	-0.6924984437624737	2.1136424488109045	1.1521776885506867	0.6506490690970151	1.6438491302948703	1.6887628989497845	1.3138388362138207	1.4638667069669336	0.6027954801599115	0.703049359930751	-1.1653294533871716	2.2112080995045167	-1.2907630172565785	0.6688842160503349	-0.9890994404615957	-1.6831290679398387	-0.2648281746376933	-0.05551558346441083	-2.450345986855463	-0.2407509529472694	-0.8967354274997547	-1.0398119661781329
488	1.7874990656545402	1.487035270751212	1.082984802372843	1.1596701115893264	0.7192893606145414	0.4605236935909363	1.3118697371739922	0.6825813633851378	1.873636121787773	-0.07329955678553272	0.32295751490116337	1.4177302086321841	-0.8011850098409108	1.6254355866401882	0.9465850567760571	0.47568219780033016	1.4119570219631052	0.9774978136178707	0.5461617694416918	1.216673132685642	0.36512198952043157	0.4255383599981592	-1.5591545065615602	1.7617361501083182	-1.6427839952954233	0.3746635904389531	-1.3891490662788075	-2.1830806677060246	-0.7288138251977333	-0.45224755888244617	-2.8316490578684737	-0.7093595248432557	-1.2922744718349768	-1.4214124643678214
492	2.075056547647949	1.7767181351626555	1.4732396565434889	1.1890518635293048	0.6636643989019536	0.44515412933492565	1.2874158588330225	0.7460169773340175	1.7637523368174002	-0.20422142692503378	0.32059028663756306	1.3269596066351006	-0.8249698856506107	1.193075892297221	0.8084309080693818	0.3721685400149546	1.2549295393731115	0.3819672753703879	-0.3463335028487365	0.9951572989134032	0.13221892681118358	0.17754881039138537	-1.953757519557593	1.1683573693341167	-1.9723892162116021	0.06286158396823907	-1.7811229184004358	-2.874007456199029	-1.1978540390289318	-0.8866268970038834	-3.2519223607929812	-1.2119054763713852	-1.7681232646170335	-1.9058883142035974
496	2.5156321462060123	2.214942926536713	2.015082831063528	1.32541989945515	0.9094874239847404	0.6282777770392394	1.45234191051013	0.9647487973651162	1.8272576285958464	-0.1550743128914416	0.47796785710776135	1.3636038268947557	-0.8710710980357422	0.9651127433251959	0.792978821182888	0.34954211027586196	1.1229330272933455	0.05365486056967175	-0.9953688954018216	0.8395680763982082	-0.03949465592664895	-0.04174768169114799	-2.3313658178595946	0.5846863374253287	-2.2267858925865243	-0.20129142650804624	-2.1168861335713918	-3.6343176273140982	-1.6106189448700405	-1.2798196045034462	-3.6173770336373865	-1.6671199756493251	-2.219697231410574	-2.4047322212540743
500	2.9209525511427596	2.592234604966467	2.4647533831356165	1.4579113685038811	1.3378134932120063	0.9036141611173363	1.642843957567916	1.1252230377398345	1.9905118892005147	0.040015991676150955	0.7112603765649884	1.4171383345110589	-1.0635473701327942	0.9352316832771947	0.890389499800475	0.39540082116433706	0.9582849716787686	0.024725453865687214	-1.2161414592555877	0.7534022312216215	-0.1087857035036094	-0.23848563372481646	-2.6819364956854264	0.14503189884762055	-2.4048778950055376	-0.36809846665906537	-2.3574187696065616	-4.292017449033082	-1.9294220160408482	-1.5592552384109764	-3.8390741251339295	-2.010051006964294	-2.5401115353348818	-2.799362890805213
504	3.101360790051897	2.722468369286096	2.598806851501388	1.4498448335282144	1.6980144934698835	1.1117747994009852	1.6938278632314303	1.040353653188484	2.104858631541822	0.2809105806410955	0.9075927115414039	1.382278915730052	-1.4498852454772702	0.9593918895340977	1.0150601838233277	0.47580543040309214	0.743542907744927	0.19057641875311662	-1.0838592025094902	0.695512352617932	-0.07438926379972637	-0.40446352856561973	-2.9833173676509532	-0.09722257380973146	-2.555700534090079	-0.42687189471235215	-2.4730162558106774	-4.679186332332919	-2.1554531996666464	-1.6860303836216004	-3.8642218015383336	-2.217489713792246	-2.6652481488647672	-2.981269113643063
508	2.977307312124135	2.5583493644972095	2.3439369142481437	1.217909571433741	1.741414661779193	1.1229664058943356	1.5313345155200435	0.6720808727462131	2.0324814268295373	0.448251127064991	0.9715133284835965	1.2204604118051083	-1.9467694710217691	0.8528997876568157	1.0395613882521297	0.5438522682764106	0.5241273032306913	0.3645716002319652	-0.8682761766446359	0.5967862590981179	0.01938739414088613	-0.5094550239098251	-3.1900718131586117	-0.19159467469956615	-2.750224106520707	-0.4104800213940575	-2.4434499678909405	-4.691306102352368	-2.3274388254531275	-1.6696478086278672	-3.6942353155325716	-2.3156871737188816	-2.60101365386398	-2.89240049585596
512	2.633405917194673	2.22957848939649	1.8293942166870707	0.785120187207673	1.3599321807858618	0.906159041024241	1.212011334220239	0.16659735101122874	1.7298411087230863	0.45790499333166346	0.8634799697056038	0.9808869337112427	-2.3678100049318886	0.5068852888661117	0.8597372748603168	0.5548071847259555	0.3894603838624407	0.38787278435053407	-0.8701279141391978	0.39626535673229896	0.10241381798159567	-0.5124949799949845	-3.242881051459119	-0.2601286464322428	-3.0405371112351247	-0.3774977614885449	-2.264093154912987	-4.3290843854324175	-2.5027348932020757	-1.5639128645512554	-3.38519596198848	-2.3660547673569745	-2.419997447579669	-2.5518622333948136
516	2.2792017402325073	1.975206608553732	1.3270140852802879	0.2777413420817448	0.6487072093797804	0.5449671731541195	0.8868755079766139	-0.22256752792432283	1.2780603138126976	0.29094767497038376	0.6119408592032889	0.7688272575994556	-2.5219905312760185	-0.043168954442228805	0.45392870788409156	0.4819356488934742	0.42054256690660063	0.2256412798429845	-1.2492051093033356	0.07664930801112999	0.11442923516946797	-0.38799473545343666	-3.1018440645105154	-0.42811736356411184	-3.428855410501908	-0.38141477011703734	-1.9580544183886022	-3.70460413951152	-2.7285695007099013	-1.446082826778069	-3.031639091466941	-2.4366586146823788	-2.229900831314622	-2.056366438442207
