time	FP1	FPZ	FP2	F7	F3	FZ	F4	F8	FT7	FC3	FCZ	FC4	FT8	T7	C3	CZ	C4	T8	TP7	CP3	CPZ	CP4	TP8	P7	P3	PZ	P4	P8	PO3	POZ	PO4	O1	OZ	O2
-200	-0.6869600397885723	-0.17269930199889744	-0.12671519783929272	-0.11170276226213276	-0.34527113946526455	-0.708809671996591	-0.3081421546308751	0.3744123568618591	0.12413191764008824	-0.6309932454390608	-0.28439643907269374	-0.3598599424813336	-0.20877224154214513	-0.15804614086779467	-1.008753535584856	0.1720025684067158	-0.5446226583081875	0.17310173765824363	-0.29621484800891956	-1.31207191612856	-0.5627464041807033	-0.8740372039662113	-0.8643341638677233	-0.7581749539306714	-1.7867451861093244	-0.9821333264349941	-1.4464269839961332	-1.413709160096499	-1.849698538878544	-1.2519098488671245	-1.7296761230667645	-1.1750992506876397	-0.7923831919691513	-1.3671400512510619
-196	-0.7310520988126876	-0.4084393371760347	-0.26144945555480836	-0.3607281139326176	-0.5498790131037239	-0.9853016709246755	-0.33289644038075444	0.6088471993333225	-0.049138657624636005	-0.879472909137424	-0.5644840583854532	-0.24495878753804792	0.2922824017774692	-0.19534265945706356	-1.0602867576532335	0.28013303805196366	-0.11466131330389562	0.3225344709359381	-0.2540449493669905	-1.2059390514444324	-0.21470314210090152	-0.2834867231841061	-0.4747385072643064	-0.6159909948055511	-1.529883619260584	-0.4517127264062269	-0.7297754269294668	-0.8128793219070276	-1.5320142468873459	-0.8741905071121866	-1.0809324952491182	-0.8865497089890941	-0.35151904732645844	-0.925662396001245
-192	-0.8848937131474804	-0.7677496056246373	-0.48716369148281374	-0.8283655622548914	-0.9328346824936042	-1.4036736452902931	-0.48041951535047284	0.6201062186797436	-0.44266587384041445	-1.2767140833091997	-1.029499528193	-0.25855630570936017	0.4860166000970075	-0.47499808549164785	-1.2131599157221609	0.182550236121861	0.14837527237624293	0.31461670915325524	-0.4979740368668209	-1.2644492355847332	-0.020233955183203343	0.17438128546556758	0.03468795111958229	-0.7189115863769088	-1.3703924382896644	-0.016954457344522257	-0.06526744349213694	-0.13557599450690855	-1.314383503456403	-0.5683172926859253	-0.40935084120396104	-0.7345452290109301	-0.022615721392156736	-0.40472438829282065
-188	-1.0309447024065752	-1.0389987204068707	-0.6647951586151327	-1.296188112801048	-1.3035010066500774	-1.7275133089319052	-0.6407183392560599	0.4404175568428408	-0.895695505264984	-1.617295261114476	-1.4514855109761595	-0.34443595918478037	0.3342310479785507	-0.8239862898050105	-1.347308393891464	-0.014972210823941299	0.19196905147245516	0.17180742280021385	-0.9093696452069615	-1.3880176509145377	0.0213892701473227	0.38350114129516516	0.49722444885601813	-1.005291340197174	-1.284490343665543	0.23596742689638123	0.3622458866033461	0.40561413662545887	-1.2135187356828028	-0.42209780109647593	0.09453381574128264	-0.7477256636814796	0.08246422538202688	0.03710768734980689
-184	-1.0419983837522637	-1.0390989754191298	-0.6593488438171767	-1.5585790833223514	-1.478736158452219	-1.7487633184149973	-0.6875933987423566	0.1906871641828297	-1.2311474053770641	-1.7295285419666733	-1.607505436653414	-0.40604275362495656	-0.03713145097656078	-1.063522455391341	-1.373534556735711	-0.1598211969870466	0.05932897686880347	-0.029491105973768472	-1.3225593533503117	-1.4741977416011895	-0.027766682137480247	0.3339842847498036	0.7426294069614058	-1.3435127701217502	-1.228329893825645	0.28438949513159495	0.47081482291561594	0.6538025124255402	-1.2126133411309505	-0.458447574411684	0.3089684240169878	-0.9004618502770589	-0.07137359660725169	0.25605872208796515
-180	-0.8494938590536595	-0.71350943862062	-0.4137466539427253	-1.5163909158568447	-1.3685308660287394	-1.3948539460251463	-0.5467852936291129	0.016109665815092346	-1.3291676010905855	-1.5568182429108424	-1.3911768162889468	-0.3617607047960994	-0.40537354247743046	-1.0973384352635445	-1.2725441423712414	-0.1362092044490812	-0.14063516223686456	-0.19480968962598882	-1.5939782817650814	-1.4653758965688362	-0.08476680495795094	0.11700727761052603	0.6834995133309397	-1.5891259868554573	-1.1622462243300147	0.17063523785902052	0.3053528360763635	0.5813580140694741	-1.2688368526848617	-0.6242585166428929	0.23044906498423498	-1.1166828842579783	-0.4170730103453073	0.19702809999312193
-176	-0.48671164985797843	-0.16980056421801568	0.009981648039948545	-1.2120586603080712	-1.0160416339017215	-0.769839582883765	-0.23937900303961568	0.009937225815896691	-1.1741377085605507	-1.1806559532874408	-0.8702552892647611	-0.19408452461832107	-0.5676547870609195	-0.9499167179920106	-1.0953009100916866	0.06877228600304819	-0.29494553729930995	-0.25576975877082364	-1.6549355941951023	-1.3678017820156876	-0.09498883759834915	-0.12940928307285487	0.3610122194712222	-1.6476601320628974	-1.0693880292595885	-0.024437652839115868	0.00037606042947668924	0.2949856512251425	-1.3274679150444617	-0.8175143578869939	-0.03589320546267159	-1.2945589986541601	-0.8068662861479781	-0.07509057204838297
-172	-0.07919310013327045	0.37512719536484557	0.44974160080848136	-0.7928544262895558	-0.5698085412897957	-0.10364523503838502	0.12680222062044508	0.16859470265260926	-0.8537222721479948	-0.7724462132025013	-0.25555899674743	0.039158895512896294	-0.441598503666794	-0.7373784761885303	-0.9257173514835891	0.3568101516298111	-0.34175240907215565	-0.19921335527668246	-1.5261272153470335	-1.2338105408989049	-0.059433344601541684	-0.2900005273649718	-0.07502252589596307	-1.5113992652880877	-0.9591459607703753	-0.21877963785724908	-0.2918064884924617	-0.025747293541394822	-1.3381429876874926	-0.9363299584590532	-0.3345252863067415	-1.3429331745574178	-1.0713342401158807	-0.4020164002758997
-168	0.2159391785176493	0.705312488682514	0.7183541041357321	-0.4297362555144465	-0.20576682634854596	0.36413654593084804	0.4137044240520086	0.40046626228313986	-0.5149681555144056	-0.5024029599856743	0.20385181852371476	0.23892307221171863	-0.09920693163858374	-0.5937852248458987	-0.8294317105332971	0.5727181420171604	-0.28857806252099844	-0.06782528740924772	-1.293277618004014	-1.1223297090804523	-0.025856500426218513	-0.3185447446410033	-0.43668642529861107	-1.255359288860857	-0.8571655132586862	-0.3594867876036594	-0.46622648717471316	-0.21893432681121186	-1.2713707653371555	-0.9255998707290335	-0.5338293300502207	-1.2181489436865545	-1.091742989644737	-0.6049089416490213
-164	0.29093298242548377	0.7149659973213187	0.6977446657684239	-0.2360869938134988	-0.03990236287175416	0.5040902482657161	0.5261072503158414	0.5817170128440499	-0.2968424253121752	-0.4536297607889753	0.344571082914145	0.3250058881183428	0.2820843451053714	-0.594677744794512	-0.8168475011229305	0.5922021254846612	-0.18659962666606536	0.06785071624076082	-1.0588782999007469	-1.061037656966218	-0.0495901106536056	-0.23792849421034634	-0.5825391993120058	-0.9949439738902907	-0.7875627259397568	-0.4320676911889496	-0.491108058643189	-0.21143260544801076	-1.1284759016155939	-0.7969710806752194	-0.5775988683422707	-0.9437879300130996	-0.8505421259386776	-0.566586552619952
-160	0.14410819076870726	0.45635518316444906	0.40363851087704417	-0.22614236118918488	-0.07677390407013776	0.35565239101261703	0.459281026157474	0.626304088441775	-0.2699352197984443	-0.5868306741203542	0.1653974201079625	0.2849940948443476	0.5193530308008812	-0.7182002645479552	-0.8404669144391518	0.3930515040964465	-0.08317587503652592	0.14754824303091124	-0.8947840906440245	-1.032228705661085	-0.15011633894689752	-0.10251621876106126	-0.47338065385510647	-0.8268696048840957	-0.7571297268825291	-0.44952005034441056	-0.3912102570193386	-0.036861445661700264	-0.9402042007550273	-0.6143893583998352	-0.491897820184469	-0.6016908272810781	-0.43444508204445853	-0.281735300306448
-156	-0.11948785900704179	0.10319302950077704	-0.01654837090069279	-0.32939389264866126	-0.2198923969677514	0.09430644637378037	0.2947639517494602	0.5305797444299156	-0.4113734652146625	-0.7722438554339998	-0.18302804185433538	0.18179683341380223	0.5181627856523665	-0.8622675516292886	-0.8270318487267646	0.06876723450941623	0.013803766074198162	0.1510735746384123	-0.8182417133653517	-0.98901533830803	-0.2916984550740791	0.047750465451322006	-0.1731522674957244	-0.7853304723939096	-0.7508705239411787	-0.4326395977541256	-0.21012800878878318	0.20137515613258308	-0.754298863890714	-0.4565179336465974	-0.3514355710216613	-0.29844310804357693	0.00832363029703047	0.1458431776656101
-152	-0.34419631871106593	-0.14572595023079407	-0.3546012333023345	-0.4427522111681536	-0.33219247972541205	-0.06980523449439777	0.1496108021535114	0.368500470184738	-0.6222456677939099	-0.8657262303429379	-0.48555916425183365	0.11616413265940388	0.3119845978489418	-0.9030576921551181	-0.7231476884704007	-0.22168631795702712	0.13720467652012286	0.10616192939896289	-0.7975601533780473	-0.8883898235779542	-0.3993577351024059	0.21127191132610204	0.1971852774409978	-0.8332430103245473	-0.7400124650391493	-0.39334171911112514	0.020592417515977512	0.3952301134621313	-0.6148724540445201	-0.37497636581162225	-0.22718365433078194	-0.1199854013274676	0.3370998493266696	0.557236610436222
-148	-0.4040986885358707	-0.16828386443089038	-0.4438484001874502	-0.48882210131253473	-0.3121444277035035	-0.005100143129167921	0.10934235127976139	0.24220769046190202	-0.7784221152679495	-0.7869358638922368	-0.5789491519616032	0.16479378897068495	0.02985095411453017	-0.7630112747955361	-0.5286921249392896	-0.3416880956606054	0.3255632809525526	0.06849956495156695	-0.7810670117685349	-0.7218483668222224	-0.4037573625384262	0.4103656698833446	0.5218536244568298	-0.8918912388217994	-0.6998513919326911	-0.3331765226058469	0.28468540238983525	0.48583769675616584	-0.5461879954853267	-0.3739055981732582	-0.14979425034850571	-0.09879764144510568	0.47589179753315364	0.8116646984588614
-144	-0.2637922161117902	0.029246751145193248	-0.24086548327191615	-0.44795042163285836	-0.14404192530504553	0.27874371339040177	0.18420007778391717	0.22043423298971407	-0.7905428389617128	-0.5572273121116604	-0.4331983316928394	0.3310334674106808	-0.18198054982969733	-0.45363762860206586	-0.2992101006106102	-0.2523208254165705	0.5769336209036121	0.08814411588110664	-0.7316209059363431	-0.5243947492711233	-0.2870045595075456	0.651796220087466	0.7337858062337642	-0.8892654754121386	-0.6257433875497885	-0.2536419027600369	0.5617938027503082	0.4797462510871123	-0.5451260195320449	-0.4168770004714583	-0.10466928753652434	-0.20578384347458636	0.4341295648581366	0.8434255697890427
-140	0.0098540186633229	0.3312795451860147	0.15392237862825958	-0.3521821489979105	0.10144985441581884	0.6489108784504637	0.3118153802628517	0.2997715763629768	-0.644553659719094	-0.280196695812423	-0.155865832769738	0.5381017909769338	-0.23861066936807837	-0.07263287883540318	-0.11656062275544873	-0.03256336963895964	0.8261942842604955	0.18059974863231681	-0.6469738467094436	-0.35599952846291244	-0.09957954262387574	0.8947227574647055	0.8228382447448903	-0.7979106286884418	-0.5364107476042806	-0.165996372280637	0.8093074539732357	0.4281210590520786	-0.5823178276618689	-0.4505657840320322	-0.05146998154043043	-0.36568018701734384	0.2899281971287194	0.6835354549316486
-136	0.29062706158694646	0.5857011661047122	0.5492164478740734	-0.2540047162318687	0.311081825901453	0.9311259961461421	0.40121877092152924	0.40998968378505074	-0.4050751020217936	-0.08036573210929848	0.07784271965639038	0.6695749146722483	-0.15310393235175387	0.24104697941479897	-0.04479849327220962	0.16635906654317953	0.9654116606179898	0.3171844772436961	-0.5567446933041326	-0.26693975858049745	0.0634142978378458	1.0529674265025846	0.8159320333861366	-0.6441930516191133	-0.4628525662657205	-0.0916170922588853	0.9657763218338049	0.3888716389851582	-0.6143354161964497	-0.43288880477330227	0.04598944995116953	-0.49188482637194075	0.14419008755042187	0.43733736762255965
-132	0.4610967624466824	0.6838118416687742	0.7581757883956961	-0.19197793256450427	0.39001339575527055	1.0042312119878753	0.388742088290066	0.4574764061344881	-0.18148916913940963	-0.03645504629348651	0.12629628149570774	0.6342362149438124	-0.01564512770398244	0.37073448206760173	-0.09542562043416045	0.20662733860299567	0.9006988979487323	0.4414168883146219	-0.4987172471806488	-0.26601228050781167	0.11561284185068757	1.0369248364017918	0.7494944315107236	-0.48408967134325126	-0.42600798499315884	-0.04911186533687711	0.9799384450013267	0.39686655898030804	-0.5968018755150096	-0.3470242908776168	0.20063012787709408	-0.5186523185986709	0.07573118786765028	0.23431231022327575
-128	0.4662244010121513	0.6031800493270313	0.6853954178671686	-0.1739332373519222	0.3057439617543921	0.854335603941185	0.2714610688985195	0.37979292773679374	-0.0739778650919447	-0.14616875313571248	-0.04447646427846242	0.417777090209939	0.06671022606934676	0.2745820276957241	-0.22170181516462958	0.03988210846845256	0.6126221402913515	0.4990992235457275	-0.4898661362677845	-0.311542808222982	0.03042845606572028	0.811403808929338	0.6524419768073322	-0.3635217538238645	-0.4173459102107224	-0.03792907288035066	0.8472845532959928	0.4560820746827777	-0.4955824899082136	-0.19889682481140192	0.40178286927825935	-0.4186601628223792	0.11738039523529735	0.1756396736240497
-124	0.3295196584488198	0.3995690633699235	0.36494570878395344	-0.1828364129218663	0.09483406668800001	0.5639372453756644	0.10212809566700562	0.18271793378951318	-0.12628981439176593	-0.33833572183064464	-0.35293546229900236	0.09276833361807357	0.03312393269520541	0.003879670742417178	-0.34488528879828523	-0.26949706605580664	0.18195192469911622	0.46732553721695175	-0.5109797107193301	-0.33204317009062667	-0.1423054035885436	0.43114134560451167	0.5452219234052463	-0.28935906217951857	-0.3975872685407901	-0.033879414115245476	0.62513136705878	0.5497699962087049	-0.2978269748320893	-0.00888322664044623	0.6228063686858963	-0.2067662919307775	0.2525095933260976	0.2936377219892726
-120	0.1261902150305977	0.16115365881763632	-0.06835652125504775	-0.19717861662196098	-0.16591978031229399	0.2502450936675083	-0.0483822337061528	-0.06348393096392883	-0.30734193247446345	-0.5202603923060062	-0.6589616520456933	-0.21882536952083753	-0.10199644390819036	-0.3191383472968227	-0.39738309283062745	-0.5851174578199007	-0.23874308108611259	0.3658339968027984	-0.5142158256899501	-0.26571863822606706	-0.304833143179879	0.02736929983441116	0.44619637615083674	-0.2284362459375743	-0.3164365283606205	-0.0027754572150073095	0.4105419506198228	0.6554313881538496	-0.018915511619971348	0.19584204207089215	0.8286961892186259	0.06996566784598626	0.43023109327412246	0.5389851318102749
-116	-0.06360451116000503	-0.04140061502136804	-0.4527069616808926	-0.20890030212112176	-0.4014914919730105	-0.0025338337227058926	-0.13296936418817226	-0.26140493088527356	-0.5286562429432254	-0.6282415374153074	-0.845991192112277	-0.4070382107948371	-0.2628848844089876	-0.5527183995597204	-0.3580620875855126	-0.7770369033268667	-0.4945811914831598	0.24503394899491993	-0.449421851692391	-0.09714457368165919	-0.36875557806373266	-0.25114807423125324	0.3744382550799486	-0.13351631130841152	-0.14376498722495706	0.07407788913620586	0.2912638776101189	0.7530804853499363	0.2971569888241831	0.38378667734524075	0.9803258155867438	0.34968778402732525	0.588388441507626	0.801309702757466
-112	-0.19015994619996127	-0.1777902539055997	-0.6744430644173427	-0.22609645071166257	-0.5683802351906493	-0.1759557421533344	-0.14887390993201371	-0.33482766066892367	-0.6876245719714954	-0.652550397655905	-0.8791841842388609	-0.42546290051806407	-0.3567935219339608	-0.5925880059539629	-0.26070752674083986	-0.7924975732821865	-0.5037030564942327	0.15883280296755414	-0.2944481067375928	0.12942205336796575	-0.308452516015437	-0.31361612598393696	0.34102421912877323	0.02163771161934502	0.10446721289008476	0.1772291804845843	0.2951641969381164	0.821757433723907	0.5844508394744157	0.5168773518863858	1.0332834694523672	0.5712593183399659	0.6695399267458535	0.9492995118969197
-108	-0.24162289439232595	-0.24781355199235766	-0.7067852598465507	-0.25901272827557537	-0.6576067788687247	-0.2998924247799538	-0.1263043281227321	-0.26214274697876294	-0.7122764569419092	-0.6244146212071655	-0.8067702630654874	-0.30503603739018215	-0.3210182181836475	-0.40927386180542796	-0.16955755608187995	-0.6766613108717031	-0.29544484540733273	0.13799528742758874	-0.07052646559552025	0.33085125601206244	-0.17591915980269587	-0.17459912554051046	0.33497968231503944	0.22207786086756812	0.3657560041253067	0.2493824952504967	0.3725964715610391	0.8347364046956243	0.7744377235887085	0.5555008039754555	0.9434931254407848	0.6895707232231432	0.6332103594051732	0.8802469946571676
-104	-0.22859163524611142	-0.25687390501017765	-0.5995818957449598	-0.30255433840657964	-0.6774663908066516	-0.4054284681574523	-0.0977490020310586	-0.08031241575468151	-0.5882384762217497	-0.5789096936868615	-0.7112672907037649	-0.1266928013940749	-0.14987514875242286	-0.054653160136042815	-0.13700453902463358	-0.5348352776375552	0.008946147724750966	0.17442619756529246	0.16607096749338507	0.42926505099636436	-0.06776189041910856	0.0546972824742264	0.31882294931979005	0.41846230520454686	0.5594857917011427	0.22380126956225255	0.42575129759108166	0.7634069900312008	0.8231223204811726	0.4744894194544189	0.6855294687129301	0.6883047205713102	0.46681254984298753	0.5631858096208782
-100	-0.163536563102773	-0.20177932032662338	-0.4345795501227323	-0.3289645603934281	-0.6334885938862823	-0.4868347036468066	-0.07254844140571143	0.13758335972858604	-0.35690921454917773	-0.5213583694646414	-0.6466653926735096	0.026573542438410955	0.10658380362303739	0.36389398482954705	-0.1678814287715442	-0.462295769477957	0.2606290274238689	0.22713099362725586	0.3526366344131754	0.39690178532528136	-0.064041264193494	0.2267638439175276	0.24330231485927722	0.5564205632466623	0.6307718737889239	0.06713028980234077	0.3679017415294809	0.591176269946022	0.7339592557496226	0.2835491292470284	0.2759817235654507	0.5863084182241508	0.19341143916889436	0.05739221707397447
-96	-0.052702106402374695	-0.0775076148937286	-0.2780116491451187	-0.2970175139557608	-0.520890949841493	-0.5008612262478066	-0.03401353946681267	0.31529843727615253	-0.08785050340168436	-0.4199141253359979	-0.6034467205070831	0.10996025027884603	0.3668586602485451	0.7287407499034231	-0.21068088657116266	-0.4850969302327675	0.3574780812774778	0.2458099567644527	0.4525705564516685	0.2772228114758304	-0.17517472759365316	0.23678488969625064	0.07758691887340202	0.6094237550607792	0.5856597408766979	-0.18811370384882717	0.17825129583177332	0.3302440038926239	0.5641325101914555	0.03878893320899981	-0.21301275437933928	0.43399640808204454	-0.1279575970518542	-0.5040055500657041
-92	0.09342903620257947	0.10043518219862739	-0.15952266712444277	-0.1767034228155092	-0.336909412487093	-0.40539699690509035	0.039358205993941395	0.39909833568899833	0.15415231844606128	-0.2312088453892686	-0.52500069008838	0.1270736601720669	0.5480254874698233	0.9537482833624333	-0.18392015947159746	-0.5495173917247845	0.28638344930823184	0.19701458463995325	0.47312667846435974	0.16722015994291436	-0.3316907576292819	0.07407986354005906	-0.1635914142769891	0.593659161022517	0.4935899066384031	-0.44536062962622863	-0.08326163866956057	0.026675447754268094	0.40575674073772394	-0.16846860902690527	-0.6655564887409265	0.2971441142209441	-0.4150766719828854	-0.9616590714016952
-88	0.24461536047688037	0.2796869866939132	-0.0823164133139377	0.026388764314783465	-0.10245261315466592	-0.20929540640917907	0.14687994085421568	0.3689328422768471	0.33068147218184846	0.057509284321308064	-0.3620733907618017	0.11082865269812797	0.59253680556423	1.0074447367981825	-0.024733694207806606	-0.5647242651032915	0.11551091790837899	0.08372961708625243	0.4584424186099239	0.16856618183015623	-0.4237772513657495	-0.17926002993624401	-0.41491404071002636	0.5566170201553461	0.45267578845175377	-0.5838811382810909	-0.30915701311258104	-0.2526404553233716	0.34754237444869646	-0.2458888584127749	-0.9605125760623351	0.23264089167986537	-0.5888834580812359	-1.1909505098791864
-84	0.34559959085947006	0.3794822683290088	-0.050618875643960566	0.26056343251245917	0.12474623290991481	0.00407126684576557	0.25210887130028437	0.2324993157477201	0.43011087070591403	0.3969374885074117	-0.12760965493885632	0.09046512819338096	0.48206964013459097	0.909405467598381	0.26571524076132347	-0.47130203128077985	-0.05559039474399566	-0.05684387669516709	0.4611861992159421	0.3306993535752359	-0.36934292223186643	-0.40060427683776884	-0.5875661954350255	0.546154259256469	0.5336166606781991	-0.5201373087148558	-0.4076151539524838	-0.44908505564793805	0.43275064120706175	-0.14477117323087008	-1.0233397457988838	0.26474901966963144	-0.6053116306281071	-1.1517924041278313
-80	0.3344249716898378	0.32784339702803367	-0.08580356814655651	0.4433711457979386	0.26313197546328015	0.1051018235414061	0.29646500870241027	0.014012868480768045	0.4555941808642006	0.6813163144076188	0.09090366936620868	0.06948450935225174	0.23889326988940618	0.7094113212794347	0.608321307553797	-0.28888896034736194	-0.1552741076602243	-0.17327359274985837	0.511470435758527	0.6177159532209957	-0.1685772533928953	-0.497156052526311	-0.6151782854760904	0.5805714711790039	0.7339053731508818	-0.2570769780344147	-0.35726344495218354	-0.5409898148229443	0.6346911175915897	0.10854180874838489	-0.8645251371491015	0.3727501025325598	-0.4788160908054183	-0.9052494741472651
-76	0.17901432468993903	0.10757590803165774	-0.21497183983887058	0.49825659268466527	0.24557563600527105	-0.011120217824218594	0.23465590119721602	-0.2523047917671664	0.4133164872224674	0.7949305752711304	0.17633987918678076	0.029727162718224825	-0.07952112684438302	0.46385860326002193	0.8756474234407531	-0.10902556749474117	-0.17197541849108913	-0.22441916111075663	0.6022234543854462	0.9195829010634388	0.09089235938489111	-0.4515719700379452	-0.4910711633681662	0.6395188553876284	0.9718722080488831	0.11005489500392979	-0.21785893981288934	-0.5521112070449264	0.8664729573307987	0.41618731512850354	-0.5791146144550819	0.4998396920459027	-0.28051438856827376	-0.5850687012205974
-72	-0.09239154285707725	-0.2202720189493674	-0.4388333249933555	0.3944486369664542	0.06251320972156767	-0.35331669360602325	0.06768960488633971	-0.5248548971276276	0.31086909692478676	0.6761184317684594	0.058459259422049485	-0.04560758907008979	-0.39436274667354976	0.21981425527864815	0.952405271509745	-0.037117108608947916	-0.1458823230159675	-0.19879798540945265	0.6982901078713863	1.1032313080590301	0.2818215184248979	-0.32091432728806635	-0.2752888493740085	0.6801635009759285	1.1261786194024608	0.4359755803068145	-0.09278509742437434	-0.5352297411756829	1.0216206286386125	0.6492901428042119	-0.305247484866989	0.5798521027230259	-0.10829523178415223	-0.3380525103617094
-68	-0.3883708407610198	-0.5333613143806261	-0.7022541743668101	0.17129494206572893	-0.21424885040073166	-0.8058023432414235	-0.1483003195356271	-0.7576328496878079	0.16914316969128645	0.3652318706827976	-0.2238987529585366	-0.14771020375151828	-0.6265896542941729	0.014545069970720656	0.7981737831944606	-0.11786214232489756	-0.13022257354760053	-0.11876665025766103	0.7628401498608179	1.0799618932160464	0.3121685973868989	-0.193702414142792	-0.06486701203896625	0.6672363860450349	1.101687547763245	0.5956123456222304	-0.06660432351700947	-0.5387611971604191	1.0253894303182451	0.7082872968910983	-0.1599469776883663	0.5680039510691323	-0.04205226515047153	-0.26046302848858854
-64	-0.5854408726216354	-0.7011242491186559	-0.8949603415781804	-0.07005450856879969	-0.446491329734763	-1.1650689810901609	-0.3235450974878757	-0.906317648983588	0.03484006217266505	0.006662873534427366	-0.516672192699587	-0.23418919682980302	-0.7203193288736598	-0.11656801373138223	0.47925764201279963	-0.290794222812797	-0.1486085649553048	-0.026369834252179626	0.7838390449761053	0.8559377171840578	0.18418617500055842	-0.1327944841608428	0.05848286286132095	0.598084507862693	0.8869641996878157	0.5467618093991307	-0.15403363069745196	-0.5747308716568542	0.8713566042834955	0.5738382324989516	-0.18291558279108935	0.46167734148765127	-0.10373663131033674	-0.3579302719139246
-60	-0.5815236553768867	-0.647016046797838	-0.8917210675613954	-0.2060882592958469	-0.4829795944417571	-1.2294558255626094	-0.37682223224868855	-0.9388157105584901	-0.020721340499656033	-0.20374083467542317	-0.6143695696578197	-0.24707554218377326	-0.6624809486829262	-0.13551770116446538	0.1494350131553514	-0.4099687327524651	-0.1783310915497649	0.039191979815953404	0.7823001722611795	0.5371741638926365	-0.0002769293489393423	-0.14104270899448734	0.07080916297439559	0.5059872256855483	0.569041787141341	0.34947693259696466	-0.29312506244085385	-0.6106849893410422	0.6230850800041624	0.31901782670539114	-0.31992286362937566	0.29918968601982615	-0.2466043674680134	-0.5506440387174845
-56	-0.3450236013761373	-0.38602423570445965	-0.6166379436183097	-0.1445496227667993	-0.22781367542446718	-0.8968349672562782	-0.27546080877375134	-0.8477935769610895	0.07556679080719422	-0.10387828174828782	-0.3636552086231797	-0.14689907394514026	-0.4884471880978441	-0.009228828339820003	-0.014278376438927105	-0.3212368480201317	-0.16858160453195292	0.05998558908457199	0.7973715642824541	0.284959792371366	-0.09306958294258842	-0.1679123635821045	0.01361872811157301	0.4415150273619968	0.29562416598068675	0.13265234198457357	-0.3843288411927489	-0.5902379140256921	0.38200893901698074	0.07647228221659402	-0.45251485591126656	0.13997560704176767	-0.37803393506926825	-0.7153610569058926
-52	0.07002482545577648	-0.015334123706845705	-0.0949165893184832	0.1325187083713245	0.3103492252143683	-0.21682085042094087	-0.04921847569436933	-0.6549702270183867	0.3615995934416783	0.3580741277237268	0.2510124736647316	0.060798097248356935	-0.2658857994519176	0.2715649299917784	0.11017077388366117	0.04714484128373981	-0.07725630681082885	0.04746100667057203	0.8589367844830044	0.24447928307320171	0.01962892519942225	-0.14676134251257328	-0.036527402606770856	0.4456257212831979	0.2055910522515471	0.02832642749250757	-0.34778737934042714	-0.46921929598597417	0.2408683591960193	-0.022237600702527217	-0.45630732063481527	0.03829801072941766	-0.40486153858010254	-0.74236178210704
-48	0.5488363490553004	0.3359426847559217	0.5397528992376883	0.5571936354874474	1.0122089360430508	0.627081452216973	0.22632218840201823	-0.4054422368303607	0.8069777468334266	1.0909326048964167	1.0853843661561522	0.3217158607466597	-0.06326850487709328	0.6710432154879382	0.532253442850983	0.6305411442095809	0.09682482456556889	0.03284866354516645	0.9637687181935489	0.4777926194525641	0.35185220748758933	-0.03915173923025102	-0.01927090245090219	0.5293443189607753	0.3616692712712448	0.1065328043989802	-0.16695025521089163	-0.24763823983135466	0.24516124961467756	0.09214767045359445	-0.2608519189924437	0.022514354380746365	-0.28019586134739827	-0.5824810251788519
-44	0.9644352769343892	0.5675120339370429	1.0910332175365436	1.000909683561508	1.6888498025216476	1.3953863347109359	0.46497613074209426	-0.1553819771658342	1.3056879010613651	1.8890995931613903	1.8924015712643205	0.5550544843965042	0.08117527494201335	1.1008791895728423	1.1400809259240625	1.245219585135847	0.30750301402656227	0.04570487875127879	1.0729331943125884	0.9336528158457257	0.8051565865215573	0.14162693881993949	0.07149678450653021	0.6723612529945286	0.7205120902943767	0.3454389265398836	0.10618628534687274	0.023705769270411823	0.3820296814333102	0.3968892087452655	0.12002091824508346	0.0914255452828026	-0.023683220088292167	-0.25973713332402415
-40	1.226834294082717	0.6475675089699076	1.3832646573428586	1.3279931511728964	2.153527492808105	1.8906080675075572	0.6040960535056268	0.043529592344531784	1.7071587996296578	2.511772387838682	2.430317634168603	0.6894326192615472	0.17420001284010211	1.4389800989059869	1.7452410415455333	1.670805330826483	0.4838965522946666	0.09585202461122642	1.1329771251683773	1.4674701653623767	1.2151128022986513	0.33918747220233453	0.1847667540415273	0.8377304652044224	1.153270599314529	0.648829458505906	0.3821213533767433	0.2655205123873339	0.5961169585436249	0.7901042679865627	0.596932767314606	0.22321082595259828	0.29028442428732015	0.14651754461489627
-36	1.3072749343291479	0.610410271533966	1.3394663300074547	1.4505616389844735	2.2893853129759614	2.0249624201193948	0.6201884134846813	0.15644846817094646	1.8727558803959525	2.7744572092579864	2.5642044479480033	0.6912766677569525	0.2555401020750839	1.567944522713684	2.1566257422357076	1.7527713731381542	0.5652922973665668	0.16512472885880355	1.1053857775436418	1.897606606460835	1.4282484018505623	0.48411086079441545	0.24207702217972307	0.9881719921912323	1.500905629183295	0.8948306418714765	0.576931415531761	0.40554988281855325	0.8157891610529707	1.1345785827601593	1.0416604254172404	0.38576549194214294	0.5670450911510514	0.5351548181373894
-32	1.2291824786623597	0.5184351788783024	1.0132814620184314	1.3602479661930844	2.084147448046139	1.8313493682400568	0.5237314091810927	0.17132295624870264	1.7342569784247668	2.614258521155369	2.3119082392496626	0.5719501361711685	0.36503779795989894	1.4209626877194819	2.2511374893573177	1.471910711386932	0.528122542955254	0.2127339089506228	0.9885004137831155	2.0738055653665612	1.369533296942041	0.5267950879148128	0.18436708999815615	1.0949496003162675	1.6376904207843577	0.9897196267889179	0.6430933459257838	0.40916544095685525	0.9776102279776333	1.3125889268160364	1.3344689573928137	0.5441915379136156	0.7319161873458149	0.8181354382839854
-28	1.0388436291215568	0.4174109686803305	0.5597919807605808	1.1253969640928498	1.6225066144033204	1.423202153427329	0.3421364119951516	0.09711854880369984	1.3282843794665338	2.1041159576697956	1.816205735389497	0.3717374792250273	0.5073323237007985	1.0163712475864972	2.0121905752877494	0.9450120902044059	0.3891768147656377	0.1932004387269222	0.8187205770802681	1.9294409703178388	1.0664269897239125	0.4536136675349266	0.005909827522913764	1.138028618800338	1.5141994914925656	0.9000571347400559	0.5736230001272111	0.2881194345829321	1.0402544710598283	1.266756889006031	1.401508923806806	0.6645602567106659	0.7555813174244633	0.9424893832253014
-24	0.7779645304111641	0.3123979560594155	0.16010719497311804	0.8559833147371958	1.044646141275791	0.9336709356576917	0.10648623081978642	-0.04072950025050423	0.7870600203669904	1.4145373070289173	1.2651445833689274	0.1345979418932585	0.6374966486094393	0.45960900071452254	1.524065490689458	0.3606498530342251	0.18726731789515355	0.07685660551455481	0.6513308270222348	1.5001386366162617	0.6230906828407572	0.2820461087258445	-0.24463899371847414	1.1041239472169326	1.1662946910022274	0.6534733755779215	0.3867614557515028	0.08595744498723627	0.9898767446321491	1.0139712069660307	1.2327556578983334	0.7195373159361811	0.6576385481443098	0.8995206333337871
-20	0.47436937570014437	0.17739304855381932	-0.06103086828677834	0.6540186388669501	0.4934770154414835	0.46835842610365674	-0.15117241404036155	-0.20620357938203493	0.28830334471392227	0.7442467789933025	0.8071573952323261	-0.1103979197337461	0.6767520887454668	-0.09124712622969854	0.9310777759886406	-0.11211763294046381	-0.04250895966287783	-0.13800883258307975	0.5335757718919865	0.9062175131806182	0.16477276343229352	0.04303412873608728	-0.49337041253457187	0.9903449987203223	0.6938980800275557	0.3157211534158324	0.10759101780907016	-0.14841863475520756	0.8425028898902491	0.6320900901094482	0.8786972738969201	0.698365328932903	0.4902819382686879	0.7224251609682576
-16	0.15211243889074091	-0.010602963130228248	-0.08296500125442359	0.5738954529577915	0.07498933355948757	0.09173016226973875	-0.3919801702139585	-0.36065703539390237	-0.012574580466291958	0.2525258355917579	0.5060058819393158	-0.34974533231171057	0.5529357180940228	-0.48048895476146086	0.385507493237884	-0.3909881105088216	-0.28301101851535476	-0.4237582970887588	0.48686483379466444	0.3115274302246688	-0.2131582046133852	-0.23392826259679636	-0.679895995330852	0.8157175162701316	0.22575531842931307	-0.03656458845443622	-0.23771215915268026	-0.38046979808115416	0.6468241794467904	0.23161044658359006	0.43252855430118936	0.6199800952517174	0.3162872187258351	0.4772568929066755
-12	-0.15141868553079052	-0.23796544909001377	0.019917175123473428	0.6109992250275046	-0.15710140725048996	-0.1580312546077996	-0.5654506073026906	-0.4707460391557188	-0.036650955584497706	0.01966643142205247	0.3519100239928755	-0.5706173763173558	0.2459166043748478	-0.6090521797061875	0.006956754234750452	-0.4902092504045678	-0.5286847339633561	-0.7305838447245144	0.5074757920804106	-0.12448293684286488	-0.46508479000924546	-0.5230437503960552	-0.7803881744709019	0.6314406975062599	-0.11436079413627744	-0.33155199801659513	-0.6121705158990286	-0.5912859424921318	0.4818359601253391	-0.07452326249142373	0.005401745890598934	0.5392005429959493	0.1934155816916958	0.24901840027880545
-8	-0.38198080562471776	-0.44736879951060854	0.13151621785337828	0.7158144694375542	-0.19922690043217348	-0.25369682844005875	-0.6208432897151752	-0.5194830285308082	0.19597996721855415	0.03971144174444002	0.304430633014727	-0.7497000675346795	-0.19159822117592132	-0.46824791909252217	-0.141349523902694	-0.4816235589742182	-0.7706225494955578	-1.0020092700455483	0.5780648574539482	-0.29315522239103403	-0.5866538271397521	-0.7985280135974665	-0.8081899264911633	0.5124521242554991	-0.23833633899119225	-0.510050772332851	-0.9609212255058834	-0.7688838820118493	0.43429744133972265	-0.20071490058291186	-0.3049104504039575	0.5291079269401929	0.16209785599313942	0.1163723912877233
-4	-0.486767022572835	-0.5642922506390502	0.15850786824738147	0.8208768347042186	-0.08915355779073227	-0.18275275780313527	-0.5335631357073259	-0.5172530995661012	0.5793853387509683	0.2384000116528128	0.33057811772806883	-0.8582205154685469	-0.6518175585502417	-0.14047893846330267	-0.060660108770759995	-0.439807324491171	-0.9880318616717191	-1.1936480968856202	0.6778956038525955	-0.17145568089112115	-0.5952171072237227	-1.0341702673550965	-0.7958789447717572	0.5251713977905857	-0.1195917797049453	-0.5338621722094091	-1.2207068174059876	-0.8992460943406448	0.5568469748743089	-0.11400132597512522	-0.4448446918223555	0.6413788183231485	0.23586434066350248	0.12069248377607224
0	-0.44549637920436186	-0.5401570187282452	0.07234473508212524	0.8690735675804279	0.10376135978727549	0.03116748287855359	-0.3311403981431379	-0.5041567670491175	0.9643784141034171	0.5044151531835664	0.41361710324763307	-0.8820876456878293	-1.0192171309487579	0.2325402343362551	0.1867608721309369	-0.4064481546153728	-1.1550642222805816	-1.288142916288157	0.7837289551974831	0.16455885726389588	-0.5180441128049184	-1.2114994495322002	-0.7751943449475771	0.6850044710030739	0.19056874465512116	-0.4002761532691087	-1.3468472923606458	-0.967414615095965	0.8250436165960118	0.1499613221673893	-0.4246647645242143	0.8643867351642824	0.3942632963239931	0.24279169676993684
4	-0.29126161263362316	-0.38458391926942115	-0.08962706453821308	0.8298220613509456	0.28991475628135654	0.3095754675201702	-0.09780193840606609	-0.5359351621448186	1.2107778757043712	0.7226804476611861	0.5333132134324137	-0.8420070984562592	-1.2205560176550867	0.5003614413026267	0.49141636366751135	-0.39114665886352384	-1.2583000628173604	-1.3003573384832707	0.86392789860996	0.5556353912630185	-0.3952860226187895	-1.331537600970161	-0.7687391023300554	0.93096345428025	0.5662682042130104	-0.15787324269489897	-1.3421041931599746	-0.9704713796909086	1.1229217024108669	0.48779514308796995	-0.3155924371857649	1.10764252859843	0.5806036576871013	0.40252396362720305
8	-0.10413747999601979	-0.1646483089343167	-0.25817811423921516	0.7020490151800113	0.3788280179472835	0.5285785184866345	0.053404692425600454	-0.6567745788204719	1.231397864093778	0.8045746663760844	0.6423981769555236	-0.7949671725229301	-1.2511882750392955	0.5556678161896945	0.7233400922632499	-0.39726942677332777	-1.310278054743929	-1.2719119755103496	0.8776084758535571	0.8084017017935156	-0.286875545254255	-1.4185688459820567	-0.7924585322399572	1.1416979999327361	0.841247735283738	0.09208147204515793	-1.264061209348225	-0.9294019318003668	1.2802734342676203	0.7550954799661258	-0.21835596804325527	1.23333620713698	0.7137537580589374	0.490672736121171
12	0.02603228569908822	0.030295476240916976	-0.37354692722422783	0.5089486228490919	0.3088870338747525	0.5650960788764617	0.03319695583545149	-0.8706133939696676	1.0162700388999242	0.7126635295041033	0.6684322340301443	-0.808623311862231	-1.1645821303528647	0.36892723944025235	0.7719817142069394	-0.443655042720287	-1.3451530899418276	-1.254173037223532	0.7874062637476165	0.7670095543569746	-0.2660839252906508	-1.5077466926654735	-0.8587686397805175	1.1921993463933673	0.8701009728398273	0.2210392648361403	-1.1995948522798467	-0.8868974424858358	1.1531442374679242	0.8154463151370883	-0.21423636322768275	1.1255892486764099	0.7144653779111142	0.4214517165510643
16	0.050418652466794646	0.13764533365783477	-0.4088989783930596	0.2905879013354279	0.0786530224483242	0.36222323683838864	-0.17063660876584688	-1.1245996923663473	0.6331294759024173	0.47569337367119735	0.5513333068279269	-0.9171697474211549	-1.0304294798584377	-0.004745966742871311	0.5915312156047633	-0.5577596411928054	-1.3927937710883311	-1.2822868791630495	0.5845059737706937	0.3829069127905772	-0.38982644578740455	-1.617599840848509	-0.970153984958281	1.0242813799746682	0.595452247546768	0.12564109234082965	-1.2153167693925577	-0.8866783954168393	0.7093778234691556	0.5976741894890951	-0.32177668728649944	0.76214462326269	0.539049802849693	0.17972277059478947
20	-0.009825655234384596	0.1530351187895344	-0.36971825267906944	0.09768769120348131	-0.2408019745230683	-0.026399582557782887	-0.4730907666659732	-1.3203421797795545	0.20565122314029596	0.1834567780631223	0.29360040948173743	-1.0872247191635909	-0.8908179975906835	-0.4478791642802093	0.2300075733814983	-0.7441198807048961	-1.4486542903564765	-1.3538558448942204	0.3088414363216145	-0.25128281053042784	-0.6592140181110352	-1.7259520248706004	-1.1054294081435072	0.6874657851982147	0.08631301649474614	-0.2152457678844055	-1.3146373000332159	-0.9455393528907577	0.06820146722263665	0.13608269359086483	-0.48480617877628723	0.24544474420567475	0.20822851307271562	-0.16311101574247353
24	-0.07760794441179346	0.12408798901699969	-0.27766641904345124	-0.018274087412711318	-0.530310510250145	-0.4495591509912845	-0.7252001744080593	-1.354509350217888	-0.127879842792941	-0.046274028601640836	-0.017617205113396848	-1.2230899303073806	-0.743020592244079	-0.82561993390489	-0.18078787579191416	-0.9567959284467492	-1.4652806483467256	-1.4250543081544031	0.04460847739043572	-0.930476245915086	-1.0002453301925187	-1.7716716483208435	-1.2112046449598854	0.3177942029558865	-0.4828994857993812	-0.7153135520041265	-1.4334347211886644	-1.0372629139461043	-0.5432914481751349	-0.4335398663065401	-0.6049020275102448	-0.23690634906083502	-0.1899998332233376	-0.48052054522311205
28	-0.07309796642683072	0.10885025533373818	-0.15672737320430752	-0.02340224751882066	-0.6813058239901648	-0.7328598480795163	-0.7904766182015346	-1.173723217861829	-0.26618525318651315	-0.12248524247477778	-0.2433584624345139	-1.2175329892890008	-0.5589512572481465	-1.037989494564082	-0.48050087569038585	-1.1054315539107138	-1.3782942260275879	-1.430788871013765	-0.1165576052703146	-1.4251408540983985	-1.2867293325362328	-1.6886951880734906	-1.213516470706307	0.059274069815233074	-0.9128173566659998	-1.2096164195992103	-1.4818090163012112	-1.1024469109357664	-0.9052629447969504	-0.927784738582404	-0.6035869106312409	-0.5092849122540657	-0.5303587900122911	-0.6552582366612143
32	0.021089050865572785	0.1246410158109907	-0.035255852997697505	0.07763139883945336	-0.66154676508772	-0.7788330296879935	-0.6271958931346527	-0.8174629190786826	-0.1882500643745678	-0.034260339948462656	-0.27147486737375015	-1.0242886517413123	-0.3290110818185578	-1.0594387027695102	-0.5603275880971802	-1.102453467446675	-1.1568781108258066	-1.3233722414937061	-0.13049733605816016	-1.5912941654083328	-1.4024187291023604	-1.4568765126639034	-1.0531864139669365	-0.02835021533364834	-1.0823128196093417	-1.5293992719183622	-1.4083116018978463	-1.082536694654553	-0.9303400493021181	-1.1964392631841152	-0.47623503087922614	-0.5074909316601454	-0.6979026776813245	-0.6361147149238109
36	0.12430922655668618	0.12201453714559433	0.04164835800146116	0.2308160805835128	-0.5503166900092046	-0.6362450702816056	-0.33079743301796616	-0.42238199604204746	0.030562102717485325	0.12659648028836107	-0.09821970736024203	-0.7102387529561176	-0.10029701118180628	-0.9488026475793266	-0.42854633819147725	-0.9290528273967987	-0.848913607838236	-1.110529181537614	-0.03978486349074703	-1.447982188383686	-1.3131552901492622	-1.139399644836	-0.7299732547449769	-0.016860805409300524	-1.0185650561365613	-1.5891439874581341	-1.246530529689727	-0.9599733924470583	-0.7253535967633238	-1.1926914423393906	-0.30351278109214813	-0.32045790472185115	-0.6321818812621706	-0.45569699887617854
40	0.08284809419457241	0.003932337266709357	0.007789713310899748	0.34273934277785484	-0.5141114579572118	-0.4897825109513758	-0.10394721451979652	-0.1775808925913547	0.2430005812470248	0.19617697547020063	0.144048645728727	-0.4467284370110809	0.022088976521155018	-0.8216253498314181	-0.21882967595641167	-0.6730309707815341	-0.5842115864308913	-0.8685473181730345	0.034727737219869416	-1.1736069888048104	-1.101541993221071	-0.8741208888872647	-0.32468336738627745	-0.07193128001410402	-0.8856364466241514	-1.434359785273243	-1.1066753836347463	-0.7754739503355125	-0.540016411371575	-0.9915859674214128	-0.20259608277191843	-0.13860733772091957	-0.3426617077282309	-0.19396252881193507
44	-0.25084608729926117	-0.31717270532638264	-0.206932782604376	0.3140376500307243	-0.7256216388502019	-0.5669540152540645	-0.16289602178931148	-0.2465458506081529	0.29141783640718505	0.016451658639498597	0.24065378247536964	-0.4346187997812178	-0.08247342684904085	-0.7966224531088083	-0.128446221027328	-0.5050135838156005	-0.5239716158989312	-0.7196139079045241	-0.04479947302355564	-1.0160843108272728	-0.9360047555179797	-0.8147885778836524	0.019816499153411677	-0.3449335685604314	-0.8902234412605501	-1.2195113866533906	-1.111576077515806	-0.6089599117163081	-0.6214009507702858	-0.7446849327359402	-0.24246482489881385	-0.13292090561209222	0.10927820178098382	0.08875559247973294
48	-0.9244031286742547	-0.856276152356238	-0.6373602135778929	0.08562498518067972	-1.2655373779770054	-1.0100039218197971	-0.62525212606879	-0.6907219273294285	0.08213833698754022	-0.47635617731942625	0.00768851207490724	-0.7985316494807886	-0.4848422395862853	-0.9397196149942268	-0.31477361838023027	-0.5971673711958496	-0.7786221484553106	-0.7787482122786923	-0.34862026484209324	-1.1618354291192599	-0.9858360861683823	-1.0508974764040508	0.15771697421785363	-0.8562616684275941	-1.1551849812905917	-1.1275587053441058	-1.315541144864308	-0.5348263369408616	-1.0553152534543595	-0.5966347440914814	-0.37836575412589507	-0.33647513304635596	0.6444518549860746	0.39793366093302773
52	-1.8345245076592254	-1.5281927547018648	-1.2456775872251447	-0.3269000343175553	-2.0643467851017463	-1.7867795183846285	-1.4406700097903922	-1.435026999665174	-0.3639631262173119	-1.2036162584433998	-0.5990447982922448	-1.5103900394452987	-1.1566022605304827	-1.2327977387774385	-0.8058290461222155	-1.0272139284902133	-1.3404126133455199	-1.0939869853055753	-0.8213396051650864	-1.6340875584353607	-1.3277153935289443	-1.5521895846278508	0.011032283278267989	-1.4438209497238432	-1.6344765383461828	-1.2743927208196382	-1.65956484852454	-0.5784666523633646	-1.6878724055590886	-0.6079159959703476	-0.4514286208676223	-0.5999494775883616	1.1973484724332235	0.7973803261652139
56	-2.759738676732891	-2.1800076906477432	-1.9182170581071019	-0.8358938672895952	-2.9279944822773243	-2.701026909684469	-2.4097163616376087	-2.298180097499655	-0.9173563695634754	-1.9751996944149557	-1.4519779645500503	-2.3945043026550192	-1.9708992193052688	-1.5874922235462887	-1.4829585514774473	-1.7314213470613815	-2.07825827073862	-1.6173847872907026	-1.2940360275022211	-2.2837562503375852	-1.9046305369927228	-2.1790301744758946	-0.3924610008821476	-1.822983141111216	-2.1295788234349757	-1.6577093559373668	-2.0015342185031306	-0.7063834053324897	-2.186992162904889	-0.730942545475867	-0.2699291699270149	-0.6595846993959575	1.725673671180202	1.346009847103666
60	-3.4710578830821244	-2.6743791035841458	-2.514166587203975	-1.33014571330888	-3.645280351972089	-3.5056309611503536	-3.2872660077069207	-3.0774903219725154	-1.4100415671034394	-2.59492754281062	-2.3252975881996227	-3.220447055315198	-2.757948153208359	-1.9029215526220375	-2.154328579231864	-2.542817824619431	-2.8065614629458517	-2.2268509808584547	-1.573117967448547	-2.8854851649865787	-2.567768805696572	-2.7608172823820234	-0.9383863186986123	-1.7375167564393028	-2.4091489254207796	-2.1814966146704733	-2.211106294771497	-0.8591485001807121	-2.221372837180269	-0.8529837706010922	0.2651140385133144	-0.28544011640007577	2.2017669622145104	2.0207278677466634
64	-3.868063201675119	-2.9827601834329998	-2.9505250379455377	-1.7478523210265502	-4.121323575104912	-4.058076848274848	-3.9179747005725423	-3.647868147223124	-1.7375423864364914	-2.9873363896287213	-3.03709124752007	-3.8365242384368763	-3.388694277790805	-2.1377270167737787	-2.6819775036809284	-3.2983426964454345	-3.3939790640018273	-2.7909104753602447	-1.5627332886341285	-3.2870995915391283	-3.180138103085425	-3.201036922002387	-1.493766184850124	-1.1223130197799573	-2.3678202569307643	-2.738589756727083	-2.2732405605142816	-1.0068502400726935	-1.660912867167377	-0.8774448014994171	1.0632965537882126	0.5744848832884872	2.6055393153210598	2.68701767243041
68	-4.065844525562366	-3.23653101103936	-3.278278819390378	-2.1327736323868707	-4.458725441165896	-4.426853168754911	-4.329214561976278	-4.025194157928182	-1.9375641297058992	-3.2720298684479032	-3.5762684254953263	-4.267066944793098	-3.8408293627088437	-2.356024974596653	-3.088021985840579	-3.952065696275045	-3.849025955019082	-3.242262116829334	-1.349693890978642	-3.5242371470164633	-3.719270219949345	-3.54606484471526	-1.983816857097667	-0.1827998603735501	-2.128939861644597	-3.296411744378166	-2.331312173679432	-1.189024803020645	-0.6821169239942204	-0.7907369712892561	1.843893761747814	1.743033881555073	2.939519874780574	3.154920093200364
72	-4.375079620759406	-3.698989143569275	-3.6979246046162744	-2.6341237955345354	-4.928550707771449	-4.876432406511434	-4.723122107978828	-4.3565387615838045	-2.1939127389829975	-3.729654302717317	-4.1286907091805505	-4.708962428601735	-4.206154812683702	-2.7145655086645695	-3.567389479213422	-4.617006290223062	-4.323969830086444	-3.6157419590260362	-1.191676732869296	-3.824350108981529	-4.307030666921203	-3.968237151617517	-2.426480287147652	0.6653839928993821	-2.018310064942099	-3.9224448105008314	-2.6290807657621116	-1.5049551687391107	0.2910214357181071	-0.6679861528697715	2.2499613705095793	2.893073789921643	3.2660696424039912	3.303444377188169
76	-5.169860826791107	-4.6591601254132655	-4.487938392752297	-3.439725628751441	-5.831958756027673	-5.725370869486478	-5.362668023875115	-4.837221133417073	-2.7512814929163527	-4.660162437117277	-4.9717469089868525	-5.417224393518868	-4.631466377009064	-3.3883037481592226	-4.384990204230478	-5.495900140237955	-5.023485647869896	-4.02290152487733	-1.402393218314461	-4.4845538026119165	-5.134493814856474	-4.661703097971542	-2.9024510310326113	0.9755834912464527	-2.406835073116441	-4.723021495338701	-3.370491734578095	-2.051197762078914	0.7881983498700369	-0.6098058208328249	2.029688114763836	3.7158956433892616	3.7377192879722236	3.202161065600013
80	-6.6998557875278495	-6.288967593527401	-5.866570934742776	-4.665878284118227	-7.3172578626902505	-7.148169976306853	-6.409854395895531	-5.596931920225795	-3.775272359853119	-6.199400409305294	-6.288194640495905	-6.53819082516746	-5.225054727713767	-4.466426838088591	-5.705296502013968	-6.7315316030301515	-6.06394575495368	-4.575144756210101	-2.185398334707619	-5.684025750114547	-6.317116721416536	-5.705333695312214	-3.4771914394326053	0.4811349498999056	-3.4993073851928083	-5.729329571563886	-4.572767246145302	-2.84080886123585	0.5318946824949856	-0.6498011930272258	1.1899360388276705	4.082049359505827	4.578449714545262	3.1411096970407737
84	-8.937310196246496	-8.529024102611793	-7.849944571703012	-6.25812433570122	-9.251466727740924	-9.030354477017442	-7.804199675883448	-6.6139783692266025	-5.227986799392155	-8.192369440375826	-8.004818896110576	-7.984482745038873	-5.98128364960208	-5.871047481972684	-7.447818737299581	-8.262217500807386	-7.363806705956515	-5.297457204795372	-3.5024981410288683	-7.335289936619334	-7.763950805135457	-6.972280961553177	-4.123455990871013	-0.7700178007711934	-5.183519827153349	-6.803152544011435	-6.000768646348539	-3.7547907734485313	-0.4144331206348703	-0.6949489099122927	0.03370796135498194	4.1002092257929865	5.996736034511796	3.5252337366745916
88	-11.537614793258019	-11.0593747813429	-10.183387730637074	-7.961677054331071	-11.223906488691169	-10.963602992033918	-9.251341796405791	-7.70208404503775	-6.831728441156085	-10.200382206912526	-9.756046270534366	-9.4278325796516	-6.7650046177771825	-7.3458914571308975	-9.257083869450376	-9.77449796116161	-8.633465745109334	-6.081898673914702	-5.053688513394228	-9.06417749023771	-9.14581964091049	-8.144163111151832	-4.6994557262026415	-2.4263958869708633	-7.028932553664784	-7.632055740160843	-7.230992775780363	-4.563611019056603	-1.6688235956019941	-0.5450819120950224	-0.9500923132750756	4.0392346280160245	8.054650286365623	4.667592036860483
92	-13.941398585406821	-13.379056896763121	-12.394465415179152	-9.390989279878898	-12.695683447255563	-12.398160903145895	-10.337642643577695	-8.581817605286119	-8.155474642190168	-11.657573670518628	-11.011580439422554	-10.4275502895299	-7.367386799331265	-8.534401872068429	-10.62203213870929	-10.800312968642476	-9.484272932902657	-6.717972261633721	-6.388633235060437	-10.345548603640744	-10.001457189104217	-8.835968948943764	-5.003810869934951	-3.9839217562226925	-8.450184800747854	-7.839557151074941	-7.826249579697406	-5.018260466303499	-2.713506930176031	0.005542098064884282	-1.3003867831777154	4.157727231018861	10.556974384356945	6.583680136270872
96	-15.576303442729278	-14.96918197667178	-13.954704249435727	-10.175156567632953	-13.228051152210291	-12.882029500862233	-10.716632815960681	-9.00267026535638	-8.791329361654125	-12.10953804773446	-11.312586755801258	-10.63448712525011	-7.604130248898341	-9.117277122366831	-11.094936342837588	-10.922845812876567	-9.607369398656322	-6.987582665921282	-7.099107247548889	-10.734048816282922	-9.941203092271481	-8.773396469853697	-4.880428778724244	-4.999286638989343	-8.959871269492757	-7.1654586611081745	-7.536544303939584	-4.9658503407034	-3.140329114614766	1.0361149284906286	-0.7969533184911212	4.542645919774818	13.03707024143759	8.908432938018622
100	-16.069467503984157	-15.473986586603326	-14.481526338254556	-10.112491582134428	-12.676278082314322	-12.266125648047122	-10.271409008796189	-8.854594208296154	-8.53595731487456	-11.417004556440947	-10.494910213676238	-9.96362302171927	-7.403190117264552	-8.94496724731359	-10.499788257792341	-9.986788724480606	-8.928397156107867	-6.773850900713833	-6.99517391346071	-10.07255551656143	-8.84592340143328	-7.929505805022647	-4.3122591863477	-5.259140001370385	-8.385219552803965	-5.621695504300235	-6.421811564444443	-4.425954330713967	-2.830169432170305	2.4140622554864994	0.4343454826832903	5.0548243395022	14.881448708155492	11.002638789054503
104	-15.376270255368103	-14.826048813581009	-13.887707675203021	-9.261209464532733	-11.25270936032255	-10.770923587307985	-9.168915725446904	-8.21305654359508	-7.487855892349864	-9.822694753642462	-8.780612923387723	-8.64290044509772	-6.835030538468304	-8.103824595018326	-9.022686935532894	-8.199183443349344	-7.654473762260005	-6.124673827920474	-6.1795444332506895	-8.571758248622062	-6.954014760580008	-6.548168642677669	-3.4474837692958182	-4.831966387946942	-6.942146760579454	-3.5338807016796157	-4.832090842444919	-3.5848715214819062	-1.98229252791603	3.812394609362666	1.9752589414317128	5.411172853159391	15.559072455223955	12.21454426542589
108	-13.77194115022675	-13.264156308063958	-12.406370131640793	-7.918387869870053	-9.426560378116728	-8.880568481912215	-7.777091483508042	-7.295144539534411	-6.0072517243351005	-7.845162848692624	-6.685389978695964	-7.1092066585341325	-6.070484622887611	-6.880431634697672	-7.134396535026931	-6.059992298085	-6.184555514933594	-5.233503328461479	-4.986720549390942	-6.718960745060181	-4.783162581765228	-5.039472090395453	-2.539014094618048	-3.993455161502578	-5.133205877695419	-1.4343690835978045	-3.2552370942898614	-2.7092003753925926	-0.9921851133091824	4.831871497352699	3.298479071872336	5.352950559452628	14.856445274991081	12.171980827117824
112	-11.722259491888515	-11.236754389049356	-10.483014080283422	-6.492666704951587	-7.712240676481834	-7.121624451776706	-6.491077883544465	-6.353432639293597	-4.554574001257154	-6.0515079345505125	-4.788365828822403	-5.80632780516465	-5.294515119536687	-5.639876828259459	-5.383055673359775	-4.1522021188807114	-4.929025160742664	-4.348998535620176	-3.822793950919662	-5.064159857361931	-2.9204542563136955	-3.8009250068067852	-1.8288197471221759	-3.0810420435364243	-3.526684275306183	0.147188722715695	-2.111181253825053	-2.0271005579313797	-0.2564858787736695	5.169573293985436	3.986951817936844	4.797234523105432	12.99807163771525	10.953889819145845
116	-9.70003507072461	-9.234504676392149	-8.590334870584439	-5.334215150716972	-6.454326136505907	-5.840006813563505	-5.560052380829161	-5.563210950157123	-3.4901890666580906	-4.822479712708442	-3.4828057201191145	-4.990179526127815	-4.623918521650923	-4.677980411162868	-4.163033951739106	-2.8954319880815826	-4.131957520543152	-3.6628413107900566	-2.993014089657111	-3.992703666143147	-1.7824416115581172	-3.055582515631343	-1.4429479800986669	-2.359682077172258	-2.5284545357763	0.8951890445996061	-1.5948436219957458	-1.6441262918923762	-0.011138182105314996	4.749109256198128	3.88460349055853	3.880817880369113	10.577104541776823	9.04855725864873
120	-8.029955843678946	-7.622961978739711	-7.055178147623178	-4.604340541658849	-5.713213429331626	-5.0850963464142955	-5.00064085651522	-4.958065974115388	-2.934496633750166	-4.222263802358608	-2.831991903784356	-4.63839052936585	-4.069688309884937	-4.117216099834521	-3.5735587983506782	-2.384573930441932	-3.7838098907306117	-3.233843795241091	-2.601661198723185	-3.593451490866372	-1.4600453339907418	-2.783286802894141	-1.353194114129595	-1.956527228184023	-2.2514336052318145	0.8203622678071718	-1.636756296793796	-1.5357615908949136	-0.27492988040175503	3.747736444547885	3.117064706561931	2.874495737447796	8.315506914124992	7.116947156103701
124	-6.824010354932895	-6.543006880453152	-5.974835857565136	-4.2419929397294505	-5.29827116582237	-4.6497387768652745	-4.635813224532269	-4.443382251965132	-2.752938978874082	-4.028062333427532	-2.5959682399057713	-4.504674423288655	-3.559606066299724	-3.890089978886963	-3.4299895676798307	-2.3893771111243853	-3.6635661032686953	-2.9876458569436135	-2.5613381797972807	-3.677083721413888	-1.7186179117680846	-2.7711312700879165	-1.4236338102637023	-1.8763529014897762	-2.5310168202394356	0.22255141976911297	-1.985822434180006	-1.6132646758356506	-0.9060968137752528	2.508677953108336	1.9912717292101931	2.021258825920982	6.761394483661542	5.683610901787957
128	-6.0147895661129445	-5.912599071833597	-5.247889505488145	-4.034814824407799	-4.914042460432591	-4.226966370400934	-4.225359906019003	-3.8718604943748827	-2.662327998115304	-3.887515773494903	-2.39874696125942	-4.276622761419362	-2.999099962291892	-3.8073685073093158	-3.404347649562197	-2.502208941817906	-3.47707628325919	-2.784627192142466	-2.687557213673555	-3.914397945057891	-2.139405483566416	-2.743819468246472	-1.5054011306901942	-2.0606024213264096	-3.0536692065388835	-0.4661030161533727	-2.354179376380487	-1.8117378904377035	-1.7136356787331781	1.3904708588780095	0.8441451170589546	1.401395794191308	6.074385150831865	4.919005858399796
132	-5.4502582412443035	-5.517530427353755	-4.687627303686119	-3.752379407945586	-4.334941376231839	-3.5916807560838553	-3.6116590408692306	-3.138247958843043	-2.3973166882070007	-3.514062157341835	-1.9383923958476068	-3.747946014478386	-2.334526056117607	-3.671524753837591	-3.2110731520643285	-2.350533002640914	-3.01455854608465	-2.5120568212028322	-2.8149804997898302	-4.011178006535347	-2.323887580726376	-2.501638406159556	-1.5205181798692515	-2.441831582580085	-3.5198743254484985	-0.8747895337906668	-2.544570201171403	-2.141947025613222	-2.5509631569352917	0.6296880825357092	-0.08132971057623647	0.9035291052894565	6.001876339064248	4.6176705243827625
136	-4.992769705564634	-5.140320764915004	-4.146633137724117	-3.265576115946497	-3.5139481932613124	-2.709433310343787	-2.800610296807923	-2.2422289791716796	-1.844023461454518	-2.815927736802209	-1.1261391611277192	-2.9131581709744503	-1.584791417889045	-3.3721203718878257	-2.7358446052142384	-1.7616120532382091	-2.243754619655499	-2.1440031474342023	-2.867221109780616	-3.826258888120997	-2.0562112279476037	-1.9960402199894747	-1.4839265309061556	-2.9615039750668664	-3.75642298703694	-0.8278438428004897	-2.500578397159547	-2.6702451638515408	-3.3431548987859077	0.2829403870114743	-0.6807076913813539	0.3178386382184544	6.055196746797058	4.373683441563712
140	-4.574304569139468	-4.664571273470893	-3.5867743401569117	-2.594412320262483	-2.5766758853707397	-1.7238963798867768	-1.9392900417956578	-1.2900662389609134	-1.0752527686628113	-1.9009306382822766	-0.09068491286985471	-1.9418222855179021	-0.8276540020073594	-2.919439546843601	-2.0474834390444685	-0.8033872226458671	-1.2972772088676343	-1.73749494113937	-2.852671616027677	-3.3830273065984477	-1.3525087799256976	-1.3147622313683496	-1.4565519057692762	-3.552499523730386	-3.7347876931309925	-0.3646453609796885	-2.2719483318188134	-3.440278521434981	-4.049883832243288	0.2655661695451166	-0.9542729234444217	-0.5060821758844357	5.7906384321879045	3.84749125462928
144	-4.196208466425856	-4.111106385341889	-3.071043006772729	-1.872748489420019	-1.7234754518864357	-0.8489292838597724	-1.215999361782802	-0.44166424758981526	-0.2841867797352256	-0.976096866050607	0.9326059794721785	-1.0626161071651747	-0.15896356065670003	-2.411709779372444	-1.3085011210783712	0.2972999505643159	-0.37773427271841653	-1.3796225751376985	-2.807074539726783	-2.794429056741742	-0.3965637971879359	-0.6039656385431875	-1.4712880812691804	-4.117935170267276	-3.5143721014938847	0.3395588091383477	-1.9395064066556462	-4.395680416453243	-4.6115255239405135	0.44621890670650494	-0.9430161094698517	-1.5376450976650606	5.04154776253987	2.9673168584292657
148	-3.891037692736499	-3.598073235010587	-2.6965408257114203	-1.2575333086689058	-1.1042202683226465	-0.23538552165206947	-0.745245574023282	0.16533550578335837	0.33734321509067305	-0.21044215506827874	1.752636666641302	-0.4290349472657899	0.35017642290396017	-1.962089652829708	-0.6499812586586377	1.2996175256341864	0.3593705883489631	-1.1225616903573326	-2.7314305236518965	-2.161514515187842	0.5863677844501972	0.02058790060150203	-1.4845612011621216	-4.533503997800829	-3.1606695572208823	1.0938240262071708	-1.5531861742859794	-5.358809934437835	-4.923771845784003	0.7372226100428361	-0.6820376498168693	-2.5494058067805323	3.9875175852236238	1.9614020536493153
152	-3.6784889605155646	-3.25537394655392	-2.517090314232116	-0.8408354499568675	-0.7391421776229812	0.10987562658463981	-0.504600821651573	0.4742954361384872	0.7022033316049452	0.35669717102592463	2.324120992514727	-0.042381167304802035	0.6771570427010484	-1.6324477154524404	-0.09040159709279139	2.0710432477160645	0.8792864062043927	-0.9511030292339802	-2.5720112258823944	-1.511983510014701	1.441623326476523	0.5237601982244465	-1.3913435900846072	-4.682402122119721	-2.694134228580045	1.7810710623596122	-1.1183484764473766	-6.090040191533307	-4.864900576706565	1.1285965414163148	-0.1972644920137043	-3.218772164801238	3.032529584857637	1.2122459381014825
156	-3.5430745989037176	-3.1448490540259617	-2.5035655435295685	-0.6145055874568538	-0.5249330388167308	0.3123914889554737	-0.3560307612966959	0.5255418406569295	0.8567993023221108	0.8147207477980694	2.7491562297076073	0.232113867412092	0.8462915399165419	-1.409566994922936	0.45781209949301555	2.6268465452629917	1.2654114929675577	-0.7994971255144228	-2.2548842373184392	-0.8097786286889955	2.129904264794628	0.9451439952829608	-1.0960205765708877	-4.505441654274267	-2.0948193020383603	2.3782539307630643	-0.6249308570342618	-6.398750765857646	-4.359514702280637	1.6559281307373963	0.4671411800511269	-3.2897717869669516	2.569617980191415	1.0268795464338676
160	-3.439929953473215	-3.2255253710372394	-2.5590341026546604	-0.49552336210074566	-0.30998015325485095	0.545621453338167	-0.13003936377118472	0.4305245865442555	0.9319050884560343	1.3026648726952792	3.193775645775603	0.5777199849801484	0.9141775346563401	-1.2283487288933466	1.1101553412065266	3.0833413523074746	1.6562044578698774	-0.6007992014021342	-1.7467771724468062	-0.014854635074483242	2.700547926760263	1.3558909858802932	-0.5891840443040792	-4.033831109352909	-1.3467529978128492	2.9170522616170844	-0.08450379946354356	-6.24157760951619	-3.4353253754666517	2.3357617796099706	1.226851102592501	-2.7041075161372623	2.76676558749701	1.45873784650625
164	-3.319287530148047	-3.377093068179592	-2.5732250148655362	-0.38793566725061335	0.013165583800812182	0.9297171807657879	0.27981814671441024	0.3225668958626141	1.0548900339196055	1.9081069182858257	3.7785239124266967	1.123244759584734	0.9532214975132384	-1.0196427081113797	1.9170267533539425	3.5664725213605126	2.164826864498937	-0.3324619821260835	-1.09725808820259	0.8564341642691385	3.2263197817408003	1.8116720869100376	0.024086808724982818	-3.3812658701404925	-0.48359420773480677	3.425402394229498	0.45686957124756195	-5.7489042136958615	-2.233847612463104	3.1174156587094823	1.9671142051622983	-1.631531234436688	3.487838259474084	2.2778766097732066
168	-3.1509032169898026	-3.464370480373789	-2.4795572695118144	-0.2391077572030889	0.4533922064778228	1.471781369308096	0.8654268958176317	0.30841162722922427	1.280407425508737	2.608038180442314	4.509353149473132	1.88243197919507	1.039305684326689	-0.750391541016973	2.817691080608792	4.135144700100534	2.827532522692099	-0.02600123354188379	-0.43087485323839375	1.7158251957488293	3.747723331526067	2.3303201139742953	0.5698298797525715	-2.696128361570616	0.4013720740675045	3.8945975205320766	0.9420872902926618	-5.159444795933615	-0.9629332994944863	3.88709830256395	2.586019032624982	-0.38624367020364625	4.3823552021009	3.0993435304592114
172	-2.9354274198806283	-3.404981366143849	-2.282646173436091	-0.05792360365667635	0.9287986135874735	2.0741717763031366	1.5185619554326621	0.43871310242514705	1.575768943622884	3.282313576994327	5.281611429231131	2.760724537554987	1.2402448622861633	-0.43572711834569555	3.666768064777945	4.757703769115882	3.600701561419967	0.2632329159289524	0.1083418798691518	2.44207715371594	4.255491245969784	2.8977014945303203	0.8997297264271312	-2.10038423007912	1.1876813143307996	4.287617195748293	1.3424018587552313	-4.699929702336699	0.18269641651280358	4.520070064576689	3.041911355921597	0.7183759194356648	5.079168783715638	3.5867764859241182
176	-2.70108389172473	-3.203751079100027	-2.0463666864227763	0.10878965976189639	1.323460933204908	2.596076958777567	2.0947830624144284	0.7013465744431068	1.8608292294250879	3.7860195541161463	5.944710716497396	3.614386072570109	1.597320433398489	-0.12108286439604304	4.3137307058142	5.3434948786293335	4.395987022745194	0.5027617799463162	0.42815044414187864	2.947818033405253	4.710537898568461	3.4861481101711003	0.9782168244459809	-1.6461603599948456	1.7834502413544597	4.574018943682425	1.6791242318674915	-4.47820185484353	1.0926054688524593	4.945894705682982	3.3692836676408375	1.4993354044252964	5.369794832023626	3.6121201424000486
180	-2.489079707537089	-2.9398693964166545	-1.8540474129596662	0.2192316943832455	1.5554983576602686	2.928906671758664	2.488029473698798	1.0349796984291026	2.0690779633734926	4.035276879612931	6.3848342734306245	4.323665607980278	2.104281658581853	0.14941869638388533	4.6865391612938465	5.803232178341411	5.126863466670172	0.7115880829011362	0.5333511219863951	3.2318060316506547	5.0806517472739054	4.068065156202511	0.9098840332900744	-1.3082962003101508	2.17361068176802	4.762666213408774	2.009660000495554	-4.446270454625076	1.7713103249651272	5.186853872555088	3.651273479779834	1.9580385635531319	5.286015974050333	3.291452161108217
184	-2.3365061224120462	-2.7178192070053537	-1.765940780949448	0.2679025524051235	1.6165658194735564	3.0432464999611946	2.6749322346862647	1.3543424572129381	2.1885490362224918	4.054963578476801	6.5780114961484655	4.839473235309581	2.695515148986715	0.35611447602007157	4.828750121322982	6.0991883123903365	5.739094242864916	0.949278829085235	0.5188909755957489	3.382528773350805	5.365708337588143	4.615529048710679	0.8856028892092276	-1.012441274947799	2.431086772502843	4.905887114536434	2.3839824139486745	-4.450730789391647	2.3161170424159163	5.344296918727406	3.9627854724015448	2.240826601092945	5.04039572396856	2.888562195160695
188	-2.263372653968761	-2.610202782716512	-1.7947080090033438	0.28584644126248376	1.5648404320309082	2.987022869197994	2.709821932626741	1.5762000044128115	2.25910138513494	3.9629440207562467	6.589234335475599	5.1844186651942925	3.2542929567190026	0.5060673939325687	4.870322692018803	6.259149058751611	6.214260085628861	1.2707756725652204	0.5161253796897981	3.530305138257857	5.5965814449154	5.0918583741377015	1.0767286988730131	-0.6809662563297367	2.682250016116153	5.071450220655292	2.799977057063428	-4.336745251196767	2.8561081814181706	5.539248452506441	4.317506779260476	2.535640710150857	4.874977099508272	2.6494963102204547
192	-2.264638656620594	-2.6231896811059645	-1.9061964702163083	0.31395998517877804	1.4848073683444225	2.847185604536401	2.6837840012502197	1.6448376137213296	2.3352210462739333	3.9055759808162485	6.528717501369356	5.42009066166959	3.6496605780962836	0.6201756580907316	4.954467284091514	6.355514033483899	6.556882364884673	1.6796369510205549	0.6259578450611489	3.7790405654863055	5.81530426464516	5.451180921143097	1.537657257012564	-0.27041697433862505	3.04608844941691	5.3042559489798675	3.1907782474067057	-4.042694081590054	3.4850332648980364	5.844002232102002	4.65407608764534	2.9652457162378396	4.914072501173482	2.6674127511389654
196	-2.3085057677158947	-2.6978635719849358	-2.0381331392328708	0.37506392503457625	1.4450664483779252	2.7063097885468634	2.6787173680385243	1.552570935144161	2.447436803360611	3.987092961735316	6.498949511332208	5.608947262907861	3.7919456863033325	0.7187712770434618	5.167875276869362	6.470434172506497	6.783804876366191	2.113130087285709	0.8778806306609144	4.160352696405299	6.056127532927521	5.656999096892988	2.1749467794819317	0.21731473450630281	3.5810475259013512	5.60692928805944	3.4582159431884	-3.6300482658289055	4.2212872398610735	6.24729011865704	4.872639643764662	3.53171252312674	5.105111586079338	2.850521795705346
200	-2.341591590691443	-2.7415611674709237	-2.122148508436035	0.46766579033079303	1.4791867695655834	2.619166606012362	2.7419161727343098	1.3477735485381168	2.591245167865694	4.232119072719468	6.561905844333659	5.793265804922971	3.6803438570562914	0.8197009542750585	5.5133919576681585	6.667008383130801	6.925179940859107	2.4731149611021763	1.2358045546801864	4.6349038960738715	6.339722140518399	5.712704167247951	2.7997109819298225	0.7493650894318875	4.264940251072881	5.9516424982486935	3.535411348953583	-3.2358670152982385	5.009235369432974	6.671007616366554	4.9003643865840685	4.132130135593986	5.271803365748814	2.9991779251670616
204	-2.3019826354081454	-2.6715500287316694	-2.1024446434345134	0.5831571206628322	1.5940506418036562	2.614447587088119	2.8884642051249316	1.1247625322554624	2.748844139788351	4.595749366601194	6.735883695762083	5.996963962672842	3.4160985860407074	0.9474441981236804	5.9338674395472335	6.976700765161403	7.032031518348122	2.685820334329185	1.6396121937363537	5.134649740606812	6.68033264380883	5.683250889734423	3.232961884919221	1.2884484496965043	5.0152811877465675	6.31379507378088	3.440793743983119	-2.980834953411615	5.7556395385384755	7.026515942953112	4.746506678995226	4.627941596744526	5.2384939061466325	2.9392776415048187
208	-2.1397798007346602	-2.4501128134856907	-1.949108118858272	0.7300266009019162	1.7913157894684513	2.7097647121679014	3.1195106427587582	0.9941362117463339	2.923317663441476	5.007197844261117	7.0116281332372825	6.239026530726243	3.1678712288030413	1.139981863004696	6.3645601111893315	7.40033815422854	7.176679116249524	2.7531371047128155	2.0507852979381096	5.614838585982587	7.094684106080565	5.687547192518986	3.4027945909418507	1.8131823493955432	5.736884102642225	6.7027945349264355	3.288142672820064	-2.8901309894072225	6.38025854407206	7.275841217744769	4.512963283588773	4.925533282241958	4.947009074118889	2.6314644747099507
212	-1.839542622690196	-2.0986821598472107	-1.6667330222964203	0.9418179965082465	2.080319160931171	2.9201722071353307	3.435818901924146	1.0414339277676659	3.154550782822268	5.41478012625209	7.368792515270099	6.54135940807572	3.1014063280003903	1.4422836267296777	6.776871664103423	7.914263705299167	7.435611706080401	2.7602744032787796	2.4721817907859287	6.080823406125668	7.600893955113786	5.8573508114750386	3.378402939849869	2.3224272669330657	6.3692235785847835	7.166789990450517	3.2441716112245373	-2.872851126093306	6.854717237332174	7.461034279105815	4.355002392263954	5.026162134832133	4.500432479939991	2.1998152677309126
216	-1.4345413410207704	-1.6887594418803962	-1.2996643748848615	1.2545659510408995	2.468363755669836	3.2490806497558444	3.833286275722273	1.2895917859896993	3.4970447928828468	5.803046211850182	7.779589156536404	6.920237046889653	3.3050358211996542	1.8804782581535548	7.184389573078201	8.47518251186638	7.856137255860961	2.830641739374313	2.928536407706254	6.572358114815082	8.204470613746151	6.2782792886532635	3.3240718757627987	2.8229381966844116	6.907950383865254	7.765363673631646	3.4533736618590725	-2.7703204085024393	7.211317521008262	7.683793048532416	4.413154590908637	5.021592604356609	4.111545075526329	1.8694380474575518
220	-1.0013989184845893	-1.3151043620284966	-0.9263572669482821	1.6668111043808789	2.937017433380642	3.670466413767631	4.286066044476575	1.6841273265280166	3.9711561102740878	6.177454932828718	8.203375795633683	7.367764454359609	3.7491497898812307	2.429078095978984	7.612415771338359	9.02586553202145	8.42530248422132	3.0539522093915625	3.4243292722076712	7.118887883332688	8.881935097204176	6.944480878462965	3.4025411519929056	3.3100595390672196	7.3918790630633735	8.527107217240655	3.9706120390779516	-2.442913049252159	7.519557457058643	8.04731271619372	4.752558219354704	5.041646467831369	3.989335526884683	1.8513977480875108
224	-0.6339684112755127	-1.0617207261936195	-0.6381959899048233	2.111479515466756	3.4248938474015582	4.119471539587127	4.733197200269064	2.1088855213326805	4.521728027371576	6.533381922439123	8.584263779901525	7.838268737076729	4.298655499095669	2.9957215710345526	8.055877665207738	9.505709624132715	9.061039901744655	3.428775778696689	3.9120736023360982	7.697513560887912	9.575099920893557	7.752423743702158	3.686286678543973	3.75543617254053	7.864982585123297	9.41693494326554	4.736307132207013	-1.8446271372952787	7.841499785652555	8.591915108922734	5.337960706585201	5.181831823617571	4.2278947723456115	2.2382376137490176
228	-0.4042132188605175	-0.9703623031912451	-0.5045458065645843	2.4664561686232607	3.835761060567099	4.506825435703879	5.086987005741798	2.4298458038017525	5.018482672418661	6.836339933301424	8.86323449758098	8.253940561436194	4.772888171543366	3.440521231547894	8.458539941412795	9.867491697193913	9.636141752709655	3.856265296736644	4.295701969745215	8.224372843004986	10.203866932855876	8.539504983322635	4.124871243552986	4.108360756991888	8.335465410168352	10.333239529269965	5.603616700329767	-1.0471316549566496	8.187985399554375	9.259171462523717	6.051654800394869	5.447027669505633	4.754296290791966	2.9591159745846145
232	-0.32721152819036503	-1.0203789446817864	-0.5371539579181086	2.60944508847404	4.076863755423461	4.7570667146741314	5.26608656507355	2.5489892895238935	5.310103403036149	7.032050114997245	9.003605819858413	8.53194520703557	5.02560328168413	3.6297838596253498	8.732383705980194	10.09436032607669	10.02774426789527	4.191018093971919	4.473344791562336	8.58949086881655	10.693445178690123	9.149645782258252	4.58200310503922	4.312755573828135	8.75761029893408	11.138303728592353	6.400410636001161	-0.20491670020342212	8.500437715049689	9.905231450821773	6.740560037760774	5.741196617890126	5.36067293721023	3.8111588858703027
236	-0.34971529157081965	-1.128868219386515	-0.6741818768645963	2.4894635614484732	4.108094681858282	4.849784838829689	5.237455354818689	2.4443006453790272	5.306087957337058	7.080269795661635	9.013775802742892	8.620071389369224	5.006508814569253	3.499166718231493	8.806155182539545	10.205454800588685	10.168271039085884	4.319196213307724	4.396584976540071	8.714741684845537	11.000466318967215	9.492388701314784	4.915420996653475	4.333147991684364	9.048141456647826	11.705782860765563	6.992198926438191	0.5134502636343878	8.670674302144297	10.356105778296707	7.265309792295284	5.909002765995509	5.797850117350361	4.543320167514815
240	-0.37022057082164583	-1.1753286093601563	-0.7977415899162855	2.17265247750103	3.973490228157599	4.8385348197846065	5.043496596000526	2.1786699240037817	5.040245520264105	6.99030826711069	8.951060272505726	8.522425630033236	4.777708518363471	3.095686427883606	8.674486138377349	10.24511811530788	10.07295605977331	4.219923962429212	4.110897530667124	8.602154710032135	11.125114412829754	9.568561529796783	5.052303778290302	4.177157868329423	9.131137824846483	11.964060753179881	7.318731766342535	0.9913162564044852	8.593743302582668	10.480058643584341	7.534835319568899	5.8119492384085145	5.883813366339868	4.954456316836904
244	-0.28211939263641084	-1.046528694371624	-0.7822090963641927	1.8298320724064854	3.7945363425773095	4.833284842686044	4.795473086647477	1.8745020580648837	4.675360667822314	6.834117395312651	8.900803543506635	8.301290491126217	4.48205517590924	2.574971192534467	8.417513826098896	10.261158917269334	9.831194852803131	3.9779350657165673	3.7519881630582685	8.345609643846354	11.106448145481863	9.45543286797303	5.020439135273828	3.904817094480884	8.990529037664865	11.92051312297977	7.396709423463776	1.2000657289723835	8.232920625881354	10.247562382574658	7.524265270309697	5.405652032555654	5.579133496503641	4.967278467988613
248	-0.021499518250782182	-0.6867051107235117	-0.5530605302198673	1.6629593330359285	3.720921268605455	4.949964510817971	4.6307000996977665	1.66508364257036	4.4361758120114025	6.721835596279729	8.937309242572182	8.051934221919355	4.2802076231656825	2.146831745449522	8.173276880609576	10.282373402384229	9.565333342243898	3.7385394478822622	3.492928019287894	8.09445665223192	11.004568072191722	9.262633300283532	4.920106875395307	3.6162941364538415	8.698497750255202	11.658474892745357	7.296235066112469	1.1932028501902723	7.660630683631179	9.750507330118664	7.276907902464976	4.777093875268099	4.996652113696922	4.648650157635845
252	0.4017741670001441	-0.13156601753396238	-0.1260048743881366	1.8086538269155217	3.8620943925623816	5.252415166945226	4.651831138310187	1.643681998871342	4.504023540569352	6.751497728468022	9.088066078129058	7.863150099928949	4.284786213547189	1.9942702004626935	8.076671579950162	10.309734318452845	9.378630614443793	3.6307392028693974	3.469593993010137	7.988729933596265	10.882017108145664	9.085594154307174	4.8626189109103235	3.42152475446878	8.40185926223461	11.31319329266496	7.110747796225555	1.072576043281996	7.05086372502665	9.174588180266568	6.896661741010455	4.1218895808102705	4.349993694766833	4.177814949931768
256	0.9067479945177798	0.4954311239131886	0.396980821084054	2.272455209716704	4.236068238053735	5.7202048157275485	4.881563174320745	1.8325382424817451	4.928859698249185	6.961475354738417	9.323411917988969	7.78533409060393	4.520934093505172	2.202768558662787	8.198360422416364	10.328302357346395	9.319951987577781	3.7065794374343892	3.723168602126392	8.10112569670971	10.794671985075174	8.98083207724013	4.914711462963861	3.403199425688143	8.26932809649256	11.037607165125884	6.93620107806883	0.9488063430672933	6.620493395302684	8.737473465794004	6.530798895559657	3.668554296768064	3.8673126599900023	3.778013458250129
260	1.3758826221060643	1.028049347189276	0.8749013521039831	2.928590290304995	4.760706412693507	6.258964045934696	5.255493150793655	2.181339019990085	5.604636655008588	7.3104419523681035	9.57651040520396	7.819397429751327	4.925239550553247	2.730316393634568	8.513625123463658	10.32952973618851	9.378291106388009	3.926567544560247	4.1857666863618865	8.411576249819941	10.788878413617635	8.967242218265651	5.07585858017175	3.585294237621586	8.419054963790316	10.963509531951146	6.858325464099187	0.9089090205133002	6.539041979492703	8.613374688336327	6.335195525387005	3.5799577145790296	3.7056343461892167	3.6346087363984463
264	1.704807754027073	1.3271445002427271	1.196131345589983	3.5870654492412597	5.293508516298262	6.748078806052338	5.6566572046514185	2.5924835139624207	6.323894484766123	7.697669486638251	9.782351469137385	7.92909858609057	5.3786148889166405	3.4315094861177657	8.91698072089499	10.327542278918138	9.504342055166441	4.195026863950812	4.71513031722752	8.824224449766874	10.897274943495326	9.042650199947824	5.294690595610462	3.921053161258129	8.860417343657428	11.163833589978092	6.940243226648713	0.9969194506270939	6.8481221026137185	8.871201492800123	6.423931105607305	3.877712239965577	3.898058166198999	3.8282432459498494
268	1.8449066830785696	1.3444482054144935	1.3318774666538122	4.091459740799207	5.699785694990528	7.10094879264922	5.974857792074358	2.9621214791851807	6.880664808067444	8.013745287689602	9.913970922235254	8.068026522293765	5.757906899220007	4.119058598609166	9.274123168418585	10.357398960666488	9.644090628116832	4.419401157665327	5.1583084929884855	9.214781737904346	11.1289939599391	9.198883987089992	5.506965623303279	4.30719326839174	9.480370497609776	11.62524411127408	7.205715161250677	1.2059133022379545	7.431231956793363	9.448689436898746	6.818845731685436	4.426597584038759	4.350542534334539	4.306545723532535
272	1.82066094415663	1.147055503810201	1.346036073147301	4.3916511424766	5.915147766437758	7.306334000260556	6.160500987711611	3.2207319655165048	7.166652661349301	8.195089319519349	9.996734593901296	8.206143358492906	5.985987648155877	4.635349261978509	9.484289145365995	10.456263515775765	9.766061758179978	4.559000480585578	5.413350568455407	9.4840373753471	11.458481759705368	9.425146079109068	5.668168530458537	4.620890128866821	10.085434888171978	12.243496863924568	7.623157005136924	1.4804241619879963	8.054253557851	10.173729870859212	7.425779800740234	4.990580546176851	4.887652861652783	4.907574641235054
276	1.7157617764069486	0.8883275367243212	1.3563716377345485	4.549396026569299	5.969241127202064	7.428368549665582	6.244071467847296	3.3558857356220515	7.209370594896233	8.251738527445172	10.092317555696106	8.340478876037041	6.059247955282924	4.902282225629519	9.52038190345358	10.637374851072897	9.867889379382849	4.6350088002484116	5.458136544752245	9.590901350602197	11.820741623597879	9.698799108813667	5.764061436405396	4.762982356443864	10.479866955047227	12.847660985934356	8.101370791008407	1.7297733978467922	8.458266236884677	10.823405238481634	8.056022623703466	5.331792817959416	5.322658525379938	5.424044595375428
280	1.6354516703322461	0.7369356732836119	1.4683952294469553	4.678634154905113	5.9598955957620365	7.566183547944342	6.311196311275234	3.4078571710377115	7.1359271823008985	8.254942873140207	10.261095021090295	8.485217072998273	6.041168674475299	4.9303421849702955	9.429786658320984	10.873318644727686	9.96206090319294	4.698356616555759	5.338995920053046	9.554254507738177	12.122924774080058	9.974904988853872	5.798850044868589	4.69016646154714	10.544945690234481	13.253064122117843	8.509016015504104	1.8543506813915178	8.46394632109885	11.200798960062986	8.494126298439646	5.307200895261494	5.525755868311991	5.685713276813167
284	1.6606386858021023	0.7986187914712302	1.7174596743137336	4.863992201922481	5.9944791642477195	7.795462111818594	6.447278483325458	3.4403612526817207	7.090811234691417	8.293440797847696	10.523587200298172	8.648635842422106	6.024781688737863	4.793065535841788	9.30007646119974	11.100829096423784	10.053009007821718	4.780391681045906	5.13368557587536	9.430619215997105	12.274839370254126	10.188525174166584	5.777108654695208	4.426224220544829	10.284902546664954	13.32959934683916	8.719131447712872	1.7822732880416965	8.04160306807581	11.203948946322123	8.588384606612312	4.9206695432405665	5.467046723867933	5.629359231087527
288	1.8140828563665363	1.0695961686786186	2.050296063015028	5.107062326888622	6.129311546109449	8.122264841553799	6.682048780736871	3.501407376032233	7.1548771677572045	8.4213905121853	10.840707751560508	8.811335541413184	6.080772384549869	4.583956706871446	9.20951364099382	11.243883104546494	10.120718930441294	4.861853110436183	4.9106459493632855	9.281660056522115	12.22498413814123	10.273429844667552	5.699318394576669	4.047286500249113	9.817171072015784	13.055608716427406	8.661476113385781	1.5033630094718904	7.314361553798637	10.858662577870158	8.31891725347185	4.306694019888361	5.215779291335818	5.320677266992607
292	2.0512275644012266	1.4431412183565409	2.3533110559175916	5.332241521724152	6.339282019822488	8.472858407563168	6.964623433648926	3.5934069065921928	7.3113069349709	8.626289345896494	11.123035402825238	8.920945145018283	6.216836913625285	4.378000725183183	9.188705421136687	11.242822618709328	10.122250531389575	4.88231085498292	4.705109107536025	9.148520446567733	11.984498947403182	10.190089200041541	5.572930321928238	3.6497347262741973	9.314368224469321	12.532726256199705	8.357953050492435	1.0834817858997254	6.498036845013711	10.304902050703815	7.8089613717332425	3.6609039214211685	4.902592646618725	4.921306597682317
296	2.2787289561913426	1.7632046893425866	2.510063403467997	5.443263040151125	6.531544668873204	8.72299955073045	7.182851773246878	3.6688365843650077	7.470154266570582	8.8318156973063	11.263437242680718	8.908575989165723	6.37003610910031	4.209835041861423	9.209398246401825	11.073712320979553	10.011053060051669	4.784965979892999	4.518398273504251	9.040769554200619	11.623392075756295	9.947284673371849	5.428454385403357	3.31451987383379	8.926053024644059	11.948511093490136	7.919580916436865	0.6472372992386857	5.806925758959527	9.740385030949884	7.269144993549029	3.152987472203046	4.661356914195561	4.615579116612164
300	2.3934602676997696	1.8968253087790916	2.4568240580518763	5.390795217255029	6.5940685105732575	8.750567414125202	7.217148762601205	3.655889740296743	7.530155162872951	8.932427383758824	11.177117319497777	8.720038391985485	6.439180834725297	4.072743405549831	9.202244735372522	10.749237987081974	9.762774442819625	4.567834365756145	4.334043491865209	8.93985364564193	11.238164873359759	9.602601980760644	5.32339237776456	3.082319013442868	8.717889763756046	11.499525994831234	7.501054744855603	0.33077353155547157	5.370435701162633	9.343142485871281	6.899009687171518	2.8630745338633505	4.573649871722908	4.52670906831359
304	2.323053115701627	1.786142821570745	2.2052447740190844	5.205348478526459	6.451385481758693	8.485295274292021	6.999383431882699	3.5012116343792847	7.437158088980549	8.840145088764764	10.830913516355745	8.345297792345676	6.34202287980092	3.9329686065558045	9.091360069209609	10.304265949936378	9.39269731057527	4.305279720880702	4.136639584587727	8.811784722015078	10.9074649535404	9.239680266894219	5.3223724230857385	2.9490315839698162	8.656389214594913	11.311195344977133	7.233654003953576	0.22554145696439892	5.198912130581284	9.208079314825564	6.798698884965062	2.7705767084743265	4.643569457728018	4.666563022275678
308	2.0544211812602287	1.4594076835025447	1.8263658239029688	4.974085318404777	6.099537834026417	7.93496368312166	6.546271307629969	3.2064831175910538	7.206109982416673	8.521517732086311	10.252232525690308	7.830342273015931	6.067049488008588	3.749335517953882	8.82871720946012	9.778577779876894	8.954908348362709	4.119572152227254	3.9216401477983953	8.62249372212678	10.659650775699273	8.93308446536117	5.460435853523295	2.8783466743277217	8.64081094467575	11.391826600877074	7.1685828981608335	0.3396466663845248	5.203629957412635	9.320012069059564	6.933063012738619	2.7868962217540467	4.80598734595931	4.939123141216436
312	1.639308806095213	1.0051840518368491	1.4093605244339553	4.782751548135895	5.608243451264131	7.182144146905892	5.95296047615064	2.8371694016350535	6.904491883965539	8.01315591696355	9.520647978587187	7.2662920768387025	5.691554531986407	3.4963002116621924	8.417526223864977	9.211339927305126	8.525691964558682	4.117514123057646	3.6979117300130357	8.35558603084509	10.47324177958788	8.721715905103807	5.714749798651478	2.8276810574665046	8.566574075051166	11.645999879043943	7.262029629492286	0.6001772865401179	5.258168207244421	9.576818442007381	7.167619687103695	2.812799446633716	4.966012942173936	5.196466432803035
316	1.1737196415831515	0.528430818177254	1.0196350787168675	4.662765967994494	5.091244207879487	6.356319411442071	5.350888238748607	2.494360917469434	6.6130494904447685	7.410909633999212	8.7469224708971	6.758810503107763	5.351600156624007	3.181130162790562	7.915884951632964	8.647271134478775	8.178633669231306	4.32696579794387	3.48568581654739	8.026716212034295	10.307792637549545	8.604205109807232	6.006971344086785	2.7739133764804285	8.385745981025293	11.93760964240682	7.40913341558939	0.8968563653236986	5.2669014797748614	9.8492259730579	7.354371052293814	2.7890007425464627	5.050046431189068	5.318864332121696
320	0.7610149364331141	0.11320231826334781	0.6797676665309745	4.577878463631177	4.65941666380373	5.592813477700792	4.85127352443384	2.262423986444911	6.389034255109474	6.837309343241603	8.043991068558062	6.388657076918287	5.174357878018766	2.848197452983553	7.4184408000568585	8.141695955701518	7.959362963608154	4.669931876789878	3.3110818779318256	7.685749511387584	10.141630147124337	8.55278680549369	6.237425788390198	2.7231681278139925	8.130442598796336	12.163603751943661	7.504399280674795	1.139998552305191	5.201198087911938	10.041984532751895	7.41253564870458	2.7106332710493755	5.03718422571617	5.272431360284582
324	0.4724248039715792	-0.19424064408375485	0.37664180898940897	4.459487426942781	4.379389274984365	4.994399534967258	4.504213321757837	2.162496561312682	6.252196773002562	6.401932223369146	7.499247532030576	6.183692439679425	5.2101683485094075	2.5682132179268957	7.024962407495608	7.75535200068329	7.872918585927235	4.995520102286206	3.199152938395083	7.405080299754897	9.993644689123942	8.537280061148076	6.336264594292997	2.7025914123965835	7.891675452334956	12.300670592723089	7.498104076528091	1.3033384051795407	5.094564425003672	10.132226918388312	7.364184360984859	2.6110198431850304	4.9642186039521485	5.12133549350908
328	0.3206839851389134	-0.3863656809111934	0.08395323881172391	4.261324394911356	4.251801003211767	4.604989993866682	4.291157234801855	2.1401746219006554	6.190670474634952	6.166326984095828	7.152301770272252	6.114140971959518	5.403390393920007	2.4102766452970825	6.804028970706	7.533603172355213	7.8874544898212	5.155565725661426	3.1627788463848683	7.252448063659544	9.91218564391945	8.543006875403638	6.302797778429007	2.7364029815250843	7.765317897264574	12.398759810615086	7.418067913400085	1.4276477062420325	5.005563246486924	10.16690347011961	7.308885555887658	2.5305962498669623	4.904466139808576	4.991217123781444
332	0.258363425079354	-0.4882334160398969	-0.21649509613690462	3.992902507237616	4.214614380686026	4.399627674438883	4.148857583061519	2.0964853710649156	6.172955020578117	6.122943385877724	6.981994134441251	6.110304340194302	5.618747220158509	2.406423801068529	6.763367635817205	7.477441768841001	7.948618868786647	5.0810122361645975	3.1887576499539216	7.25568864897851	9.935367559144124	8.569790818512283	6.205023749897786	2.81859874013714	7.792796592110968	12.527180640063804	7.34389350944307	1.581677552044551	4.970347868768217	10.221264813366151	7.352843266042789	2.4883770879862506	4.928361403420121	5.001529680975867
336	0.20126230963914699	-0.5511274323853924	-0.5281124697703125	3.7080449964364264	4.168270577397271	4.294445026999365	4.0094194311003335	1.9471778820467391	6.155136092858212	6.196572764964288	6.910907251075806	6.095314010489718	5.711300835494902	2.525998347580597	6.8412337130437075	7.527958850927813	7.998981455634591	4.817373740431295	3.2296187796114992	7.378741722550888	10.050660107986339	8.616171815099285	6.137389167549015	2.9006059096536028	7.930849532131071	12.710910765027176	7.3508138471026	1.8053103639799324	4.9753107898982645	10.345591518984874	7.537619571728618	2.473997348261203	5.069234835223873	5.204778181286689
340	0.06916263682069668	-0.6435701830827831	-0.8444682338374662	3.4585733326375707	4.014163960812476	4.177487839642066	3.836197128147175	1.6783865647856135	6.083878501790562	6.2717323144876636	6.832067472374711	6.019388183655045	5.604206071055818	2.676666253007692	6.927133542691333	7.5814266013421365	7.996945837811362	4.498717296686264	3.211717597482013	7.526687126230096	10.183818791427	8.663612343849138	6.160541995707113	2.9060516284051126	8.068690279616309	12.899154630518703	7.457540970093638	2.070097679633735	4.964763628822599	10.52992627346332	7.80905864651327	2.4606718954902815	5.308440195032535	5.560605035094123
344	-0.17292608277053403	-0.8311858156199634	-1.155226704541829	3.24982499255792	3.696278085913156	3.954772939233908	3.6398041156425314	1.3643430436973938	5.9062476009023674	6.2405419192111875	6.654170973190068	5.881735310009665	5.330380426300384	2.73970889353456	6.9093413178522205	7.535857658433505	7.930735091213391	4.274133194622669	3.0637750548257467	7.585196952742529	10.230715725817875	8.676145531683705	6.259957774569882	2.768798821134455	8.084467867467099	12.988301244368337	7.609426479201131	2.2833845557737042	4.875256049245117	10.70559212842752	8.042267779072667	2.4251153407857418	5.5831127025788	5.955147251352638
348	-0.4932018505995726	-1.1449499101341818	-1.4459723197669343	3.0340306682278704	3.2308556951967553	3.5951669125386765	3.469383230986743	1.1317905159031847	5.5932869769976925	6.053541168187958	6.348523123925133	5.730504498318732	5.013328062751499	2.6259405546646932	6.7305917569937055	7.348096352144862	7.82263706139598	4.228294838720334	2.7568867136968787	7.478879432869354	10.117160771575765	8.618704774077264	6.3522834617452295	2.4763224062387317	7.9115371504354455	12.88630291546326	7.705874423598736	2.3362722337865383	4.676095950718406	10.781337710816848	8.105794886151045	2.3617465436434864	5.811738476385121	6.252701743551825
352	-0.8005912879758021	-1.5487935503957024	-1.68976950218821	2.752989046775567	2.7128350666218193	3.1553602138962744	3.388161889105015	1.090372917283389	5.171598421391211	5.751569733403487	5.974995598012731	5.642278657019264	4.799963938992096	2.3272609651935667	6.425915701854736	7.069025975499593	7.722366313510712	4.3426408658059055	2.336892837346373	7.218840580834238	9.852060293119102	8.484140374697768	6.338349803180555	2.094543690161615	7.579808216031281	12.579934088416943	7.657133559921746	2.1697666590268705	4.392794121141927	10.69355199021329	7.928519705781973	2.2835709991020914	5.924664959254305	6.352852805310686
356	-0.9805322860757245	-1.9310005854490941	-1.8425964070529084	2.4006931721157123	2.2912278117506064	2.7676494051675085	3.4464521321066504	1.269711729658666	4.739980208827378	5.458476529645186	5.66773746966861	5.6902742242198645	4.785376536685176	1.9345116566453686	6.119086250114758	6.831442338861885	7.691206912649441	4.518890369450274	1.9257407139795248	6.910333139138779	9.539030050989506	8.311403253551857	6.172957404763902	1.7547467902703129	7.2085532960091365	12.162088363458718	7.439028721147457	1.8223493053202748	4.100233544487994	10.444230053281732	7.536358814285512	2.2130553666507313	5.8904299587303885	6.230707629685235
360	-0.9471256112981603	-2.1387901252153085	-1.8554546786192603	2.0552425332631596	2.112612957388943	2.584571116597754	3.6593558695909705	1.5971847732273228	4.445878494482023	5.326892839334092	5.576085076558946	5.910546287872715	4.968580710264377	1.6019939143742385	5.968649849127385	6.786204320940212	7.777707557114885	4.645724761677655	1.6779172378138372	6.705833894965149	9.329980826663789	8.176361063341048	5.9060244411128915	1.5996288020755223	6.94912813339508	11.794836014532425	7.111304742024929	1.4265265428766383	3.886587848387382	10.103280041935518	7.040051919328849	2.1691653673718947	5.72721384509828	5.942272648113659
364	-0.6872224194342111	-2.0485253282325115	-1.702296133511869	1.849386806587156	2.2528548183782506	2.702444308133649	3.9967286485853775	1.9320278118945595	4.420649040505194	5.457902894545315	5.785229668316062	6.280504687664979	5.26227758986344	1.4727436266909204	6.08478783024896	7.016863328383977	7.993711451375436	4.667074668545139	1.7074031786726198	6.722965700341817	9.342470145479913	8.155655840309826	5.6666941499690955	1.7120869116472448	6.906111222950708	11.626201600285334	6.789466363931243	1.1531993121595576	3.8071718119820535	9.774408315776093	6.5847763848948135	2.1583850329264562	5.495961652231208	5.596817002470958
368	-0.2773328714521303	-1.6411740738441047	-1.4108042681360597	1.8888224315638844	2.6676881245971322	3.0996513288440544	4.385648716344294	2.136265034050419	4.70127390628228	5.833592400127552	6.255761130751131	6.718621237004397	5.545492158240189	1.6015034873582648	6.457673056510885	7.47909448642716	8.3015823154663	4.609497535511796	2.0201291986960506	6.970193368479834	9.586758589382187	8.28259179885165	5.59719322698783	2.0628337808025874	7.0779666721933285	11.70776173496711	6.587168676911478	1.1320369215040642	3.853494872854479	9.544562315685011	6.291256411880997	2.1736423914389604	5.279706464788919	5.3140926226916045
372	0.1353387382189791	-1.040436622853802	-1.0762261125095358	2.166230196251986	3.189748040729009	3.623713007361014	4.723692882055755	2.1403491443001172	5.182385431556848	6.301183684652564	6.817463857604453	7.106093388736085	5.724279866071265	1.914840931826258	6.93823669589206	8.001460055176674	8.620033242396664	4.55391024393461	2.490542405516184	7.323548775302541	9.94603249899757	8.519906022495652	5.77038668129299	2.509057992322464	7.350296478787256	11.961253135999469	6.560271723396623	1.3864610160155137	3.9556920428540243	9.44517228602872	6.215786441368415	2.2004475538010935	5.155888544416714	5.182838903693154
376	0.3841526200609154	-0.48107960698737134	-0.8403677919151405	2.5325896676017976	3.5844378380876156	4.043611039442963	4.904196249977714	1.9684085796249726	5.638525471756523	6.627795202687812	7.231038552147435	7.326457958797394	5.767116055233132	2.2367949429305165	7.291297894188899	8.355626085166278	8.851563431326268	4.572169292350425	2.9033386634003655	7.576168994849063	10.227981541559641	8.770129181653939	6.140223010773062	2.852329962204687	7.549895744335562	12.218091933873962	6.684151632599237	1.8194981767492873	4.019177903518322	9.447187399854199	6.343973620610203	2.2257347050739194	5.1711296904658814	5.2362785207152145
380	0.34627187164619433	-0.21314428692886528	-0.8387813546938041	2.754039757451015	3.647244444221769	4.149657715810963	4.849174964105887	1.7116187767683606	5.818650230975824	6.607271654613409	7.294585686386409	7.3095526510703	5.69890974513312	2.3714492261141067	7.302941303888506	8.365310647824934	8.923001266839263	4.671090591081386	3.047479144985298	7.54212568286226	10.26519582064049	8.923148132683618	6.558591826092514	2.931722872007901	7.535279254962065	12.3143443750372	6.876898271364308	2.260333770767205	3.978169431179232	9.492256140585138	6.6150216889261175	2.2457807007355886	5.329425321474915	5.452727304043245
384	-0.009839846727740756	-0.3856490542688682	-1.1406486005594703	2.63142799666744	3.2986838734312673	3.852254380990545	4.539595115644337	1.468256708252847	5.569456563239499	6.166878207849319	6.941877347585749	7.06051395541	5.565000520007342	2.1992890779281637	6.889948350677062	7.996529082136144	8.819843269968365	4.782182204570438	2.816890232603612	7.160216313404125	10.009150479795242	8.91565892829579	6.850871068823818	2.7049045494451867	7.276243191468119	12.187494247183636	7.051076394398671	2.547113650566837	3.837156762925636	9.539120650049336	6.957251054364561	2.2700638713743526	5.5965471126400965	5.774597153389294
388	-0.6102916582911624	-0.9677351688747577	-1.710189695808834	2.1182153171465274	2.6298594408394913	3.2304129518964815	4.032515038799591	1.2904326883160673	4.922068106622045	5.417924390465343	6.2817382653901355	6.662119371760088	5.396646962845724	1.7397230819647382	6.154194339473139	7.380971413097016	8.597968079793683	4.806028353954812	2.2668101730335684	6.540946467097759	9.565137839009529	8.770022370130771	6.908856374463553	2.2745790424139782	6.879247171199686	11.91958805889519	7.163328629527859	2.6038656168999923	3.677009811654553	9.595765089603589	7.3156986051868635	2.3192164839364113	5.916583999954639	6.133839591752313
392	-1.2999863591751253	-1.7535688832832355	-2.4113030372775235	1.3638949359791037	1.8698186827181265	2.501708501221635	3.453401556832757	1.1699932784104918	4.088914860892302	4.61723707940705	5.553727135941566	6.246286376441557	5.201956258991567	1.1447684735959436	5.347996221391407	6.7563590832836296	8.363734224183894	4.683292853928996	1.5938146074109414	5.925500854790525	9.144317603865943	8.587899186386487	6.748682481893099	1.8413776112796183	6.540881617244406	11.697959870367834	7.232391815998999	2.472094052749041	3.6181518940175104	9.714626287728786	7.659859161111154	2.416107410052869	6.2318520388620335	6.47143648421051
396	-1.8963483524128033	-2.452898972994037	-3.057742349533971	0.6505292041566745	1.2843989101406883	1.923574800403145	2.9583606645279277	1.0662748786708298	3.3641676817833925	4.051212300562688	5.016699301451483	5.942615494029542	4.983476626211877	0.6254825576249099	4.760748851200479	6.350225432575621	8.227074602336543	4.444873321755068	1.0450103256544492	5.571097836733891	8.953357673928148	8.49706075430382	6.498118384167559	1.604217048409458	6.449234469343469	11.709758728980622	7.314484100947986	2.2799370231286002	3.7558312321251037	9.94970795980372	7.971482256790446	2.5712654525688476	6.495267851643018	6.742209417486835
400	-2.2526183071483787	-2.8226270604394696	-3.4868070991220734	0.25127127703169294	1.0530294153329944	1.674338574950558	2.6766099862231663	0.9498729085782114	2.9777121468704273	3.8983259102626535	4.825458514428217	5.824847683505343	4.762830722227938	0.3497374346962978	4.5813984755241455	6.266973002823654	8.248723962938623	4.203621376868566	0.8018387535831567	5.620702729339363	9.080457664451979	8.578716256416996	6.319934352177245	1.6602544742628502	6.683019621188521	12.027644127042786	7.453277569072908	2.166224474206102	4.100811947959434	10.301364872673194	8.22585485288894	2.7690377165501117	6.672142488800212	6.909290773113579
404	-2.3054850043263047	-2.7724301745035826	-3.6190760044277748	0.28953662441585615	1.185461041318522	1.7741050675422996	2.6560935907061176	0.8293583372157639	2.9825847073592238	4.1416811838486804	4.959100710746076	5.878575310170231	4.586761463028916	0.3649044325675507	4.807605254433009	6.437831385570989	8.407053926222959	4.0888318912269845	0.8980311728692554	6.026106819197164	9.440340971954004	8.81504819551758	6.316276057508746	1.9558403442593655	7.16169498542798	12.550286261343357	7.636211852821249	2.2006819192637583	4.556640136658431	10.683450671879418	8.380974748432358	2.959999076999377	6.732487184692777	6.935630780829059
408	-2.0890791363424035	-2.3920805393859923	-3.477999678413719	0.6760950667477664	1.5217493734086236	2.0850744194793456	2.8392121720156385	0.7414813022966409	3.2364504255598274	4.578688609960919	5.238805280810153	6.00703094873141	4.504138458324189	0.5826647862982305	5.249818311788207	6.660818083158637	8.603028275703759	4.16209887407423	1.2126018970391825	6.567309839833931	9.810765241648657	9.087681747380516	6.4685916737318525	2.3154647291851416	7.6757249638359895	13.035051312914854	7.786126593958864	2.342928642079669	4.950070368666824	10.93869587997522	8.383581140332515	3.0682144087574095	6.644184095773876	6.78262756542556
412	-1.7123801664987992	-1.890131707187715	-3.164222232459105	1.1607300013800463	1.8178045703769152	2.391376489323683	3.08663939650386	0.7152703386367735	3.4898345382318614	4.926766383129959	5.428157792691703	6.077042087470664	4.529706943519644	0.8340107181473161	5.632252202119042	6.712886316517167	8.706448533011006	4.369106281693677	1.5417433938201797	6.963061315122597	9.947189305940448	9.234559035828045	6.6510758232039855	2.5345377858067177	7.987196902136512	13.214297261253806	7.799009780266669	2.4654674467782227	5.106672274094197	10.906263323904762	8.195020654968742	3.0179021282295286	6.37994240103697	6.4261355237841125
416	-1.311000105408915	-1.481101747588092	-2.799805872524065	1.4694390259836265	1.8720712614477908	2.514042847961734	3.2410375990101596	0.7381420116861752	3.52981518807904	4.9694414013327615	5.361653314405022	5.9839205590802855	4.620832908407981	0.961832461312909	5.73693893891528	6.473779185162847	8.621176697899148	4.560885417867196	1.7066494183366934	7.0138501943888985	9.714156126291984	9.135695434393082	6.709722501980478	2.483786099838662	7.948598841626053	12.934047666319278	7.6062984274512155	2.427437060903171	4.9342179173823855	10.507140133078956	7.821777324001911	2.7684450079639618	5.935321316038924	5.880197033341186
420	-0.9936121081061472	-1.282708880046994	-2.4744951662531105	1.4474503957443428	1.6268939930848703	2.4004611908388322	3.2024605193346085	0.7527053933213118	3.2961213505495537	4.665574062012062	5.032925116229853	5.70545671929872	4.690979468899823	0.8984345174994322	5.514214024926825	5.995810493590061	8.33759496491151	4.577822673683808	1.6384748179076214	6.701182825335779	9.162809348814372	8.782734848736371	6.559485895761888	2.169176096207927	7.576829891148663	12.241186111061749	7.225952607030882	2.159413809092682	4.4700522309932555	9.799915288978296	7.33311031397469	2.3407351911574725	5.34852789482146	5.214873300737519
424	-0.8029797056905666	-1.2730795112892621	-2.216497177249952	1.1320031852752064	1.1938930719750287	2.143880361866275	2.9792406483771883	0.693555293716318	2.906794540695717	4.165501584026576	4.596642005759096	5.318270193024074	4.660289752638196	0.6902152878501169	5.102216230862039	5.481722341048897	7.9450287618316	4.347893703927409	1.3994871342611293	6.1908917270758	8.511098840205877	8.293436029476126	6.241849883532836	1.7170737938444318	7.041937810284781	11.369407625103598	6.768281919557238	1.7112841562934364	3.864672174233119	8.969916321042103	6.848672372692895	1.8157875492028086	4.702445495177027	4.5477733497240305
428	-0.7082428914308527	-1.3239632811498068	-1.9976750561822465	0.7181347590435124	0.7907958010735009	1.9250731419597258	2.685224764720093	0.5392100797390893	2.580338709992229	3.7256679440848037	4.283105839405924	4.964333044869829	4.511191833550521	0.4610473501962884	4.744860637129265	5.179444776809634	7.592811088465493	3.9372973342670434	1.1324697704333302	5.738591179664282	8.032662371382076	7.857521990964886	5.904825672500196	1.295489427156755	6.573901159855132	10.625092479582912	6.3855562048863215	1.2314346997641563	3.306307545897371	8.247858980335826	6.492150767147713	1.301324245028376	4.099984158654883	4.00339745464459
432	-0.6286472662312692	-1.2820199695644192	-1.763829107599677	0.44421860463521545	0.6271414144894656	1.9131747435904134	2.4838130411380326	0.3432960203563291	2.505881064763957	3.5716054349370308	4.274731148417547	4.783720481238917	4.312050808510091	0.3399367621899142	4.656163203881525	5.250322805500312	7.418148975716775	3.521317711522735	0.9724557971244054	5.5509209492726255	7.91358945755917	7.640868644496503	5.716617092958287	1.0196058724410013	6.338938220232292	10.232702229413933	6.191460116966943	0.8880990125168292	2.925904981855354	7.798078994136206	6.331372721899342	0.881956098237142	3.6224388984775118	3.658094396892129
436	-0.4783121037327924	-1.0507192585166225	-1.4714428149266265	0.4648687529748025	0.7999709228345462	2.1779062692968476	2.5033020910003265	0.21565414910705302	2.7381822993764273	3.7825622463093236	4.609099853322858	4.843223559549379	4.185590256613797	0.39514893193615225	4.904268729225578	5.678650364843694	7.47396991750089	3.2860765374187864	0.9723323559053874	5.677238926858976	8.151951769274257	7.696299533486192	5.763943657627617	0.8958587027819669	6.351979239639063	10.220162365859169	6.1929073177384355	0.7747352103700315	2.7318353583981887	7.634887199199104	6.334827407101802	0.5774477705681466	3.2901363289734777	3.498043289889603
440	-0.212882056294838	-0.6326198561908744	-1.114493724870195	0.7787086347946613	1.2509820429688934	2.655278199167649	2.7651250292583542	0.25763717228692185	3.173315278624502	4.256222714168621	5.157016264293018	5.095307814131434	4.233119953912009	0.6079261287599339	5.37558792664401	6.268961413768341	7.692750911363804	3.3165795719334485	1.0815529795996635	5.9882964936700676	8.553167321544977	7.927618483555244	5.993952259189235	0.8334686735090973	6.473132593977956	10.40553567166556	6.273449881927175	0.8513927438221196	2.6108758383636164	7.614732723084218	6.370966418393616	0.3339065602932127	3.0493304652473476	3.4156558427404335
444	0.1436384763667407	-0.11735301435167278	-0.7301895600003206	1.2471013037666552	1.805256839009059	3.1827728667964243	3.1656651416961847	0.49056291456344964	3.6165146736389535	4.7705197213845505	5.687704071943639	5.39277504513089	4.460345733825379	0.8938040114724572	5.838079437774915	6.736341459432802	7.909664134082752	3.540497294070137	1.1857233017548716	6.252692683645842	8.827742554311214	8.130452135539477	6.2374553522939316	0.7147554141118589	6.492793543635348	10.49704739781391	6.244910224406457	0.9594958996389681	2.3999259411301006	7.516531925297484	6.262477382107465	0.06071459859181803	2.8032224107539645	3.2587962068297034
448	0.5057593571291472	0.368119030261461	-0.38465019963424407	1.6802490907208525	2.2635278644633643	3.5799403100227987	3.5228228480088033	0.8255472758430922	3.8936023613854194	5.102339731685702	5.983261570129312	5.5540613987886225	4.754223811544102	1.1511704892658152	6.0640535201511625	6.843179208644264	7.936581591595359	3.763850917850095	1.1773946255521446	6.26453922597433	8.739617325651873	8.09097955568308	6.300954802817205	0.47785472749226326	6.256093009412403	10.252294514520718	5.942646965281903	0.9040475464884039	1.9874359319100021	7.167729359649805	5.87353180356065	-0.3074466280327471	2.4710104403097604	2.910485021872313
452	0.7648079972031091	0.7155424934441308	-0.14788508377884774	1.9351607512253337	2.495740168946054	3.7306566144213296	3.6648554709412213	1.1015731068455652	3.937623490882431	5.13660143509041	5.941439136763224	5.449789510318974	4.935139643606865	1.3061739173336366	5.944069847358389	6.513589842563555	7.65407083486234	3.780513515464276	1.0151869032978003	5.951555237048963	8.228226640907854	7.694555740003046	6.075316413799484	0.1607255335564568	5.756832585105287	9.611972784569993	5.316799627231889	0.5614807591567382	1.3880010808233318	6.547742350259311	5.187771784082311	-0.759026585093072	2.0431919046314753	2.3582882821623494
456	0.8419720509252198	0.8717610217972755	-0.0654596833722134	1.9742059657797693	2.490432732970074	3.629182329551795	3.517992964445558	1.174561139955966	3.8054425620321957	4.9112052793484455	5.617425427559308	5.069695936754692	4.860053527005667	1.3328587975229165	5.533216462470401	5.869902595958729	7.0774450123435715	3.4944782168852986	0.7401142697721687	5.407278047261022	7.44209669141559	6.989733678336505	5.5993876315843405	-0.11908952861759414	5.147541033146286	8.737292267674345	4.471117485201992	-0.046059083077252566	0.7464234810103594	5.809876904124195	4.333724487807177	-1.1976063221258708	1.5985939462355447	1.7132483677524055
460	0.7315151076921339	0.8447393157612202	-0.13743513787856504	1.85592984684621	2.3385577142800353	3.3710045729404476	3.146403304739201	1.0065107320169102	3.620541086592655	4.5786156538758975	5.1865763533297145	4.534678447718518	4.517604816475004	1.2419475285645183	5.008898722400133	5.173254000000313	6.3612556296913265	2.982700817206953	0.44158717878431525	4.832884776311323	6.666070921280141	6.17304991117236	5.040515410094967	-0.23831027686033002	4.6576180340475295	7.928866843232268	3.6242487339069025	-0.7549701313984796	0.2634492509866185	5.203779684279932	3.53446792663846	-1.4909058771638641	1.2638021675626852	1.1586127251936806
464	0.5100134002206712	0.6869887692272816	-0.31420320193116996	1.678179259831608	2.170797104123146	3.100200883667496	2.722937100211426	0.6989206654068733	3.4870011718449723	4.314570892884832	4.853458392287211	4.0460882084735745	4.0561451809518445	1.0568342182179806	4.5717315558403	4.701044070772606	5.7373146865949955	2.460145705687533	0.20006978461297537	4.4277977831629265	6.1823553882911995	5.501774297175029	4.6029229047910905	-0.14838167987554013	4.466936100172266	7.472156505792822	3.011613599803023	-1.3422942127670388	0.0863502023424115	4.941172110480062	3.0038592739559014	-1.5483216008195624	1.1388306588984107	0.855546949133897
468	0.3048212818555986	0.47241437315876983	-0.51132058968194	1.5168484411089855	2.087673181984991	2.9421613142117713	2.4441702304165878	0.4438371647119384	3.4320022973195243	4.228926647953358	4.755531299028594	3.7936406039778863	3.7188506032511857	0.8006706217577979	4.348474968421791	4.621494281544739	5.411782251046036	2.1643087809278576	0.04489761207093054	4.292252529751483	6.136323913340279	5.175328718470416	4.4156756289576915	0.08762457199623366	4.606985080531567	7.491114597480797	2.7746987272780066	-1.6430932241917373	0.2257336968444754	5.0773730149823795	2.8400988507090785	-1.3825119698905353	1.2299947707593077	0.8542766549476509
472	0.23577257931310244	0.2761090986910141	-0.6413066967031524	1.3934328520879993	2.1182053035662305	2.953014604742231	2.4330453811252175	0.4166045476408779	3.4073965463440503	4.324656952429679	4.908040034300285	3.865812530294083	3.7156808282500333	0.49993100636146803	4.347487438669646	4.9249405736558085	5.46994064857376	2.2226352635534243	-0.05122446255863987	4.392303455707375	6.473858816968066	5.243774400823242	4.465095031909092	0.32455030001715235	4.945082175167456	7.886699656601669	2.893798105563125	-1.6380807119973615	0.5460581169646891	5.474621282106865	2.973584644439442	-1.1160879106953325	1.432132240494321	1.0614091131115204
476	0.3577594450024297	0.16002021689544915	-0.6514875276329536	1.284916040037454	2.2240507546539767	3.1060583513040747	2.67928695002256	0.6708981973875657	3.342528811598768	4.520110118897877	5.2128624784464535	4.20745037923927	4.102113236560884	0.19848020324663498	4.483501899843576	5.442068563072842	5.835522160101928	2.5791926318853813	-0.1398979868933049	4.600144851514413	6.979065877460119	5.58838842888384	4.609014499471756	0.4158600856295128	5.259981142115332	8.391952493460794	3.199255458383838	-1.4619538747116312	0.8379191735093049	5.87034891553768	3.2017338195073415	-0.9228558517044367	1.5773009021990334	1.286341902346171
480	0.6328322871443175	0.16377353626864047	-0.5490073547807293	1.1643701762365786	2.3375713766207826	3.3145296489955087	3.0471930426910987	1.0986307831683015	3.2086832442334483	4.71152638199492	5.517986283675846	4.645038593008733	4.735207068885816	-0.035503037184247264	4.64566515703303	5.932527527136066	6.304343684491998	3.0217730922700485	-0.252900599794837	4.7768664239442105	7.385948162504617	5.981085285344768	4.662373531014283	0.2967123977799259	5.362889276315963	8.70916841215453	3.452999344690828	-1.3281912770116295	0.9281135178021549	6.010737880789922	3.2915813839777637	-0.9371302104177871	1.5225806197825624	1.3403608765139854
484	0.9486283039937987	0.2965946786067918	-0.39846581120023883	1.03617989755327	2.405002826340671	3.4756657989487865	3.347016087664709	1.4823688231235284	3.0466208381026996	4.832237231452117	5.692596421174451	4.9689788692904715	5.337230668897835	-0.1275352087377198	4.760968673129856	6.196395381541885	6.6383395027405365	3.296444169304842	-0.3783440580352516	4.844076621223252	7.503396968970783	6.193335994342577	4.505539882728609	0.020467333443941863	5.193453298807957	8.653878190126155	3.4606842907316064	-1.4097639286687766	0.7635726313386134	5.776009068211168	3.0965499799749314	-1.1826299399081284	1.2285457818484764	1.13458323192244
488	1.1742022007860349	0.532869993294983	-0.2898702018094994	0.9413095688895962	2.4106547771625833	3.515883436862994	3.4319960984364832	1.6119805533718519	2.939525835245037	4.875569808094422	5.681488976439311	5.033374773668903	5.6355657435230295	-0.03495264417049062	4.816527831314778	6.1553931080858355	6.6759800742397415	3.245006553086443	-0.47093650579761764	4.8052229759966405	7.291935902304964	6.101764663549603	4.152061928756553	-0.27285388043179193	4.837398993676634	8.23180578060829	3.159704438815116	-1.7413710311793276	0.42301553380976553	5.231236921454261	2.625819199608237	-1.5630748232478293	0.7826865295676382	0.7237405758704846
492	1.2247376411033915	0.8180663565008651	-0.28926807568949864	0.9326810217197612	2.373326295582634	3.418471566152514	3.2706265366948544	1.4010533059032932	2.951532833276856	4.874315249534357	5.515697942159407	4.823306548338679	5.503185258322589	0.21608333235067465	4.8341898796100295	5.867812141862444	6.404474242253109	2.886695616109621	-0.4899395393876401	4.710249412088476	6.858108026355596	5.738224015053393	3.7379627133408717	-0.43988913186591866	4.458423126408358	7.61285732254574	2.6397533350100684	-2.19937228601206	0.051497787107147946	4.5768437270004885	2.026868576654499	-1.9236854266235688	0.34918808848911237	0.26761367849494894
496	1.102033969957805	1.0856447192438738	-0.398205338903228	1.0373387310540672	2.3243369997468477	3.225085250341329	2.9586968347236122	0.9372791624247048	3.075603238923691	4.858938681732603	5.282557474150617	4.457355488013837	5.023483740521269	0.5225927816548233	4.8253922340633935	5.480055795185185	5.9602193681916384	2.4026310383217573	-0.4380921412374448	4.5973224523821345	6.381443484407203	5.264689432203542	3.443025818715032	-0.41797876252502736	4.191584099677277	7.027803880114167	2.0915880150439548	-2.5682547027595546	-0.23577769041137903	4.034497250861237	1.4975222311358067	-2.1436972563979872	0.07682439665471563	-0.06310041977925106
500	0.888234136246194	1.2786462274693604	-0.5481611476409896	1.2310589520844408	2.2856426181306744	3.0128333492506267	2.6655614308769158	0.4371716667105024	3.2276399054099527	4.827777373522704	5.076189505158707	4.1241655245606275	4.442606914747851	0.7404890041729254	4.765751826651715	5.1469340194454265	5.557836041723428	2.0322637506673673	-0.372513859523589	4.457745063971106	6.020677074490414	4.888908373887162	3.3894905958429935	-0.2605071955302556	4.0662345783567915	6.651697618856713	1.7125214295065603	-2.656801455465683	-0.4178717423856033	3.7371866608678554	1.1809651821837548	-2.2033395711582937	0.01959486673295455	-0.1794058079958354
504	0.697076914934691	1.3666610683268563	-0.6379693134413148	1.4407322370393807	2.2597455921340464	2.8569219040265894	2.543966048493485	0.1313521262667259	3.2914249813902683	4.7484011530199846	4.953246580969596	3.9852116007323755	4.035929669680862	0.7498056869649549	4.609641540333209	4.961646544327294	5.382348047018787	1.939808363785316	-0.37826833033425566	4.247770298723653	5.847739204901405	4.762692439452408	3.5738303571115893	-0.10393403444275384	4.003592481041803	6.535049421977149	1.6152818162190468	-2.4021921097187393	-0.5626947269538136	3.6813850309885994	1.1013772459833278	-2.1858038847096473	0.11453612864902216	-0.11509157688170106
508	0.609998224625674	1.3493897880817658	-0.5965452179152548	1.571708317603168	2.232900137032147	2.7946970392239754	2.6508045129606823	0.14364688062163283	3.186948768198845	4.586568343980331	4.913270937912566	4.0932884112962995	3.961662282478233	0.5165829645465835	4.333917130018604	4.926741587597794	5.498610959475496	2.1259002631873054	-0.5200650678855703	3.9380412002319622	5.837789997620616	4.912585722917958	3.868803729779939	-0.08632363357206994	3.8867282769301186	6.612308008665635	1.7828659966278464	-1.906031246141408	-0.7593417744538485	3.7598805332623413	1.1721591919868717	-2.214466804635449	0.22779343964761703	0.005651939180379683
512	0.6327947958228485	1.2466341225620852	-0.43410116324497283	1.5476602276828046	2.1872839872449727	2.8084623742722292	2.919776909132178	0.4295586932781089	2.9206240103415873	4.3412847409314	4.909258830073575	4.368493545946932	4.181214798861172	0.11646248370807384	3.97799180933825	4.973066794237426	5.822979912361378	2.431776755869021	-0.80003386533927	3.5641741662637765	5.909499153475945	5.234458910124105	4.091111172837441	-0.2639167004120893	3.6555337813590434	6.769429189756979	2.0866906590229943	-1.3850448096592258	-1.0357397768573595	3.8462321661162235	1.2642410961657031	-2.3657698571556676	0.2387375974588071	0.05033310490059675
516	0.6966173035199884	1.0830512019469551	-0.24881152745847357	1.3432697023809699	2.111465925607782	2.8359253334924426	3.1988708892167184	0.8065049627922619	2.585581772952014	4.058633317237066	4.878406035504254	4.643253791530085	4.489643562425726	-0.2991557709770346	3.6454059985629583	5.008073794118524	6.169763549486321	2.6310636930794926	-1.1480594844442629	3.235841266091761	5.982171997225569	5.55013035326632	4.095205773504594	-0.5755247459186132	3.3621718798627724	6.919651967698015	2.3531100690559166	-1.065312978915873	-1.3208612170249483	3.8731593987905484	1.2872673240586172	-2.6139600210950875	0.11112082721549867	-0.04172850762203021
520	0.7016328555512402	0.8787432290779259	-0.17952780380222141	0.9945548151655347	2.0036258646923075	2.804836504530407	3.3313705837064074	1.05414724083829	2.31253790271548	3.8131129645396853	4.776757228235257	4.752316462916105	4.635697353103118	-0.5772613272397599	3.4582526596494887	4.965432154516711	6.347688658900385	2.5563681061098777	-1.452850099710202	3.090611211603085	6.015717491220465	5.695629105492966	3.842732181383849	-0.8751468636351931	3.149787418042424	7.04252908835946	2.4438235698034494	-1.0764194699766991	-1.4796535931422856	3.8590876958689226	1.2339528767902692	-2.84321784255301	-0.0902726796970483	-0.22725629749141854
524	0.5772047624320108	0.6502659900460108	-0.32756578839569317	0.5845334515118658	1.8700029802793068	2.6763937405724674	3.2370970167447184	1.0269144747556178	2.200402969526914	3.667940607347006	4.602439391913893	4.620400417106583	4.462622631250051	-0.6400512440734181	3.4887537868155225	4.832784163671196	6.2569846948959915	2.1908352319717244	-1.6172009665666793	3.215728990065269	6.016294464180434	5.598349080256397	3.4126024160055892	-1.012963411634713	3.1665685096901197	7.170322876946724	2.3133597315555683	-1.3991273606261734	-1.3993780577614656	3.875576724757956	1.166943547163614	-2.918602459214489	-0.24311563311231202	-0.3902503540199769
528	0.32482543505674094	0.4190056909472698	-0.6905044299811922	0.2133242929556325	1.723379607617879	2.4755291876280636	2.9521078988881966	0.7197793107933581	2.267469161984541	3.6409099010096124	4.399073112825293	4.301758755313419	3.9939923185599375	-0.520738719579121	3.711848726437809	4.649261939708275	5.937798961906692	1.6753189521453484	-1.605121846914864	3.5860607533514623	6.013722881392737	5.307076917600675	2.953271619969853	-0.9184462404904418	3.468979111496186	7.341280918659872	2.0206534811501715	-1.8875545215634235	-1.0713757249485398	3.984817733240694	1.1642591923882868	-2.7710103918686175	-0.24100235043713608	-0.41310149326930534
