time	FP1	FPZ	FP2	F7	F3	FZ	F4	F8	FT7	FC3	FCZ	FC4	FT8	T7	C3	CZ	C4	T8	TP7	CP3	CPZ	CP4	TP8	P7	P3	PZ	P4	P8	PO3	POZ	PO4	O1	OZ	O2
-200	1.52909135432423	1.4166747295851665	0.7587818484222422	0.05318163321896262	0.32773011840092403	0.9959428285249148	0.3347180179251361	0.16332897502670563	0.0025827924190072447	0.7030298096073141	1.0574303838735188	0.8855063892895798	0.07591740767861964	-0.14288684689685952	0.6451364143295917	1.0304049227448522	0.7871042470133022	0.5816338643647981	0.07709665577020104	0.3641518643245167	0.7579104881224707	0.5944150075210054	0.31537029067524786	-0.05858409762492606	0.06556571258442052	0.37689787054271756	0.25799742275903476	-0.05360127226886367	-0.2651850574473849	-0.08260790982847578	0.01952771465020402	-0.2856679849564768	-0.010358270231559292	-0.204003691158219
-196	1.5679238995066438	1.3253930773650688	1.2066482275061794	0.6987809521198725	0.3421632042829105	0.9967585180866065	0.34100797686311296	0.2637078159350013	0.7708507756798265	0.8871193505777744	1.2125791280649358	1.0775117846940951	0.5463946447882413	0.6823886019644207	1.066181895425215	1.2870570388723805	1.0230414841571809	0.8953719116493153	0.6314291938098473	0.8677429534938215	1.0756040784382304	0.9058511830347534	0.703772066246828	0.31999245205197524	0.5746459946429083	0.7323000412571993	0.632976649593599	0.37272170091939605	0.13853630388568783	0.28312253880544797	0.4226305474101333	0.03036763883910629	0.29335969612441976	0.1524763699496594
-192	1.284100529289696	1.1426789731739728	1.3710224593833498	1.3309044804349552	0.42396858227499545	0.9267077422586766	0.4358100880110134	0.5170500861465088	1.4448722564457372	0.9794539784498154	1.2304520575928701	1.175458785904017	0.9732887124283939	1.3583619560278632	1.3444124426277186	1.3388779129557178	1.142479536033058	1.0595023605299698	1.0834339829747361	1.2024430006186033	1.2264397113353	1.0838071080500882	0.9111659503820222	0.6082368477723635	0.9321881509133579	0.9554509496407884	0.8655070044600075	0.6400942190221925	0.4282728720819382	0.5370403514654536	0.6985439640528438	0.2591723197115586	0.5066052066410193	0.4182277013233032
-188	0.8050377944648199	0.9177558994963961	1.1733937233863425	1.6991400675789803	0.457181571759851	0.7131026965256996	0.4784505653222561	0.8306841829308003	1.7374902919770894	0.8851427413527233	1.0275257799908908	1.0677812072497903	1.201864001100717	1.6271812874719624	1.3648900951257612	1.1252292366228753	1.074345943599488	0.9888054107496611	1.2862060037564262	1.2439945904795158	1.1258337469286612	1.055691954808389	0.857515928964436	0.7251653652955983	1.0152987216111167	0.9546826457715734	0.8669508077667566	0.6576079709616172	0.5065397011365765	0.5874838218161539	0.7470228653167074	0.3161854437951381	0.5551413283637227	0.4986473905371484
-184	0.34800425083989484	0.7298552971532641	0.7501603942051176	1.7038987831965433	0.39787170190494014	0.394977508978211	0.41754865540941405	1.1189336748483039	1.593389626294766	0.6490657909218438	0.6654520614035437	0.7826354483871946	1.2028715580134564	1.4809993468086267	1.1801629036671035	0.7513400893315337	0.8724846221830218	0.7359212618367406	1.2542043892666048	1.0498791906552791	0.8447823503146393	0.8822835661547113	0.6161850675284497	0.7108423095875894	0.8699204899759031	0.7833277563345129	0.6974012238060951	0.49123734111738043	0.42196720732010273	0.4885351645533104	0.6222033484962263	0.2513971024364961	0.4970061170427571	0.4410554159472942
-180	0.11134962709447194	0.652814327022304	0.3669133773123108	1.4231896364519576	0.29795917793386734	0.10882036360445879	0.31882846274941784	1.3323193754890612	1.1930805414595018	0.42566293370542524	0.3164500586149503	0.47173684716331854	1.0678393813829443	1.135128733630047	0.9622160172010702	0.4226186562835306	0.6772007329055585	0.4575256991755929	1.1258643837159983	0.8039337376324328	0.5585929141246616	0.706957934502029	0.3592792144287531	0.674943564618258	0.6594950540104416	0.5910446032860456	0.5133270608339481	0.3066404752141953	0.3144394151378185	0.38542592428171485	0.4804639506130407	0.19384138237173495	0.46336576225594095	0.38226845763967754
-176	0.17532595947822768	0.7160546761553925	0.2602515810117817	1.0521542999406117	0.2669929557258252	0.012108246765262726	0.31506511489476835	1.457692738667397	0.8317621925334863	0.38369586966915475	0.16549441176592838	0.3225568822823171	0.9384393072276839	0.8803470112508482	0.8902560450011598	0.3243664792931292	0.6270957573316829	0.3219320169903919	1.0607546541135389	0.6955196839892208	0.43996080645108016	0.6605451090347986	0.2500360899811311	0.7113661152045531	0.5540282116253527	0.5238910304193982	0.463245778106311	0.25858232313673896	0.31299504558694546	0.4094728221091859	0.4713613080998593	0.252666532355395	0.5571268186808228	0.4445144820911335
-172	0.46298476936749855	0.8812287427587844	0.5004507886649195	0.7914041856811873	0.39077582856699	0.18396012438581846	0.5061727153396209	1.4976711235380797	0.7429245095569437	0.596441744252186	0.3013397447607357	0.44452389962498423	0.9111884213330458	0.9009420252941572	1.0359426710676627	0.5129173981114412	0.7708072642892503	0.40993168846583067	1.1330403060916798	0.8017395714545009	0.5562006817126411	0.7779506425289665	0.34479465993613306	0.8301442244551432	0.6240158661346249	0.6316849573399327	0.5929960593510649	0.39262589713150237	0.4488045561903332	0.5871547445731798	0.6377837641825974	0.43678477296224216	0.773658392860238	0.6452243311804134
-168	0.7821444253247747	1.0512428257150077	0.9508048271969217	0.741941450153145	0.6589845998338739	0.562447248469331	0.8733941890599979	1.4496009313224092	0.9666209196481398	0.9831711029025583	0.658533154255485	0.7948040346105918	0.9776254867666573	1.1672774523828027	1.313472506067956	0.8802380539604738	1.0312114927959164	0.6665084941248756	1.2841652599337587	1.0408943865245213	0.8301336148284	0.9768191551341715	0.5629445896240812	0.948255953778827	0.8012905100618969	0.8377537706204707	0.8178817013118173	0.6193824990847081	0.6365496500156388	0.8202908018382665	0.8871230460657411	0.6445532424865816	0.9953858827255397	0.8790708162047844
-164	0.9302379465458757	1.1116671534127927	1.3440414633195732	0.8609276988227654	0.9483379697698309	0.958847758733317	1.265499946260181	1.3025596108928716	1.3340500559503898	1.3372709717366305	1.042616603126313	1.189689514017502	1.0317323181806488	1.460034009108263	1.5215134582251981	1.2086639373781045	1.2422783343421864	0.9277536249579097	1.358471151736816	1.219018098614475	1.0819768878322358	1.1049723597285235	0.7347667794750009	0.9393607950335849	0.9224241352634186	0.9830723976110594	0.9720085238711402	0.7691495399129424	0.7280370574689815	0.9433779096627248	1.0450377437909766	0.7236179095118466	1.0586475107167594	0.9778643821823139
-160	0.8008631447599364	0.9861978267566108	1.4309470617405995	0.9973111127469241	1.0765609714030386	1.1458302707352914	1.4691549502473442	1.052748677456811	1.5700002869067968	1.4282457792461989	1.2249885766572621	1.395000811869502	0.9385713315155281	1.505660530103602	1.4532458745505115	1.2836445537583157	1.2377854554396504	1.0106235717053178	1.1978530853546179	1.1405369014554432	1.1263858051471771	1.028083202627423	0.7021129113590492	0.7107612472708995	0.825947103799236	0.9174567437850237	0.9052298046145388	0.6955661160073836	0.6028871521033445	0.8224127271869132	0.9594082808113695	0.5628752694223824	0.8526779987741664	0.8133360722987882
-156	0.43152758370168104	0.6795302016267889	1.115000602768085	0.9813311075229875	0.9029262639137202	0.9763778423453687	1.3275173868995005	0.7222763281706293	1.4507178031533907	1.125061509152901	1.0591514083824183	1.2492603032042584	0.6256195887029026	1.141108986834553	1.0144207451957918	1.004734513607088	0.9435099935552137	0.8150406459257712	0.740128992119391	0.7210130673324491	0.8720055796541715	0.7079523187883063	0.41288220778173035	0.2637016170519603	0.4479407656804291	0.5860001430021508	0.572062252507708	0.36715060379791786	0.24287997124862631	0.43745157012166097	0.5936968311579199	0.16266660351215023	0.3920980383987042	0.38166725539166846
-152	-0.025955775687131578	0.28054857183196613	0.4982314097223112	0.7195603829336509	0.41649597778069364	0.4670530247817267	0.8381754734811919	0.3630312075986015	0.9259328222739082	0.47250658154400454	0.5556675181664713	0.7511771898377738	0.13901393080422833	0.40962806240611144	0.28369858789342534	0.435413448903357	0.41993513597322824	0.37902849816947937	0.06284187718260996	0.03904151534117841	0.36861994769488865	0.2256121033694406	-0.04663509863761734	-0.3001310519747096	-0.13857640291035922	0.06133527293216801	0.06054002403829226	-0.10909204902523968	-0.25431618030235614	-0.10070732955540411	0.05299885185093006	-0.3599031260463643	-0.1820508833103547	-0.18334688199959515
-148	-0.39147555729256406	-0.07777941952379873	-0.18033374800451704	0.24794441398963163	-0.23953920542320625	-0.20089323767962958	0.17071242587380975	0.04071791459770527	0.1451992984920496	-0.31951245584881094	-0.12050420015428276	0.06489471329755568	-0.36871805693994125	-0.4590337562892476	-0.514852880131701	-0.2289960825622137	-0.16424027043837577	-0.13993792200520358	-0.6471191032283945	-0.6953889710035585	-0.21700185482550555	-0.2578662627385377	-0.4952453660382151	-0.8234984853934003	-0.7553820590974824	-0.4896295058286237	-0.44970545059151634	-0.540903566902172	-0.7226185780400655	-0.603410838511019	-0.4669477629793191	-0.8273704031082341	-0.6685687882709799	-0.672269819469674
-144	-0.5529180751192138	-0.2847446196042701	-0.6730238182241791	-0.2880635850309186	-0.8275574424830671	-0.7676115612676861	-0.41422676935517894	-0.1941157723532657	-0.6216055139106385	-0.9715557073859248	-0.7290416937541343	-0.5612411484853461	-0.7171483617796149	-1.17073404493389	-1.1146028013698583	-0.7570351343115094	-0.6143652781234068	-0.5477284179210127	-1.180763360857055	-1.239065643996904	-0.6823807341513303	-0.5812751040088008	-0.7524162511902364	-1.16468298141157	-1.2027865617902211	-0.885487136989366	-0.7769904117040592	-0.7514744978051628	-1.0077078316995567	-0.8965742565406889	-0.7790577988028741	-1.08651613914829	-0.9025122500521556	-0.9029877163023285
-140	-0.5167050348587753	-0.3101076475897036	-0.8471618273327102	-0.7065649014753724	-1.129590270051501	-1.0226223442961786	-0.7013462764198837	-0.3311936250907879	-1.1191314430591692	-1.2639501062906442	-1.0660462352540487	-0.916772303650796	-0.7954253534261617	-1.5152139625440815	-1.3283621039231246	-0.9866589282874291	-0.8017224649214936	-0.7114028912702866	-1.4018074238670875	-1.4251986706036845	-0.8815146066344054	-0.6576470716084911	-0.7291294913956667	-1.254734632185188	-1.3469895090427209	-1.0105099652526626	-0.8225514867995999	-0.6677041632960511	-1.0323188278837578	-0.8984822608197767	-0.793859777830444	-1.0712615224494384	-0.8260602930193787	-0.8047209957786385
-136	-0.3870792975189651	-0.21722796504489011	-0.7347232680844247	-0.8757947065176213	-1.0537160608390734	-0.9055241323496966	-0.6354699714829033	-0.400388537826549	-1.2201303212831756	-1.1326886386883928	-1.0510288450408043	-0.9266212559193258	-0.6201983674603337	-1.4543539248940882	-1.1270583839571244	-0.8882486201748377	-0.7156283837370353	-0.6166154130626416	-1.2973765102055794	-1.2291228740177347	-0.7820602635665643	-0.5047064410818484	-0.46382814528661864	-1.1123753758002257	-1.1680598229481491	-0.8557578303665798	-0.6070203169755692	-0.3478580108443076	-0.8153123238959715	-0.6440843327473175	-0.550960181752575	-0.81455141100269	-0.49959045522440365	-0.4403072286456401
-132	-0.29526889249640004	-0.12472382156353586	-0.49038702125716155	-0.7763117532203602	-0.6764579994288875	-0.5280083404561527	-0.34818977029628984	-0.44723954683873945	-0.9676113104232272	-0.6880854946883798	-0.7512038331139212	-0.6753519160385831	-0.32451963342749285	-1.1154286833257812	-0.6425732954014316	-0.5627098665335483	-0.45596668009078395	-0.3606448164417543	-0.9681183671350513	-0.7669342736908134	-0.4682734298804216	-0.22524252477044387	-0.09303626394624309	-0.8193909505183644	-0.7551463823326354	-0.5104717599378368	-0.24894928869336289	0.05792505279459879	-0.44680616146767177	-0.2539494925286237	-0.18561045778619278	-0.41510075225931387	-0.05765743911610384	0.03674852093716809
-128	-0.32342284836175	-0.1388951089451686	-0.2951084963977144	-0.5075958954393298	-0.200081765146545	-0.10940963002238174	-0.07990545014234382	-0.5029896485027172	-0.5344520197726171	-0.15299810430522234	-0.3383739582101715	-0.3515328756040114	-0.08610652365402374	-0.706675885323664	-0.10075657044244486	-0.18523511243782861	-0.1771911974247971	-0.09152131504555366	-0.57395845506716	-0.23790201484697174	-0.09762050186782789	0.044868469124999255	0.2218265676858295	-0.4798190879628439	-0.2626852386518165	-0.11802254587416375	0.09504611766183368	0.38607707522191964	-0.04376356665171655	0.12568627266145532	0.14303910696155384	0.011973210580219863	0.3568191519311495	0.45906719449488215
-124	-0.46557801844351654	-0.28962024973226486	-0.2588461034915265	-0.23574852883899627	0.15124741158446084	0.1389777209826187	-0.03845738609856407	-0.5673111662846569	-0.13089451160761822	0.2433619940097079	-0.004023681850258308	-0.14461678230013042	-0.03235054380474584	-0.4082556058589784	0.2782292657026442	0.07325423490387606	-0.015252293049033718	0.06968481076051372	-0.264332919645505	0.15750548203756332	0.16416592854536738	0.1917137051748821	0.3683919897315207	-0.18463027430649742	0.14677831493513022	0.17763271882985607	0.2942090325080023	0.5311303125323159	0.2868012182624078	0.3765313317805967	0.3192019156503152	0.37005808856039835	0.641254006197304	0.710700152510159
-120	-0.6418271048553724	-0.5082303272767172	-0.3755981614643492	-0.10981112690857509	0.24102829335870907	0.11824969172424868	-0.2750111215323788	-0.6129583700916806	0.08658958949638627	0.3624384394078069	0.12361919103644425	-0.15174528918101265	-0.17908902421081518	-0.30031332297797253	0.3640001705039463	0.1100005281174513	-0.03512106454445886	0.07779299448161205	-0.128847971233261	0.2858768098289201	0.20074234852176162	0.1566435690739649	0.31907546439674345	0.00306954024515922	0.3487991681829349	0.27268147399721443	0.28228098082798897	0.4739570903732739	0.46397253753822243	0.43327325473113293	0.3010424963979913	0.5894598349947587	0.7462903242342673	0.7519994359103744
-116	-0.7523164134104896	-0.6648499948881876	-0.5491606579267045	-0.19041547131146822	0.07844577709896342	-0.11871699213810792	-0.6501254422939853	-0.6076562985337169	0.06497551484392532	0.20107060620087214	0.024188423468197412	-0.34008562478986487	-0.43370589504414275	-0.35805240183076104	0.15251754185793406	-0.08234874138306612	-0.21754136626632786	-0.03433420872960436	-0.18179893447752526	0.11496450722994134	-0.021122138893920183	-0.05662944526083871	0.1207161244682466	0.04861034813171288	0.2844288639993697	0.1254981007983745	0.0643990708751773	0.2646949284546343	0.4373236287519736	0.28349327969501487	0.11264628888538382	0.623100398397831	0.6635032875475325	0.6063940509744954
-112	-0.733958898121755	-0.6437422616918151	-0.6645019633682228	-0.4191250790504535	-0.20116323181861923	-0.4074829806530281	-0.9097076035419848	-0.5372859226013081	-0.1461523767596018	-0.1283907738066657	-0.22095057312493846	-0.5772660956113298	-0.6519412381878383	-0.4965286540369893	-0.25115299161443483	-0.42576745044977504	-0.4808942365425879	-0.19005936336215673	-0.37432965541744206	-0.2889584593629946	-0.4453749347409386	-0.3918753554463856	-0.1430656012260896	-0.05358915389955338	-0.028845978827961118	-0.23600698947925103	-0.2971474520810431	-0.01676837909458389	0.19459722887022335	-0.04120095063774548	-0.1839160020476349	0.44941085463545777	0.41089731351107645	0.3307078770394173
-108	-0.5874940142103847	-0.4153844107630838	-0.6579312069494181	-0.6512528045424207	-0.41920664800662266	-0.5678311572043646	-0.8317140915852739	-0.41578018560339314	-0.43474584708123576	-0.46472146989793434	-0.47808959959440767	-0.7100450378610866	-0.7174519282346895	-0.6286219938619482	-0.6873527747920058	-0.7950629571868424	-0.7230993491036098	-0.3152168981223057	-0.6208477004588774	-0.7914029935882948	-0.9472306346819894	-0.7593527417084595	-0.39170715113925414	-0.27530974080194953	-0.5012306558351918	-0.7204371076514385	-0.7063518148708384	-0.29717072769476915	-0.22481602373583037	-0.47228181242912404	-0.5157118426653905	0.08794137813299562	0.030110608710322548	-0.009278617775855817
-104	-0.365729331046837	-0.062264866969738	-0.5463537560020286	-0.7335665803508338	-0.449943302925892	-0.4996154891751461	-0.36152619032182276	-0.2764003269846514	-0.6779873950053179	-0.6722060424999254	-0.6246650799238793	-0.6448792202880352	-0.5976270422151968	-0.7002356034719432	-1.0044699881942427	-1.0642796727966557	-0.859783647273835	-0.36711999681290297	-0.8263270238040752	-1.232694861160816	-1.3707419599257449	-1.0555888387731878	-0.56796139335287	-0.5482472763524725	-0.9885972713306309	-1.190085646485679	-1.054909822661621	-0.5231773840093042	-0.7189899068799459	-0.9072673893910412	-0.810473916868545	-0.38080418013749984	-0.404096423559375	-0.3450175813070302
-100	-0.13866424525537518	0.2590140097754348	-0.40377423065285506	-0.5848031625287935	-0.2783811681394708	-0.22807352187270943	0.34122434172310134	-0.15029263458453684	-0.782599625995775	-0.6894333345172827	-0.5979649409455754	-0.3907734741835273	-0.3470051577866922	-0.6908904892644278	-1.1065198155122753	-1.1463710040713286	-0.846357641467431	-0.33571731959459494	-0.9085346437404113	-1.4730424843790697	-1.5756425817762794	-1.1854331463448375	-0.6369270666254038	-0.7701145391094196	-1.32797670029098	-1.4935874901255384	-1.2427394358730046	-0.6555876715320561	-1.1351006002377841	-1.2218204705861593	-0.9991260145711077	-0.8163911083590376	-0.7822647074976277	-0.6041064843184362
-96	0.036914419289610645	0.3972258855804293	-0.30820664685635923	-0.24473787782390685	0.0029816958046674814	0.11653693735979091	0.9693482493722415	-0.053241439029263135	-0.7079555374391161	-0.5404655323688237	-0.41601720347274407	-0.05149327205531761	-0.06862341595251692	-0.598295687118599	-0.9771708225374585	-1.0213714812240804	-0.6870824677286319	-0.23187567235100973	-0.8202629068645821	-1.4347270690934217	-1.4867657385482183	-1.0919564934817834	-0.581746874771007	-0.8361273982872356	-1.3914705479776583	-1.5164864024975337	-1.2051234214873852	-0.6651576740637414	-1.3174803223725344	-1.3044548001733651	-1.0257379982800114	-1.0599635812700772	-0.986400720966914	-0.7196542602489351
-92	0.12794688311698288	0.2840064756852353	-0.29306060001769196	0.13820610905562702	0.24692752895000847	0.3663660576630426	1.2140216796741476	0.01346192878066148	-0.4767608034494624	-0.31595674077371233	-0.16817752974487957	0.2229386264417575	0.13870438898353005	-0.4326648701234465	-0.6822019798221002	-0.7473020534721304	-0.4344582248685983	-0.07930075357204361	-0.5710037336238144	-1.133595344542427	-1.1309405536708337	-0.7877694348473161	-0.4098905314587172	-0.689139960456439	-1.143488761875847	-1.2347724406538616	-0.9432677006748135	-0.5439876900289984	-1.1792603701381934	-1.1076184483220015	-0.8715668298650876	-1.0064736579279534	-0.9417614913051421	-0.6567084772695828
-88	0.12017254501042864	-0.032063171186557736	-0.33100536382074014	0.376146106962386	0.3239747575686543	0.3946048607400161	0.9159072018387102	0.05199674503788359	-0.17057935850468467	-0.13473457063989994	0.021104611403110173	0.301476746036406	0.21716226582535234	-0.22356639746010812	-0.34795328886874055	-0.44466107971458846	-0.17705543294550272	0.08434769489927094	-0.23404018521824077	-0.6817291957809355	-0.6392789466930132	-0.36794540193166864	-0.16690136450113807	-0.35969933776639174	-0.6699970347654819	-0.7420257311206447	-0.5407849536593685	-0.3263969711169211	-0.7588095645819928	-0.6875922066494641	-0.5804724082596373	-0.6689509732523148	-0.6674265248613883	-0.44311681277932413
-84	0.009355889609676569	-0.4138343323749685	-0.3610008647864211	0.33463665758522315	0.17767366722071337	0.1667738999686077	0.14548270367607985	0.05713035896897611	0.0938631517305438	-0.10131467108180957	0.040742162512196735	0.12440597234549297	0.15617008467822582	-0.028740232737815962	-0.1205682825978351	-0.2555566721662896	-0.016192259226091018	0.20257040807124627	0.0695754138858853	-0.25395169790047484	-0.20646402187672344	0.010429633754981602	0.05701547101646161	0.029594603851224182	-0.15795028169807668	-0.22886861802968334	-0.14956629238513777	-0.10012246643060282	-0.2245298022323416	-0.20425975271152758	-0.26463627748432345	-0.19451215814118245	-0.2916520826605609	-0.1809894885023579
-80	-0.19647817264065143	-0.707265256049715	-0.33281952058686604	0.008819075279023534	-0.15612615605513727	-0.2502915852903157	-0.8213565328841599	0.02206145780178976	0.2093454445083417	-0.2660870843368159	-0.15800392587823908	-0.26994204453025383	-0.0201932228591828	0.07858008871504506	-0.10982777150558659	-0.28228402066486485	-0.027280798113014048	0.21132919138958656	0.21911644880286324	-0.017636524468835894	-0.010021015045078149	0.1901041115491089	0.15169721803512268	0.31428751270099187	0.18262518896247681	0.0945516300794449	0.06799128634452808	0.019830932790636625	0.19415882180784602	0.14072707259887615	-0.06580834074094677	0.19614218125890084	-0.0024605453883573556	-0.01034540214757832
-76	-0.4643034625251799	-0.8171947577825153	-0.24115672646671457	-0.46456098439228183	-0.5680308923685027	-0.7199178915921111	-1.6217582184854102	-0.04878424095711575	0.12886646357425588	-0.5991090520991504	-0.5317539559290263	-0.7545528392814607	-0.267428933898934	0.04774837556346984	-0.33613371764194455	-0.5312349186836326	-0.21976128165073777	0.06978718918823758	0.15633885522948124	-0.05287102223995138	-0.12330434440237435	0.0919739452662546	0.040378611432887714	0.37296533490430034	0.22183571699877944	0.10128688041625321	0.018615495366542185	-0.050313219301033774	0.3214465371599221	0.2032155389423439	-0.08369429388373159	0.3215250066745708	0.04782288509454126	-0.037389978672040726
-72	-0.7279703002670016	-0.747429070969826	-0.1338357624012787	-0.8691992737759417	-0.9212464666949197	-1.091330167876065	-1.9619910667474985	-0.13615030015903062	-0.10551936152758412	-0.9921655033811008	-0.9532206034435691	-1.1584349841434092	-0.5293517099367088	-0.10974060716340325	-0.7101536971282378	-0.896559772612045	-0.5209746347625464	-0.20802172965935067	-0.07682728002939936	-0.30743786614998725	-0.4718824315078149	-0.23674458205532303	-0.27084404161736253	0.19604277561282765	-0.01957216108864275	-0.18267062260284214	-0.266991316598098	-0.30911192219892225	0.12977321413177337	-0.024111371426503714	-0.31512460033010403	0.1385245021660521	-0.1725517208988062	-0.2718337171367144
-68	-0.9005875564725729	-0.5852950796608828	-0.08358771332856169	-1.0145279143468273	-1.1026622029121516	-1.2536739079294432	-1.7372925237662238	-0.21227130240252778	-0.3752945950092746	-1.2928850618145145	-1.25774871985458	-1.329672690849137	-0.7407067995443849	-0.30756044310165837	-1.0617436143771553	-1.1983559101366736	-0.7978833893658481	-0.5409123883895766	-0.35000753314341554	-0.6157901271531652	-0.860573408815115	-0.6342680438240421	-0.6760097725013082	-0.10197434548619569	-0.3747242679671812	-0.5823832735616671	-0.6367701275961064	-0.65202361180671	-0.24000964998206947	-0.3982000638921787	-0.6400682313971361	-0.2288901502075541	-0.5490338788475874	-0.6089470967177139
-64	-0.9065370536804522	-0.4439948786016159	-0.14296404981280994	-0.829751608660999	-1.059290048785816	-1.168645259767655	-1.0652846071050317	-0.25896528297845395	-0.5391104803779211	-1.3623635734494006	-1.3110557761469948	-1.19428693946671	-0.8339924791260609	-0.41746476187210446	-1.21076059035743	-1.2632610765987804	-0.9126116610373992	-0.8029065111869672	-0.5055000173203843	-0.7778126577766599	-1.0638829442820323	-0.8967559314975055	-1.0030754779285984	-0.33827003751226803	-0.6133111103785708	-0.856410262806644	-0.8838804341888571	-0.9090358591970621	-0.5493172989327788	-0.6924037319821648	-0.8705604650452407	-0.5525040612576493	-0.8740889407977457	-0.8736103155014078
-60	-0.7198174577659181	-0.39887618917848133	-0.3066293589479727	-0.4040561308196085	-0.815467176762707	-0.878408250975134	-0.228551819343502	-0.28609368132838786	-0.5105447160228577	-1.141151902178683	-1.0734893056469388	-0.7930899838451134	-0.762208817464951	-0.3432367137349273	-1.0569765541093448	-1.014842626870447	-0.7932759503363431	-0.8814707376159615	-0.4445016074878945	-0.665790496575724	-0.9417954659525783	-0.8827313758497782	-1.093521592240344	-0.36339315680308626	-0.5668386802667154	-0.8231404998977832	-0.8521422126236332	-0.9292433238410199	-0.5927265271480712	-0.716539261916193	-0.8476224520263714	-0.626988647785292	-0.9584502553583134	-0.9115658379428108
-56	-0.3881945600245416	-0.4536643910875024	-0.500122247863747	0.05104596899973002	-0.4655570972132532	-0.4890638577511333	0.4442476022948255	-0.3306679419275186	-0.3158114544524391	-0.6907873732292267	-0.6280505045292846	-0.2764157347852869	-0.5310187922422227	-0.09072975791435436	-0.6423932893746643	-0.5247584568126245	-0.4810227441563992	-0.7410886268978519	-0.1898021991229226	-0.3019328407770758	-0.5191193805939516	-0.5926436766920425	-0.8868473745843509	-0.15059182009823152	-0.22762775363672094	-0.4628426718947128	-0.523960827458254	-0.6670986993159513	-0.31627780119198434	-0.4246218491800844	-0.5336456881401315	-0.3889082362369579	-0.7385403495262035	-0.6779539567996833
-52	-0.02480502606626146	-0.5500026331366759	-0.6071238502432826	0.30343443078678867	-0.139420419579409	-0.13225209679591732	0.709046123621818	-0.4332593966512576	-0.08949866123252988	-0.1795226032969779	-0.1500872071768371	0.15135225615435605	-0.2169876093154402	0.21564671342763606	-0.14294695818096373	0.011124949874208269	-0.11993730782983587	-0.45123341565647573	0.11751111567154034	0.144464894764465	0.020312096872306593	-0.1742938305507417	-0.45966562512691617	0.18255865527791426	0.23983900188450838	0.06568373723135841	-0.03734598671901725	-0.2176095986832622	0.14801585636915476	0.05444689081273776	-0.0440215132019114	0.04453759256681555	-0.3154739431522506	-0.26935878328027685
-48	0.23749904274582392	-0.6084679349795743	-0.527244745353863	0.21329513138324974	0.049065656836131656	0.08382562526758199	0.49703085297027644	-0.6012638792116299	-0.004954294754722357	0.18884296667581285	0.1721874769155034	0.31813386002328153	0.05005136119603541	0.3903913786091594	0.21300919300182294	0.3660787036713059	0.11175042362609094	-0.1556517179850842	0.29243487045841976	0.4447880078053172	0.4270359266943599	0.15470226069969295	0.00984245629358824	0.43761908897537927	0.5869701489887765	0.5086387979063317	0.384283929093024	0.2285567516278447	0.556161938693635	0.4863761651157072	0.4081746925539001	0.4437605429412731	0.10197489682915846	0.12667261032070823
-44	0.3070160738822991	-0.5744345173637792	-0.23530052542883434	-0.19782939503313682	0.05270682261988064	0.1175704669964256	-0.06527747197359507	-0.7892779687981277	-0.17071422891430965	0.2752203040326899	0.23006772936908598	0.166790142234268	0.14380723201683498	0.29504027888194123	0.26400127940281204	0.40063065189301533	0.098198003819018	0.005160101210708998	0.21460220163522925	0.44092833884495386	0.5204021321509241	0.22800274135721738	0.3355832389465112	0.4522912490869562	0.6237676127897622	0.6580927951409962	0.5541375265435947	0.48817241068612327	0.6951632482143639	0.6647273285295495	0.6277703626995476	0.6042980536462607	0.31904154935395185	0.337896614413693
-40	0.17467449561363865	-0.44435709602700146	0.19067543696899975	-0.7548654656425182	-0.08169160762665714	0.013365355286530552	-0.7110587340522224	-0.9129813886480075	-0.5523443804146991	0.08391378053698222	0.05205274732679897	-0.20757679588838693	0.011126874917965138	-0.06645032746704045	0.009824071054689174	0.14213037454960256	-0.14304594659452455	-0.024902393978546527	-0.09188371873545366	0.14488190375942198	0.29084858224869486	0.027350088512390496	0.42271610987749236	0.2034220243324857	0.33550378595522623	0.47163590669764627	0.4278542388604152	0.48764762159252334	0.512367604869421	0.5317196832583669	0.5481330142487265	0.4721446323395198	0.2699048810343302	0.3073674134600406
-36	-0.08404930659769809	-0.2617973678654839	0.5888827428255003	-1.2119470804133334	-0.2301384353787723	-0.11775112867428367	-1.1428390712494354	-0.892662165295378	-0.973896500989634	-0.23035514296546727	-0.2092040324889691	-0.5934334978379672	-0.2875773005377463	-0.5284571634301782	-0.37846624755673264	-0.22379901948691797	-0.4612395751752037	-0.18319499446392973	-0.45961215976068764	-0.2554797821747235	-0.09128710604508068	-0.3036049596750605	0.31493490854858525	-0.16936996536408422	-0.09937567238751684	0.0990168598774555	0.12985424664614093	0.3036049298727382	0.1512780632729592	0.21310947781640432	0.27056243947383213	0.17820250943014784	0.055136319110662566	0.12636761335416258
-32	-0.3456609538411114	-0.09124851203768605	0.7765247206156048	-1.3692403997183542	-0.2537498765737749	-0.15372790357400967	-1.1550621957226643	-0.7077193838371122	-1.2074701755555568	-0.4412209976500622	-0.3591171195976957	-0.7624115328613202	-0.5976726397683348	-0.844179032101746	-0.6474009735928257	-0.45117679124408205	-0.6501602514064463	-0.326148777376703	-0.6667786819789602	-0.4956654595735314	-0.36970716621516925	-0.5405589328469509	0.15892301459719393	-0.4386119831455409	-0.40605017440321234	-0.2035958761796954	-0.11944238811377357	0.11241429270734254	-0.13163049485828537	-0.05719603583677217	0.004188688926999202	-0.04238340620426576	-0.12419094859000863	-0.024598162559155298
-28	-0.49405827993586554	0.012012368037770707	0.6369541867387081	-1.1623725861766194	-0.07668983916947492	-0.02779718853965733	-0.7216913681882804	-0.4199350465662613	-1.1017464371521346	-0.3757468154480437	-0.26919367841466585	-0.5868154749359749	-0.744682727364089	-0.8238351920308864	-0.6027545317690541	-0.36870056297674386	-0.5636917338444544	-0.32016196766128846	-0.5648165926978155	-0.3855755319397234	-0.3467155388184598	-0.5092536794202822	0.10738629075594477	-0.42054602397598884	-0.3713413169545279	-0.2228250348902636	-0.13429917361207616	0.07787877301580787	-0.12113358794861884	-0.07887271771783101	-0.05966348185972872	0.0018990178311726837	-0.09586890762681642	0.007760903312788043
-24	-0.4682433891395307	0.021060261822218956	0.18868532729194115	-0.6860113126600778	0.26193082266479906	0.22861163260438308	-0.011591259360850622	-0.14831842444643195	-0.6782743913691868	-0.01758578042716351	0.04822679969413221	-0.11507087171827449	-0.6292273982374034	-0.45180955415142005	-0.22540466430498476	0.022370530235911616	-0.20504008181779568	-0.13182952966784908	-0.17245770947307154	0.07324631493672153	0.002163231600202261	-0.19118468415151374	0.21952684168226685	-0.08896785952040338	0.026854989982394314	0.08439650365263815	0.12283837019185802	0.24417161879880914	0.22100615445605118	0.18934802663204198	0.13432887162626053	0.3319034866059482	0.16798818069006738	0.24514158008195133
-20	-0.2794451110460253	-0.05890960603980323	-0.40494573014063523	-0.14411643111082667	0.6165649279286443	0.4936531769686724	0.6793335659041714	-0.005509369527049775	-0.13430187072224545	0.4733844387500401	0.442569403723089	0.44046181329147477	-0.2881439618941953	0.0893365887532142	0.30704966109954523	0.544338284548682	0.2641861730104385	0.1391202207867557	0.3222584716290025	0.6746337396754977	0.5100561367508673	0.25855910712765756	0.41976407064315474	0.3981128622970925	0.5962707385267572	0.5605469331893999	0.512857674257527	0.50031483047053	0.7217781525508543	0.5966923817828337	0.4659740615047267	0.771891353565688	0.5218669758972257	0.5506292567656175
-16	0.003186140201392186	-0.1989242578490905	-0.8970716573000838	0.24964024063501591	0.8097322562754773	0.616858778826645	1.054249880036334	-0.03319762638770352	0.2584669285447451	0.844566939128965	0.707049785259396	0.8039445856777546	0.1190289479469135	0.5109161125635154	0.7128416877868872	0.9384725666193846	0.6052843913055135	0.30911853831447567	0.6584251506394246	1.1134805651208608	0.9098482705032995	0.5944077357543611	0.5416753278407753	0.7791707496044382	1.0312250826548908	0.9345372891673146	0.7961860875055095	0.6411924942040511	1.0887775393653587	0.8829560853600141	0.7054989320109006	1.0447818014469574	0.7257963996682422	0.7001006585565124
-12	0.28768056558455896	-0.35449764042997645	-1.0657371255670238	0.3715950837290184	0.7390928249772317	0.5092151152152099	0.9531738734021832	-0.1760503794278376	0.3068502239586303	0.8982294179172778	0.6999429446668349	0.7815915922458787	0.3957548429510867	0.5821741804683229	0.7682616095219653	1.01182770473603	0.6359764917529258	0.22219371739555777	0.6493130905923925	1.1579132050843626	0.9877951716279136	0.621858416417782	0.4360388208347615	0.8364655354361927	1.0862821313134925	0.9806321238554713	0.7749363164409958	0.4955591546898429	1.0804183455845837	0.8332656004848602	0.6522085054143365	0.9372449493586901	0.5906981810914856	0.516925631648532
-8	0.4958781885501977	-0.4727511394009005	-0.8204416015891676	0.24032226144196592	0.45407709364688525	0.20900195784252953	0.43512111792379415	-0.31051632683557423	0.011444000498369364	0.6172775014551349	0.433720796205299	0.37306257988200586	0.4174028326463392	0.27049192717924087	0.4456901837063597	0.7503753881582796	0.3386316886935296	-0.14602348171560045	0.294815539569383	0.7886270264741791	0.7101025563431497	0.3138749293508983	0.07436810415088452	0.5251203166101422	0.7215793114563857	0.6553368551874745	0.41623231663519533	0.041943315310677784	0.6537505371754273	0.4122930754742578	0.2621615224418198	0.43499296793785064	0.10160592172718858	-0.011555968754619818
-4	0.5866371378392572	-0.5025212752052548	-0.2506752305854439	-0.00044968092584139025	0.15149468145268727	-0.1189486157871203	-0.23924028813041237	-0.315328239598465	-0.4234315742292474	0.1925934250260622	0.07868375609320892	-0.2140518123467629	0.20308738895640036	-0.22757659795047164	-0.05490097017136114	0.3331660321883929	-0.11907863586878895	-0.6534961445521682	-0.20733578450784612	0.2229968303772337	0.24932858284943346	-0.16530992048965315	-0.41547042026527753	0.0077335499031793604	0.13466206158971375	0.13173581626533756	-0.1162247878358903	-0.5581821189139068	0.0021233952084962356	-0.20220087417573301	-0.31159907500750794	-0.2541299157879033	-0.5563281164428492	-0.7063546758937804
0	0.5629915580840456	-0.40986153379910717	0.41146343842572375	-0.15609140654732095	0.08081396648745834	-0.2589481764454466	-0.7215680461785515	-0.14116737210872032	-0.6963562351765313	-0.07177349906920132	-0.1248243969507598	-0.6585164649549899	-0.09355924254876258	-0.587851344054911	-0.4055148948921584	0.037301648313996905	-0.46635085226572304	-1.0521666977066937	-0.5608887658263236	-0.19450966964726937	-0.10654575350802496	-0.5447924719407239	-0.8067616799966614	-0.42803507935220714	-0.34215810808579505	-0.29078513310449167	-0.5436817393881388	-1.0342092487926813	-0.5427122698433148	-0.7091715913987533	-0.7928476313600685	-0.8066491464276095	-1.0883955928026023	-1.2788103786606575
4	0.4646124232005931	-0.19833071479791572	0.9011937953130528	-0.07605600337853369	0.40249425071185757	-0.0621691791633733	-0.7407506685628288	0.16251063305832802	-0.574749349096688	0.07053194177224516	-0.0016167556127692354	-0.6871435028847278	-0.2722134583276197	-0.5375097976465193	-0.3310637763724726	0.08296404758010958	-0.4745621669231836	-1.1165845365943472	-0.5297943936323379	-0.1795085664031687	-0.11491593689515263	-0.5957831725337255	-0.8955023266117547	-0.5263687954964554	-0.4248445619347253	-0.35344937354495826	-0.6246876700841922	-1.1501560182142994	-0.692511914412159	-0.849762020349827	-0.9320172047925737	-0.9620549654512938	-1.2497962681687254	-1.4809565506737858
8	0.35049793035706694	0.07854420671898087	1.0466722223558809	0.27028113535352494	1.0786004039235242	0.45807841304519964	-0.23886372088683339	0.4780527341217072	-0.02769554585676557	0.6572374684906288	0.4521090972929825	-0.21982100550465192	-0.20166389593230727	-0.011353161157315867	0.22974523843934294	0.5059303628545762	-0.08495744296320312	-0.7682849745426582	-0.06881977600365308	0.33192321574331907	0.28224831748273455	-0.25986850196077743	-0.6152664407454908	-0.20609262533606568	-0.03709225347213933	0.014180730992515501	-0.29108768628060766	-0.8354701378709568	-0.36393898633623883	-0.5527977333417161	-0.6457785947707804	-0.6692254526408125	-0.981432554628139	-1.2388533322527502
12	0.2780023210182349	0.32804015195994046	0.8454073050135315	0.7779667357830152	1.8647326183922834	1.1117730112616464	0.5912197813365982	0.6873784643938392	0.7502438407075925	1.4771703444379227	1.0541034910291351	0.5803648218760893	0.10469876948387193	0.8046804646202936	1.0770338746534927	1.1307052345338546	0.5525941238756774	-0.12590067056817109	0.6479073746535589	1.1417492599271137	0.9197825766229322	0.3150863937528995	-0.07939585278254263	0.3920848061675975	0.6451315267487324	0.6502953155311663	0.309663682394215	-0.22837351204910658	0.2733173661483952	0.023306803718969888	-0.06623645110096514	-0.11534963519060458	-0.44373410828138193	-0.6940861326813473
16	0.27980104018140295	0.45103150492280886	0.45256110911549546	1.2565388647779838	2.417752259825938	1.6130571324630667	1.3873485291739784	0.7338030319760608	1.438713785353803	2.1687824671348244	1.5234452447574913	1.3782497609626978	0.4956981229187859	1.566842671253148	1.8451099349167406	1.659020300491247	1.1506148547686217	0.5474191294200541	1.313945886155567	1.8904262733414514	1.4922555647367504	0.8505066611751259	0.47474965333285124	0.9787974928939167	1.287535902587297	1.2445106474926784	0.8896040893982526	0.3941399743142642	0.8879595972530516	0.5754344448820066	0.5282056914345058	0.37802395129129357	0.07011245173395567	-0.12955935266685922
20	0.3483770778920236	0.38885274431281214	0.09236370748803742	1.5244191846506623	2.4731445250059103	1.7246391729680923	1.7896691515560437	0.6469379051087347	1.7612976983424575	2.4122040210856737	1.6297177035193304	1.829648728519619	0.7708019594758787	1.957214946573705	2.1952087823757216	1.8301641894863352	1.4324586355282871	0.9768347715510632	1.6501322943033598	2.2486653271168553	1.717473264172708	1.0864356728780462	0.812273679112994	1.2736545769006034	1.5814942081576846	1.506764408122055	1.175408121956086	0.7647585253480704	1.1707546681409304	0.8238843062580574	0.8650891162965423	0.5369597659859207	0.297193228448115	0.1840369100692565
24	0.4368982900079303	0.16000983078612327	-0.05922259747930918	1.5024541578506498	1.9949235865770716	1.388472195934447	1.6170241791907218	0.5148673044557003	1.6306645829038418	2.107387298985389	1.3214085068718942	1.7522197917567954	0.7977676967506312	1.8518675518964443	1.9975225875012959	1.5635410507780854	1.2766292062952538	1.0149350140696154	1.5475342234640674	2.092612022838611	1.4885781965819724	0.9198866463324472	0.8245431163950965	1.1572459906924315	1.4124399387938562	1.3247944083144563	1.0549836132116666	0.7666850070669919	1.0048137877844392	0.6663355810508187	0.8248454907572785	0.28899979518404195	0.1495299186507554	0.132904573939465
28	0.4794181573207745	-0.13960488105336194	0.04153037060742617	1.2576819626526001	1.2086324661257424	0.76592099473219	0.9561021303833154	0.4260111142370016	1.186983820779399	1.4331799709375377	0.7585136871260747	1.2123279540924865	0.5843293056040255	1.3765717710072174	1.396679993917875	1.001148817395743	0.7760899047330663	0.7089212518913287	1.1131887407807772	1.5612438877742416	0.9276918149414337	0.4537565100657702	0.5780193791100994	0.7288157325463612	0.9144139862815671	0.8190282562558219	0.6309818609519374	0.4852290141252563	0.5228215442808936	0.2276629054758885	0.4964061366899628	-0.2022890443462944	-0.244904904939307	-0.18769912374313866
32	0.4288490701815271	-0.3763367226158964	0.29827728792223046	0.9744371747210265	0.4979082035368327	0.16569510060438042	0.12276725440023993	0.42213997138254805	0.7158813458488233	0.7567003350226513	0.23468741715306143	0.4891762423085736	0.2688474350340398	0.8287209251461451	0.7302317004840705	0.43209323177917136	0.18717336607406354	0.2665775113527896	0.603156743910983	0.971746203830146	0.3179840735513391	-0.06341601147137876	0.26808756522203925	0.2448259585875013	0.38764196536422413	0.2713892453017465	0.15834175010281187	0.14888171814045958	0.025738056684123108	-0.21591651385153068	0.1173602265136724	-0.6348465069001269	-0.6210442169722057	-0.5357002006357072
36	0.29128435180554757	-0.44183471687344245	0.5420133457804431	0.8599817731125682	0.2125446045992941	-0.1094811630465122	-0.48934849973153954	0.4844846117185359	0.49296542877666794	0.4383065987488052	0.02630859234247268	-0.06748795492299309	0.03598492210958817	0.5097728954796098	0.3432021430410449	0.13828103209392054	-0.20639935083730543	-0.061446625584198195	0.27977210212643755	0.6398279650746531	-0.04970786707964268	-0.3746310463029879	0.10292730454445864	-0.027869947184292893	0.1252085414347867	-0.0328371710246247	-0.10022639457908693	-0.007639585509234631	-0.1912958766160615	-0.3962851454743144	-0.06772449595518701	-0.7428057771048509	-0.7316508274679447	-0.6651794297590294
40	0.13251921501080383	-0.30821025293735904	0.6324239953286369	1.0305414173810432	0.48901688929116893	0.08111380765224391	-0.5988654479165685	0.5550398216539265	0.6388341768348221	0.6388326271140619	0.24786804553870598	-0.21248908287282603	0.007617512698610685	0.5619195685504668	0.4022988070821325	0.24498215255874087	-0.24109740494415163	-0.11776936024495831	0.27321630647343365	0.7069198471341137	-0.03143967307616864	-0.35282927662460306	0.18314222945227554	0.03888940428809566	0.24811601576150674	0.038334514848960125	-0.020134009370038248	0.11955407231663948	-0.0066545968707276545	-0.20622847922232698	0.050520375243427625	-0.44883420950103414	-0.49063259239301615	-0.4696652579370577
44	0.05160395042980548	-0.04260204349133048	0.5302891121827247	1.4415430986248579	1.1865292757594896	0.6460335238358411	-0.16639000135373985	0.5782443270389137	1.0704725953731833	1.242699977598263	0.7967553118616773	0.08184329399664694	0.18006662978963053	0.908306655974721	0.8204593041686211	0.6633537394941686	0.0518929845274625	0.08724796004917122	0.5282587395682219	1.078063366075454	0.3047240070755708	-0.058753285408693845	0.4519779074701631	0.37358960414977926	0.6487402899575472	0.4020625640731617	0.32564601219929196	0.4514478433655138	0.467816202651504	0.2470823371132605	0.3919148435234496	0.09817426626929612	-0.01751376684058576	-0.0387800856445633
48	0.1276701834554729	0.2269522243968646	0.3051207653925164	1.900358195275299	1.9677073905856053	1.3108092513368261	0.5952322468034574	0.5318481312675336	1.5628125628114797	1.9321140002106871	1.4107890093470357	0.6254152043764838	0.4360608745532727	1.3165713515420048	1.3239730563115253	1.1481491298297788	0.47630253313926385	0.39433500071147687	0.8544469454173443	1.4948865137504936	0.729298053330666	0.3034469179598376	0.7344219070012011	0.7568159084285789	1.0652620765493634	0.8184347728092917	0.7168514710447382	0.7785179595365063	0.9591442918403258	0.708623586296072	0.7412799578070979	0.6120428427502421	0.43269872556159344	0.3942295302928131
52	0.36600428727249174	0.37627559805283356	0.0839330849912601	2.1618087237137105	2.4792804655421765	1.7606393054379308	1.331104871250184	0.42991518865761047	1.8779807043344823	2.3683235585499767	1.8064701511550436	1.118097660102795	0.620583353859966	1.542138214986175	1.6195335347294302	1.4361859523752607	0.7838554958580217	0.5919538125351539	1.0453349325490764	1.6968700842930853	0.9858166550542345	0.504431127228326	0.8399697520983355	0.9534080004462697	1.2407164542344353	1.0312515471171042	0.9145008302487856	0.8849108196804878	1.1935379475023535	0.9220772362317017	0.878194031882352	0.8316689708692929	0.6129854902049849	0.5835238680412091
56	0.6812579018558863	0.34694111259604277	-0.022859118821127674	2.062045568982068	2.5364952023361997	1.8032244398366393	1.7187362865923097	0.3071131698483931	1.8934476327774876	2.3800740181913302	1.826631302990128	1.3086644378046435	0.6367713196889988	1.470305319888605	1.5672364195355402	1.3915642464790086	0.810462949613934	0.5375516997116906	1.0012898419849257	1.5796760280780466	0.9362728572095025	0.41867762698325434	0.6743965131898906	0.8527735450195002	1.0776584121198722	0.9154425240292144	0.7986305335862213	0.6771095377992823	1.0562375757252853	0.777315733854422	0.7106775027452016	0.6690338833129881	0.42487123501319496	0.411742835197403
60	0.9287430024540385	0.16806098776347672	0.02377696701841627	1.6112239320129833	2.2018163148602596	1.4564938508454115	1.6116732318241658	0.19382660041986796	1.6500828224483213	2.0432286210925645	1.5103533229842099	1.1142926187992304	0.4951032983677517	1.1676497429931298	1.2498602835570527	1.069144842309519	0.5541687593773782	0.23029868246584634	0.7773370723171977	1.2490178315099243	0.628130374753082	0.08571521916206125	0.2901992790524735	0.528406499482247	0.6903343779300773	0.5404494391147749	0.43037831674634597	0.23680697321708416	0.6524016840675657	0.36894401814771427	0.32858702457437394	0.2538403564243155	-0.027430768986825737	-0.042950916926900624
64	0.9730420088042914	-0.07285574805223627	0.18275609566323425	0.9931017731388687	1.7200448469604048	0.9188985205338556	1.0858662101033	0.10053227816472135	1.3030019965652777	1.6114401776636824	1.0527205440645482	0.6432369931193299	0.28856927083591627	0.820279298141854	0.903477845295079	0.6663526279791814	0.1578899170942328	-0.1997742051802805	0.5344212041713461	0.9433481669450571	0.2511793666696813	-0.32439762271994566	-0.14757434986525697	0.18673093569817403	0.32873472488375444	0.11992890357494376	0.009230174100936926	-0.22725361528241042	0.24004168747855537	-0.061079058641957576	-0.0488345025736957	-0.1434662338449359	-0.4927587794737534	-0.5451573715751176
68	0.7585712056081377	-0.2913347177302556	0.3660199036893835	0.4661376762542221	1.355533000384676	0.4449431586952758	0.3748593022895789	0.017851553812255668	1.0130896542720285	1.3456497158408423	0.6825622898988577	0.11694498330631244	0.11688280821138808	0.604633448981565	0.7569748740157936	0.3966885497091358	-0.18569652689303115	-0.572620807632488	0.4300444413294796	0.8768271185671691	0.01573753911753792	-0.6144838913662104	-0.4533447015760567	0.04120404635397569	0.22445186915949453	-0.11615198076248098	-0.24315820572973537	-0.49410050982658227	0.08030009249440531	-0.2572714381875035	-0.19447378765120518	-0.2590654187814238	-0.699440477512647	-0.8166796544436667
72	0.34011211905440064	-0.45908775809727775	0.4861636149529748	0.21748433952258298	1.2304191558290372	0.19927568683379895	-0.26055180960675733	-0.0721378473606322	0.8445436933175613	1.3466333116864424	0.5295133577329315	-0.2584275000723258	0.011408290796981042	0.5716208801142606	0.8792281724665941	0.35982212333431907	-0.3487992873922241	-0.7597430329214634	0.5149404989592996	1.0976489754620402	0.02504508004719797	-0.6713472587801698	-0.5174073563863905	0.18543457938106586	0.44965639596899004	-0.051708660889250274	-0.20445440657971137	-0.4454304564674067	0.2924943856960777	-0.08410978296025064	0.00720417730554	0.029788048862709162	-0.48158824322227795	-0.6635412557061586
76	-0.14763230048099352	-0.6180399640691767	0.48727911587712985	0.25266763504132056	1.2575623957354827	0.17160800056046008	-0.6563655717490557	-0.18672946048321956	0.7307386975912499	1.4900464973976622	0.5547873363792954	-0.3991224457677491	-0.08988803602412264	0.6143858417258024	1.1261355848490417	0.4822280990823263	-0.3377844682748312	-0.7488612513708732	0.6969131809759065	1.4469791614239382	0.21468660181201812	-0.5231366740370255	-0.3546683481321822	0.537893115116102	0.871530053799354	0.2554728978382693	0.08827545471553762	-0.11824846982903386	0.7946935872041018	0.41249400273128833	0.5076554404793101	0.6537796838466489	0.15850871761356738	-0.05133633302602024
80	-0.5665742144585146	-0.8453778007144421	0.3470283439934513	0.38818025490983166	1.205532309349512	0.1973619158053437	-0.8017483929419054	-0.3389886907125105	0.5271637426418179	1.5033086500359925	0.5829498753134714	-0.3725119223726387	-0.29641321226623124	0.54031276566465	1.2214314906753372	0.5622682557215224	-0.2791852049931384	-0.6373599155546698	0.7954623083058292	1.6455346304355734	0.39315217634121796	-0.31290885727081785	-0.08069142678869011	0.8914688207053428	1.2295479743431996	0.6156195982648933	0.47137009978494154	0.33157637631624676	1.36111628665598	1.0459133360205166	1.1353366346304987	1.406762000346888	1.0779271098578413	0.9048421360058985
84	-0.8543444850332341	-1.1944751709344354	0.062149427674260724	0.355168997344709	0.852169094318359	0.0658156870133968	-0.8098920563277167	-0.5373848067067408	0.11229088874122725	1.136303064338447	0.4117022146320911	-0.33959180030914754	-0.6795550567635975	0.19934479841924152	0.9225699282241712	0.3902466883343324	-0.3367258897862929	-0.566086648465483	0.65286183192407	1.4562844001241997	0.35553645997882155	-0.2104580695083936	0.1618193383899684	1.035495636232976	1.2873172727508129	0.8194707611375172	0.7533403616005009	0.7245801072900264	1.7558145478741234	1.5988092382119299	1.6974011616766933	2.0652980752299595	2.0805911965292387	2.014737839380439
88	-1.0609996292029473	-1.6530371862637991	-0.36380711106000624	-0.04418589163591602	0.12883171406643956	-0.3533537378926576	-0.8353946187862171	-0.7877516726632178	-0.5272711502114319	0.3192254892872643	-0.0687753779939881	-0.4543621230574815	-1.2071406810800704	-0.41399535432242274	0.16886301296038825	-0.13029374149328266	-0.6142725332963704	-0.6386265738575936	0.23054827691521312	0.8233476260378547	-0.0005418689092910171	-0.3193432978673654	0.2773924760967552	0.873953042208001	0.9654334163132778	0.7505609970216416	0.8160990456003756	0.9506314968903525	1.8587968302526678	1.9322543095441342	2.0761809296641527	2.497982495676843	3.0057625694680636	3.0996847074450447
92	-1.3179244961842793	-2.143213505102212	-0.9180802083678002	-0.8175898769717337	-0.8289609530500497	-1.0367041800073904	-0.9886186693980513	-1.0875118943413935	-1.2754336563333675	-0.7836517671826938	-0.8123559335225763	-0.7773087601110009	-1.7408649877464621	-1.1433303327304338	-0.8721146561538351	-0.9260331964954565	-1.0976381274167184	-0.8685146548277801	-0.3617407670424724	-0.08977728314382899	-0.6192483290296574	-0.6276544912703967	0.2564589672766214	0.47660565255950377	0.3832926144459449	0.4381529677772845	0.6662386042940139	1.0123805974195705	1.7180248455540668	2.0385096021683213	2.2708716335183095	2.710879795859544	3.774498691565888	4.04854391983212
96	-1.7557873681561744	-2.567378752902147	-1.5669530590549932	-1.76963340789325	-1.7537574723788287	-1.8264756156583677	-1.2930350271003905	-1.4189443552431935	-1.9404747437122225	-1.8561452580318845	-1.6434982973566081	-1.250296589555707	-2.10476517145905	-1.7494318441091101	-1.886743540768657	-1.791901703125114	-1.6659306245704797	-1.1806205481285337	-0.9219768024055087	-0.9835392211877616	-1.3192322220873496	-1.0257757876247036	0.16208372969236332	0.0364160387788698	-0.21086332148719833	0.026968980139949153	0.41333341494154086	1.0011677716727339	1.5039677581962547	2.0159749933842734	2.368092530947411	2.8133270669479353	4.3794789203698805	4.821676242098898
100	-2.415900224308153	-2.8697204517390276	-2.2456443253086866	-2.6028335028736675	-2.3947448670007256	-2.524027341192141	-1.6984064536129369	-1.748922105188278	-2.3521251619081345	-2.598397248383525	-2.3535945356074275	-1.7408857301627916	-2.184952491965825	-2.0394916482931613	-2.577329390694407	-2.498132460962719	-2.160784477500476	-1.4602159224836584	-1.263861652998021	-1.5778075416783452	-1.8910297107636338	-1.3740746940253017	0.08048006126826963	-0.24012550651005912	-0.5777090177255375	-0.3111423842203919	0.19600479255304043	1.027603623656771	1.400203820508099	1.9910298535623052	2.467951291529032	2.9333887026158783	4.838875758351861	5.416043744718138
104	-3.203049174804924	-3.0714311522185263	-2.8646755146179754	-3.071945897929507	-2.650983326894557	-2.9958600922286607	-2.12668609082204	-2.03755163631991	-2.445257419134546	-2.8801021503212145	-2.8067269254393303	-2.1213281101074184	-1.9982364127253238	-1.9684644887816307	-2.8077552247683992	-2.901141397780913	-2.4670176443756273	-1.6146451194051634	-1.311269279984041	-1.747220392584237	-2.1980979387099797	-1.5746461113274404	0.07161712628402789	-0.24183396934010387	-0.6083822235006037	-0.46544209005144943	0.1064747643762767	1.1547650069645645	1.5007121525068423	2.0416052289915605	2.6180777483643545	3.1403713147031604	5.155872808790534	5.827536568233662
108	-3.9146635433543397	-3.2548456109839647	-3.337117425122562	-3.1055028360161705	-2.6120829516265602	-3.23010968346463	-2.515707724895397	-2.254024738342948	-2.2841155471353844	-2.7921693254547226	-2.9950127526006733	-2.3337979257788692	-1.6884299474049098	-1.65701603471109	-2.653012745834746	-2.997777216018376	-2.559863560889261	-1.6139948327323057	-1.1290478677854145	-1.5640958508102538	-2.2269654217761343	-1.6081933934616746	0.14552658759568493	-0.0030170958413005262	-0.36458343175392327	-0.42650154125297535	0.15469837149663118	1.3699330056888956	1.7694718793063167	2.164376253385573	2.7926578451220685	3.4142198476421304	5.308945165581798	6.0363597717469615
112	-4.331441391499465	-3.500289908154805	-3.606753101779444	-2.8203926015217715	-2.4797849592542813	-3.3095304882415286	-2.8295183110324227	-2.38350319260589	-2.0112988898041606	-2.56577967949615	-3.010710231809088	-2.4007031856960093	-1.4448075258016746	-1.3129694428673218	-2.3256597460203636	-2.8929185794270396	-2.4917132791551957	-1.489608760887537	-0.8703594781835655	-1.2268871037978546	-2.0604450650646	-1.5173338613348106	0.2737774544002548	0.33207067763412107	-0.017390888140401232	-0.25931957298610436	0.2891626350731572	1.6064027507278533	2.081564898003831	2.3003988207911723	2.9247775003976293	3.673460951113586	5.276134477645837	6.0230331268831465
116	-4.318175304954589	-3.814074268248196	-3.663120737364058	-2.4264647899400495	-2.422729486070696	-3.3252420341460747	-3.037959329564387	-2.4207334457314973	-1.7571971372108426	-2.4128944812890083	-2.958977453390506	-2.380081170748685	-1.3912608588378679	-1.1052302094211708	-2.030278439164201	-2.7078230312646	-2.3341398180204376	-1.3005723920410774	-0.6760639531232723	-0.9242659187823281	-1.7999054148053462	-1.3560694421863002	0.41787040128109926	0.6025376304672642	0.27014478972894546	-0.036904029454994464	0.4504279184890148	1.7911437704640638	2.310724014170255	2.3916668831522956	2.96150182929966	3.833486070491056	5.066977964959796	5.793872341786673
120	-3.881527890895885	-4.095505704076346	-3.537405958781311	-2.0881638474195436	-2.4571759638737416	-3.2924392140232053	-3.0905356329137	-2.354971402898263	-1.5631078442209514	-2.387289279632464	-2.870218031312356	-2.3014576376982894	-1.5120115241976746	-1.0661258670592675	-1.8364026500113562	-2.4901721414637743	-2.1175439304294725	-1.0952713461879529	-0.5893806204220522	-0.7196142059277472	-1.4902732334658153	-1.1435195178724733	0.5503897653035147	0.7236350160448539	0.4421657908720115	0.21752326135552305	0.6171658023511079	1.8833522749080784	2.4057888923939843	2.4266638694530966	2.90139292938123	3.855112066072442	4.733961570231734	5.391756520963539
124	-3.1583242336641812	-4.170814503629862	-3.2812778866893244	-1.827959890518817	-2.4285790858941843	-3.1259229104275055	-2.913755886350749	-2.160015100747658	-1.3624225820475793	-2.3502664506701514	-2.6690971783960653	-2.1277646964711723	-1.6578216510878403	-1.0763634416107517	-1.6448624092534938	-2.181575769638535	-1.8074692442082463	-0.8906580783291549	-0.5345150814866303	-0.5227668868217725	-1.0940023633038884	-0.851624844308289	0.6572172029114564	0.7264335137146377	0.5735711440863874	0.5431406484242339	0.8158693292999912	1.8828482580331303	2.4121987758769468	2.446927541276936	2.7922580171659246	3.7578685188783827	4.354318607780816	4.8827061529860725
128	-2.3428039491631134	-3.879650583008779	-2.941840879642268	-1.5260733327482925	-2.106897348806572	-2.6929032734592515	-2.442133182081887	-1.8029137804288542	-1.028630134846501	-2.06057214216694	-2.220908397789352	-1.7703009799130491	-1.6299111801957828	-0.9388926005500563	-1.2635909287021345	-1.6612563091297057	-1.3318464722386072	-0.6774180514398608	-0.36948153283294166	-0.161065876077265	-0.5274841772113213	-0.43253117690555287	0.7256145458974915	0.7265306692853764	0.8093883970806363	1.004199502316935	1.0917489501091995	1.8101886465146129	2.4316544471382504	2.5142350133360045	2.6949844292309746	3.596926441648004	3.994085301805552	4.326974857849852
132	-1.5956391055829098	-3.1696898857198366	-2.5541393692380634	-1.014203188242911	-1.3382731642313535	-1.9110567521483122	-1.6663814741024225	-1.2715744940124833	-0.4600714731521672	-1.3330492939671377	-1.4282360040844804	-1.1493563623020115	-1.293467518401789	-0.498483388357463	-0.5426262007364764	-0.8379138090912887	-0.6405326707880534	-0.4414594758332064	0.019810935432364972	0.4981065975964667	0.26625397734176565	0.1354781087792733	0.7349094133895883	0.8457562902078103	1.2623749939517865	1.6308067995859168	1.4651201926433954	1.680422421027422	2.5517845089382227	2.665198796219018	2.6426758699453163	3.4263577374735457	3.6811118032976387	3.757918586779868
136	-0.9835457776986704	-2.1452333872992604	-2.149183506307842	-0.20097862133305475	-0.16224029619263178	-0.8307865837102658	-0.6690338833129881	-0.6047880038250774	0.34666597755645423	-0.17043666498545265	-0.31871744909880395	-0.2637398236291649	-0.6571254713633786	0.2634239488149752	0.515462933669437	0.2681219571019878	0.24238036511738037	-0.1821703757216665	0.6430263503052255	1.4503484927752948	1.2574831215581315	0.8168534019827484	0.6643452627575039	1.1374137372863875	1.934899325254009	2.380104058932221	1.9066880893251745	1.4953604898845507	2.793658964733188	2.8872573302805664	2.626639121099697	3.2764050877819493	3.4081058416150865	3.187456122933892
140	-0.47572022556360083	-1.0370030376955397	-1.7592533782411124	0.8541783072840199	1.1768195599408036	0.3536258628976926	0.3813794841674194	0.09936715637391605	1.27928030167888	1.2106527059506589	0.9330297684954615	0.7756852488007078	0.1268407103197116	1.2110185592593665	1.735989804653302	1.5044306478664116	1.2074407308611121	0.084640905047342	1.3915441001091253	2.539944642329932	2.3208429754789357	1.5233888587636761	0.5142316209207757	1.5582222899196267	2.710758202384509	3.1438071648379187	2.348167413505041	1.2587089506794873	3.1067678849936895	3.1302525918130586	2.6164715224010022	3.1546087185368434	3.1612567821797266	2.6327767305660124
144	0.006088402106887402	-0.10605170550989029	-1.4140061104360202	1.9577449510737097	2.334855789011672	1.3764878476675855	1.2818692890228074	0.7088620048745716	2.156056160251672	2.4757320818383666	2.066777700928128	1.7726955369062098	0.840534565710801	2.119160885228857	2.853074066588184	2.6418509416637077	2.0975027031393734	0.33700978670864135	2.0918960518473764	3.53409289421448	3.283285371120291	2.151458734802464	0.32359453954059203	1.9974602410430182	3.417495957329294	3.797176589915614	2.7201073101032143	0.9993941758672752	3.40852641198756	3.3432259475223005	2.597146742939295	3.0627822798648743	2.9524106904828913	2.1431145613921343
148	0.5175797330186457	0.46957486749348404	-1.122038003949658	2.8767368720856923	3.0336799544988975	2.0205235430248893	1.871539707227026	1.1134555311701182	2.8124926019231866	3.3369822417885526	2.852065556001131	2.523214810676614	1.3084270921097472	2.7846612859991913	3.6430444625429197	3.4770047576856404	2.774153702407556	0.5599189982582765	2.5951247149750394	4.240898598454137	4.002023209958119	2.629402154005929	0.1658264394388114	2.3424463212953643	3.9192247291796156	4.259676445696766	2.991149179536087	0.7796782831534192	3.6392316726355536	3.5100603015017193	2.5938427382784472	3.0126230640643903	2.829366915235075	1.8018802358910584
152	1.046433684568092	0.6663179976806544	-0.8524907805853996	3.450850478042811	3.1959190287963146	2.2194909993401715	2.096148247194917	1.2817460266177232	3.179593078214975	3.6941368486596513	3.1964650073410787	2.9053068087658795	1.475798483937236	3.121124736535201	4.033439149209856	3.926437368016386	3.1767787853143656	0.7498640399120426	2.850293152288565	4.602702606024557	4.428637493396402	2.9471836015678656	0.1174509447827915	2.540456527017971	4.184556473657422	4.531756389620426	3.1831242957811328	0.6757048351394073	3.7969591521720227	3.6600038912873325	2.6646983556227473	3.02727412413177	2.855260841790183	1.6967050986367636
156	1.516689773544994	0.6083596333402908	-0.5392541871761117	3.6578454878961755	2.976361505623227	2.0870051331280353	2.026935572275058	1.2826738325159543	3.3087654030231235	3.674433460495286	3.1875541129696554	2.9339084551170074	1.418224450345414	3.188084355888239	4.127571095535916	4.061110486267678	3.3422417556302544	0.9065301395416757	2.920000545758811	4.713605391999437	4.624477851636083	3.1520633617927816	0.21519692187813538	2.6221694880085646	4.292251576077169	4.687311637488185	3.353185883639122	0.7382410150008972	3.932791223133401	3.847116460623879	2.864898674407451	3.1286239545033276	3.069499723314101	1.8723888349943523
160	1.8346501542500948	0.48941689606124666	-0.11389584810588087	3.6005721001318416	2.6746678284827086	1.8560810042249787	1.8264726354261365	1.2543587652961834	3.3342034732561396	3.552191486926964	3.045554153382492	2.752636187279388	1.2823182312061223	3.1440281788601876	4.134744156888655	4.062979687923114	3.3767499838451314	1.020203110980143	2.933683626397482	4.755076396380817	4.720318305495672	3.3143134033448094	0.4270775605386304	2.676563971437516	4.375339973847128	4.827114569874475	3.5545651822945064	0.9564554667166518	4.112584580528587	4.112259377587514	3.204707376018389	3.3210682785108605	3.4554529102821676	2.294877761768857
164	1.949897880399552	0.4721096742154473	0.4424616981302518	3.434391966731826	2.5809092456505787	1.7643499329844095	1.679764385750763	1.3313270773653458	3.3950676832312565	3.5976550488238987	3.0133399887299386	2.568554871749886	1.200469610044362	3.1551513592215086	4.251349438424089	4.130265702310119	3.399795046805747	1.068735954447392	3.0120320244082897	4.892336833045986	4.8463468429277246	3.486638298768496	0.6607148630626903	2.798112623779561	4.542609203313729	5.023606764507774	3.8035919570258816	1.2533394066638082	4.374290932101729	4.455059517102886	3.6329071430036946	3.5873305707005514	3.940111627167653	2.854989283029272
168	1.8938306522238473	0.6165176018408121	1.0622401210668808	3.2892897046012255	2.8372170853507535	1.9462971638177615	1.7236415104263607	1.5704315861153026	3.5617856889443673	3.9399542709058433	3.241972915093614	2.562910311903907	1.227953311680905	3.3130412018099356	4.561714637683217	4.3828492053955515	3.491398087269662	1.0308712694843973	3.206737033377156	5.191729532485405	5.071128832411474	3.6807744410090617	0.8094689229555245	3.038078300435058	4.823842036465989	5.287881361008513	4.073060979096392	1.5204567870852879	4.706844794787502	4.832796561437277	4.058095444923971	3.8991012474799343	4.426877964287074	3.4133982572206207
172	1.7701051190508117	0.8705778696014712	1.6000703532829035	3.2260956682770106	3.382719269795026	2.383511775674716	2.0027019927006213	1.9170483302352967	3.804849376608889	4.512412536672439	3.7265045548767586	2.8165392804560607	1.3313469853166504	3.5998129753778985	5.006836878533268	4.812063205013795	3.664524069117107	0.9056347585701204	3.48498653485665	5.598486886194769	5.3763012750308805	3.868597974546694	0.8090083578665078	3.382612458271858	5.163443075495054	5.57109640622242	4.310503471935628	1.6711006122359546	5.057874666795524	5.181824671060217	4.392228592273726	4.2314505470253545	4.838709819021225	3.8598232171835942
176	1.7022166209159393	1.120096680674225	1.8914033126761427	3.2434811510212023	4.004564275167767	2.933112375483397	2.464415782428461	2.2326242867368227	4.021856774666344	5.104289518820671	4.32169960838197	3.282559863385917	1.428072568148919	3.914415111195543	5.4323487144645695	5.297314153648273	3.872709026095763	0.7244042139837383	3.76235960964158	5.981407150425742	5.676171288464455	4.003873338127276	0.672289369793111	3.766284456280841	5.460934148352359	5.796045288711119	4.468373287363462	1.6825807052092896	5.362852559854875	5.447426782206042	4.591084945531428	4.5707054022784375	5.146718489050462	4.154778470039978
180	1.767092700311469	1.2625639406752476	1.8380964948023066	3.3084571278011237	4.460188377563569	3.41230033966663	2.989860765537875	2.371527188989276	4.105105866558212	5.484712586860439	4.8244647857930305	3.814662685299933	1.4455244504672229	4.137804497762277	5.682761177974185	5.676392064068146	4.043175210281466	0.5444462285600978	3.9591140647112293	6.213438495207352	5.868013843979855	4.049934853819087	0.48176148412188025	4.108709801790812	5.630437836736659	5.898690208801087	4.526906955733745	1.6031125743445587	5.576025948751478	5.60415647999149	4.66792773021901	4.910044657708309	5.36807011202676	4.330812443289383
184	1.949984783971415	1.2601612774504176	1.4739744626024247	3.37837099176035	4.599065769028123	3.6872193720230633	3.4390468510584524	2.2598276081250503	4.006222237962653	5.525077805874738	5.074222075048929	4.230875004576856	1.3598396743774037	4.194635857482072	5.684307560874333	5.827138886044724	4.112170209039155	0.4215640415038599	4.04174279146184	6.238596900447788	5.882512077738417	3.994755019592558	0.3403091720095306	4.35046147201785	5.642167077124526	5.854924664020227	4.495006073093339	1.5167800149769561	5.683832631065962	5.654771790532644	4.671715724594212	5.235222803249618	5.535419450135738	4.4525527841685415
188	2.148271555245081	1.145706412283761	0.9680417155620636	3.405448189720551	4.423581112183582	3.7225522901009707	3.6933059599135802	1.9318586539131142	3.7625276947394224	5.257402883607437	5.021669375138886	4.38466881598666	1.1971805065446706	4.082905282202641	5.475899205687623	5.721019253591703	4.048082818301302	0.3789409687488477	4.029928674060027	6.0929059828468715	5.7123498772403005	3.850397338682612	0.31137958090367673	4.472976673277132	5.528676495898611	5.684302792502763	4.3949212916993	1.4905486069239824	5.699971661481758	5.6159806109736	4.648970115368192	5.516513333697875	5.663781628614144	4.565559852517259
192	2.2264018002565615	0.9857377981093959	0.5542513118101836	3.3335928832766024	4.065278043019851	3.5731828122523845	3.6830615904326085	1.5055257043974604	3.4716896923151483	4.843967902351456	4.7353553652416425	4.214886654702672	1.0050395701782784	3.8609437845025423	5.178039537707956	5.425106988561223	3.8556086919714563	0.3913751234663711	3.9709055323480844	5.874370560119812	5.408664212876418	3.641571512564949	0.38360178373761433	4.496706951232356	5.3589725359083715	5.434048638929272	4.244475830805945	1.5357066354125695	5.650694356003144	5.504478917529529	4.615383136540637	5.716623291841327	5.738553509528879	4.667055595058859
196	2.0876336045009602	0.8312800505631154	0.4210089434484682	3.10544418504586	3.698906412322536	3.332304230859812	3.3990456972135226	1.1118509741368159	3.231614343113541	4.482566345341543	4.350361813052037	3.7584428692339884	0.8181015232411939	3.606148949101526	4.924337851489361	5.057936655625934	3.565358868180341	0.39713251490462437	3.90251683203552	5.68559835905833	5.052398668884544	3.393558493629354	0.48132753250668864	4.464116085225772	5.200787054282605	5.156269537305157	4.050615300442125	1.6068143804036328	5.562568173669488	5.334162698629702	4.554882991734889	5.812854275332499	5.732520088981368	4.7159080386305865
200	1.7260837511352216	0.6895787102455229	0.6146506055572262	2.6946239403402834	3.4474279793484492	3.0731170099870972	2.8903200553399726	0.8247597792783079	3.0827109735859217	4.303453434569395	3.9939045805230498	3.129528037752998	0.6422815902706372	3.373530617779651	4.796714770604303	4.728575217706271	3.220989695999863	0.33494132672622334	3.8329336546446724	5.584904179777646	4.7195310473494665	3.128851882664373	0.5158257471412687	4.420783985420624	5.095062719832736	4.892864691778784	3.8195376299745143	1.6392646986581905	5.461270795385201	5.126268373898236	4.446148384312885	5.821430668438286	5.640768513743048	4.675467956182639
204	1.2379519908167325	0.5328961597339733	1.010096905065412	2.1497096961105906	3.333542815375117	2.821068518191818	2.2544009628598203	0.6344732626154858	2.991397850113462	4.317187298365287	3.73210572254145	2.4800784525244146	0.46993529677953083	3.183125726292604	4.80121706704069	4.49454830942262	2.8730299400271804	0.185729324348736	3.7519886398954254	5.574411854975035	4.4599103815010395	2.874561540975462	0.4477032411715989	4.406814564069175	5.056499468434738	4.675877559300501	3.5766019730866474	1.6032431085162873	5.3805804116777916	4.923957335438076	4.2986817251393035	5.807687267899255	5.509344563879549	4.561194885182088
208	0.7782421688458269	0.3323520413590729	1.3703410590859977	1.6072199304056607	3.293945542602166	2.564726346216339	1.6163626868446745	0.47741785524948505	2.881258003589781	4.431365001934437	3.558900824144522	1.9529170940683818	0.30558058542347527	3.0326647681916463	4.88645361620293	4.353289593196012	2.574362748322136	-0.008791856445526543	3.6592848208545776	5.62150572311175	4.292535294185583	2.668294899879414	0.319517999080761	4.4543394929958176	5.089278685118336	4.533670413968622	3.3755230818401722	1.5360940656026314	5.366547094147304	4.793022620497658	4.16853617569372	5.867536053148542	5.431451783772254	4.455922115519898
212	0.4845753597899773	0.08810923226283991	1.4628722630760118	1.2454903094317331	3.2346215166441565	2.286995881982238	1.0940903397593549	0.29465532228463126	2.6886601380176938	4.515290725752086	3.4220330628781412	1.638517614042462	0.17747364893451337	2.9188871309972177	4.982918726738188	4.2624421012073626	2.3697864949476504	-0.1665149177877125	3.5818335919546644	5.691184506352576	4.2118525398726865	2.551890605205655	0.2363140428060362	4.5834445837648286	5.199406610713092	4.491688716992096	3.284122697167982	1.529908891629905	5.46685789635376	4.800919043817565	4.138761509936374	6.084664806262454	5.50746296445803	4.4776425248583696
216	0.41164356366178023	-0.16165806312277456	1.1733539074837331	1.1900652616972174	3.0921466272486224	1.9943250367357483	0.7632471899789615	0.08133201280563511	2.410296910876255	4.474998939659966	3.2677717126359	1.5512188633854898	0.12472121386033351	2.8528909611198965	5.04093598046744	4.175539959855724	2.283020252185757	-0.21145801192778213	3.569454660940386	5.769919380879132	4.201058377149695	2.556584351760577	0.3069754533169872	4.7977967141135345	5.396108136858314	4.567201602848807	3.3545377169792148	1.682483072801394	5.711389050368947	4.9862861507409155	4.2771801840558945	6.4884047344423275	5.792995915092109	4.718389976032767
220	0.5052379356979686	-0.36279895810082063	0.5576168284642842	1.4213594162341052	2.863687269610095	1.7209789709509662	0.6309388860031628	-0.10753536942273223	2.106805319235271	4.29498146880099	3.073766939032087	1.628519173325213	0.16281695622821657	2.85308908695863	5.0452618471557376	4.068558205822849	2.303380721952467	-0.12203768609945054	3.664637794779051	5.865365490409881	4.241725910921531	2.6845679215363267	0.5782922491731922	5.0791730752500515	5.679252610172984	4.758111941722274	3.592220774164157	2.0376584478430777	6.092737659330451	5.334523187520393	4.594481456600733	7.034364205720162	6.263898833672481	5.187880502954107
224	0.630973337487756	-0.48155772564423	-0.19125464510314225	1.7483135417666578	2.594363206035312	1.5076231918418106	0.6328412278410113	-0.2006632084548609	1.8627980900463377	4.030913342789231	2.854670040552661	1.7562154487138704	0.25483187968765075	2.9227967188474544	5.006178366419452	3.945786943010258	2.3820745884835204	0.04807750868579827	3.866236438526655	5.987146839284542	4.317208756037352	2.8990979121445926	0.9996086929832803	5.385944829694033	6.024039253284415	5.034586416884839	3.9432687659841448	2.549787038087553	6.559856875070033	5.775491223058667	5.028787123381414	7.619747619464379	6.819629651971543	5.795631870896001
228	0.6417568905840043	-0.5282114134803897	-0.8396212437412136	1.8832822990552889	2.3382799566360837	1.3719619477919274	0.6609641892911563	-0.17307861105612918	1.729457850858148	3.7663235569277145	2.6442840032572965	1.8132941677088596	0.3143279842546922	3.0311574859383716	4.940735804481408	3.8276710413614503	2.4465544162015838	0.19360177170034285	4.114821900469227	6.12671802881253	4.412386883085868	3.133288852410251	1.4411598407599198	5.662582860001448	6.377984030833173	5.342594133239762	4.311487663827675	3.0955245416688046	7.032922726994554	6.208835586130838	5.4687108855458595	8.12797258232308	7.32621381817301	6.385246737571428
232	0.44779431706858575	-0.5542408809973743	-1.222035047306809	1.5985147912674829	2.1265785640431365	1.2962515321429289	0.6146065577248484	-0.08059824237739965	1.6896508889454063	3.56663822227257	2.4735879835619197	1.7235854820604133	0.24722042617369525	3.1178042809924364	4.863246428608934	3.7354626561267246	2.433755868489146	0.21749356334133868	4.316053379605942	6.256115420758782	4.516502845805179	3.319400540554256	1.7603369906803932	5.86214159439141	6.679818136516428	5.624310956106377	4.602319228950329	3.532526484153738	7.437419395742585	6.549132330571964	5.807482227921746	8.483242013493982	7.680238704364144	6.808626157736629
236	0.05539899677952452	-0.6239864214401802	-1.308921810660134	0.8746729471057805	1.9643217275616216	1.2426515786268275	0.45222291236189377	-0.03765977537064506	1.6723302560545663	3.4582979591794034	2.3604445397863	1.4934382400953976	0.012512629820107523	3.123620740633513	4.791189658466153	3.68440889381971	2.3274517000563666	0.09392188465724106	4.393180359239096	6.348764880363732	4.629693973296498	3.424815169270653	1.8800362301090168	5.971240028564205	6.891796094660434	5.84629248096707	4.7713465570147875	3.7740158939444264	7.739780406484323	6.767344457706578	5.99882028972504	8.68590161991591	7.858718375391797	7.0001082243613375
240	-0.4427638638761778	-0.7787151913055701	-1.2012261121939412	-0.05047227056992504	1.8532805396019223	1.186258909091471	0.2164217526216937	-0.1489819731527187	1.607418533081551	3.4382126244522824	2.3141407908187333	1.215393778593413	-0.33636689101171713	3.030184261300936	4.756244647415465	3.6870820429218476	2.177693838343404	-0.10399939838616562	4.33628558017742	6.406547530211741	4.767825114610348	3.473784914783003	1.8331412030667706	6.021298393305984	7.025207024957149	6.018498405520084	4.849124896204402	3.835915794224545	7.963459471623934	6.904622537346556	6.081494792842723	8.808128334695207	7.926196555153072	7.008032781073508
244	-0.9130275226429472	-1.0123479340743162	-1.063395020661133	-0.7709488253202345	1.8217410995265224	1.1454756230997734	0.020261185192571203	-0.4319606412472033	1.488213892994025	3.5024371058727723	2.3496470392032096	1.0341632340070308	-0.6561236364965233	2.887072555882229	4.809555995242293	3.7635412121166243	2.090301985231528	-0.22933575453076988	4.220825661493098	6.476061327796246	4.963559138164019	3.5441672712489813	1.7513540938982632	6.0810475195894576	7.145707112390952	6.195714934918847	4.931102263398552	3.833828439569781	8.179823854775176	7.054135781597978	6.162203296362098	8.95713136318864	8.000403384036764	6.970826608224329
248	-1.2376884190782012	-1.2729459968853025	-1.0382049057497562	-0.9113327837823273	1.9297363709365998	1.1828675240216033	-0.00605356039813643	-0.782522259167052	1.395568605714199	3.6661260035460455	2.49264215793703	1.0831559869122056	-0.7730975727589622	2.80240797288981	5.009165274370896	3.9441230197509087	2.183763260096269	-0.1319058087118078	4.179262627540417	6.63807199709546	5.2573943005386115	3.735623111830055	1.8013043358146925	6.2301030001701605	7.350582104244299	6.45629928866157	5.134196268470506	3.9285561939235123	8.475971200524057	7.3180403524648865	6.363991244461031	9.224639869288149	8.194442728334458	7.049198609674408
252	-1.3539116348415894	-1.487573023855018	-1.1826653450670355	-0.3301154068718457	2.23507022293365	1.3680832351476064	0.21399059837673312	-1.013280269925539	1.4604786597571648	3.954863061456581	2.7639944483591092	1.4164504969120875	-0.5716080651156663	2.8940522597678053	5.3895659310642845	4.255213726744411	2.529489510825567	0.2591149800434294	4.334978569530085	6.968408567001187	5.677222237558482	4.119782437413491	2.0965747780318527	6.521599276289671	7.723463992646124	6.863116247015559	5.537132726040836	4.243073452727211	8.910865761193634	7.756529788461078	6.762426836106445	9.643145536871659	8.560560204827093	7.344357948833988
256	-1.2614499298672082	-1.5935161073506598	-1.455018993518813	0.7874352316049043	2.737990372420735	1.7234010652899439	0.6533682329848032	-0.9493202543132493	1.781240458759636	4.3722557911156565	3.1520333210518907	1.9707860896897709	-0.06260317548204837	3.2258653559301798	5.930549606608833	4.694074618885906	3.1055004518303857	0.8852591492236758	4.734533297982976	7.490776996773641	6.215609534783169	4.696782577100504	2.6330540113728076	6.953449231711806	8.28898904614995	7.425542812673205	6.134859546431135	4.794110762889931	9.481598830126206	8.353970506557177	7.342354755937434	10.16995618159872	9.063250518804503	7.844420413239176
260	-1.0072361205419953	-1.5611976345700125	-1.7482892230716507	2.002785677621675	3.3419983302616063	2.1864187662235977	1.1804181307553874	-0.5313265310224211	2.34509753588828	4.86789988242409	3.592627277840499	2.580307715577024	0.6039493068705604	3.7622792625806256	6.546710951488722	5.209065424165269	3.7900307082808236	1.5716892441168882	5.315136896065432	8.149162271905812	6.8177141971118775	5.381355748895072	3.2813646710518984	7.463282089463909	8.99111936206523	8.082571962930869	6.8302206820656535	5.473873124607533	10.1163797123126	9.018202758908473	7.996672133283244	10.704770061168855	9.59294412098278	8.425467469877642
264	-0.6601126773380449	-1.4003024065903087	-1.9472024391603244	2.834171288010421	3.8663468263285004	2.6193299227386344	1.612668390970823	0.13465794886923463	3.0066933555985265	5.333422647362039	3.977656354398301	3.0435900611328126	1.1974563568399945	4.369992721968538	7.109907609154922	5.702832684423753	4.404351700153274	2.101213211476563	5.927384361560672	8.818997360851847	7.390449028429533	6.029149517095976	3.8417982958118664	7.950356940223909	9.707632040309921	8.71821782772006	7.469048004366344	6.092971786374537	10.697817775419805	9.61363980727086	8.568357446018345	11.129806490454627	10.011573766227112	8.905780769751393
268	-0.2924000315436365	-1.1498836249883635	-1.98145508265905	2.993246547771148	4.118676175209252	2.8691809104958828	1.802052731732603	0.8124348500720597	3.544722548118307	5.639459118909928	4.19704674614786	3.215091935623518	1.5110019407270179	4.871674525358896	7.498932342669799	6.06489609140758	4.788416373561046	2.31473874461361	6.40262602143258	9.355805373412554	7.833828906307909	6.494589312368608	4.136516560601222	8.315440156923012	10.296744320621873	9.20555970728798	7.9044389525163545	6.465779765017028	11.107591600984348	10.014671300398978	8.917187668221128	11.35470387453037	10.208917592022813	9.127943969568904
272	0.02790560938823003	-0.8616425373257519	-1.8469326449493702	2.523756259268387	3.997796286979899	2.852669231841892	1.7119150118521465	1.2442526785907417	3.773360719690709	5.700323567303623	4.198404301533837	3.079654685828135	1.458759304178315	5.128163324760152	7.653785686242455	6.222971900487237	4.87511252126086	2.1892876569786837	6.631585104411642	9.658997511318942	8.083135584450442	6.694809419895327	4.093287457621986	8.500217416283155	10.655049297134232	9.460626578287066	8.060467699681015	6.496318323899887	11.273241014628622	10.155823681939577	8.979517914035439	11.34751030917988	10.144794438498185	9.028369880770011
276	0.24290375350183166	-0.5854855165004594	-1.591454144274506	1.7700576737536902	3.569933405446013	2.6175417833998873	1.4452761375177154	1.279233452428205	3.648351183263164	5.531320557934172	4.030924786880998	2.771150105155618	1.1190545530676033	5.108256327129748	7.607189636097647	6.187023147221065	4.726193892944217	1.853683228581008	6.614499552239203	9.719217275876375	8.142580965464909	6.6500043701122085	3.780967226019161	8.509306886169874	10.760807963859403	9.481765723131156	7.966603735837187	6.224087699434615	11.197746248583877	10.058163617488878	8.795168854442283	11.141738863471376	9.861650442020672	8.663378693642208
280	0.3198052934678531	-0.3581968834893318	-1.2814490762782018	1.1915259331183952	3.0671825331496634	2.340081685833805	1.2056504457551585	0.9571626162204817	3.3047730839261473	5.262068258351517	3.8421912096292337	2.5207135613695746	0.6998389345619644	4.9079384679858435	7.475263099870672	6.058841690025161	4.508896339476727	1.530297275494281	6.457919581321053	9.62391183330694	8.091355303362796	6.478541834686955	3.378114691788463	8.405528047320562	10.682159396858266	9.354073500858332	7.745757560247309	5.806465611103023	10.958975764262398	9.820493673325753	8.489269235158453	10.819994899134775	9.46451566213955	8.18109605631005
284	0.2747101776816676	-0.1959126884759338	-0.964848158307706	1.1326434583677671	2.7945878435150227	2.250465864221684	1.2063959806501268	0.5011174666150491	3.001301281027179	5.0902762284507785	3.8203270338879265	2.555604212984365	0.44346243031118165	4.709557998210827	7.409621220001001	5.9960384217511065	4.422466266910518	1.4319246971217372	6.3233823616595055	9.518280958939842	8.055700281785334	6.347132189938167	3.0904803198034885	8.28388688857006	10.547286007001034	9.215640044786944	7.5611576843095705	5.446380124646429	10.680368396496576	9.5796947237384	8.2181129248079	10.48423001503377	9.079853034936903	7.75483558604226
288	0.18492470634978328	-0.08867362119221255	-0.6496086104204428	1.6687582689114853	2.9839155598644087	2.5172715123517757	1.5685411652063792	0.21594099645931036	2.9955940170950552	5.192730413677946	4.104230393537961	2.9936747475381336	0.5192533122304238	4.698515403329039	7.532320003565728	6.142430289972811	4.607432353784832	1.6631736713379994	6.354570849587354	9.54004952883117	8.156648615270699	6.397833808004737	3.058341257003162	8.237202623551207	10.49025723669824	9.19968984188532	7.546416263600939	5.301238523450376	10.485120746843045	9.457262015307279	8.104412058395749	10.224623654300053	8.810925461458165	7.51071498881925
292	0.17583587721299374	0.0011296647106647023	-0.3098175517843142	2.6000413829008586	3.6712932493978676	3.1539907375813723	2.2605812492516875	0.3439069083590897	3.4174320611502558	5.6396550989814545	4.70953367951582	3.7865722083811084	0.9559679007236201	4.978611456699014	7.886162261125731	6.55959366095937	5.08248327879394	2.1748950426503972	6.619161589123184	9.761350607068826	8.457558610543689	6.68653152684982	3.2982113278086813	8.327497461274895	10.597915622656897	9.379366851014199	7.751335124472729	5.417229161890438	10.452899906470293	9.514870619592983	8.191049555125252	10.097332928913424	8.706909157704668	7.482173423949904
296	0.3750308444568094	0.12943091955885372	0.09037006623578481	3.5858430771892924	4.666683185239242	4.00063418331978	3.11190842796472	0.9496258473262411	4.20622681509441	6.357644541901371	5.511725888641603	4.739585387661383	1.64139413419206	5.528335557331357	8.422558763219946	7.194259148553771	5.738739952857266	2.792797081571912	7.089348298293743	10.164655659761516	8.93615434297793	7.161445599594869	3.705637445630737	8.570986726102038	10.879847499081318	9.740158056463152	8.127174356922264	5.719482884271852	10.59537598795872	9.736314748977739	8.432390191722957	10.114859555456087	8.755443550892677	7.610010604718455
300	0.8479918816137565	0.35370519667968836	0.5696389064711933	4.332778919724848	5.641263470712013	4.798982131285834	3.8962290188647497	1.8918523740687467	5.147959219332975	7.165937405613802	6.3033246834874905	5.603050694624409	2.3850371777399566	6.219292148146674	9.03334519966614	7.9035315314065855	6.39689110094535	3.307857981913354	7.667356471730653	10.664092990653879	9.498471236089467	7.694882373455591	4.118105401132325	8.94112489350249	11.275419206761795	10.195026371965112	8.55971524938489	6.0635266150926785	10.86156842350491	10.044966672331768	8.728013970273453	10.251484845028134	8.901076294360438	7.78682468355671
304	1.550037976166181	0.7127221208697696	1.110295412121395	4.733395564526376	6.293404086436121	5.3268275126435825	4.443950165019118	2.892097942679844	5.990018829481149	7.869493941465667	6.89932249234651	6.191454394921059	3.009111158403091	6.884369832777328	9.608220076144407	8.527009942460626	6.897794229258328	3.5814723878082373	8.23664758510046	11.157167406523243	10.027379010633009	8.150514582083062	4.402006615015152	9.382955527457776	11.690850228356975	10.632233592846132	8.930764175755211	6.3168568451659715	11.167287798343395	10.345600102053698	8.97813699362877	10.45770070296696	9.077034927339037	7.918155650174595
308	2.3291253984774336	1.2099537818877872	1.6606038766896414	4.888144957598806	6.506898863576542	5.520197854410008	4.725725162018886	3.6663164999902667	6.56743715535485	8.360193231456018	7.235692482799748	6.470262987967135	3.4222254666709904	7.399510841761146	10.088046048443706	8.969216324095628	7.180361252775872	3.611572971762392	8.712374665198192	11.578463525149514	10.44131467090384	8.451911904930505	4.518158424414279	9.831646894427966	12.046720474345697	10.971096964793318	9.176607108789302	6.426767333017136	11.43428990338217	10.570005390183418	9.132421470473126	10.67754742787577	9.234663940002585	7.967951754480024
312	2.9883577748190135	1.807579751219381	2.1566681807426806	5.012917505959322	6.413823588390392	5.514454827691109	4.862620341421795	4.054556359544724	6.872029287154189	8.670054413840198	7.405414562601954	6.56603096257886	3.640925398217215	7.734952907106863	10.486242267836307	9.24742982436977	7.3067302519380215	3.526489010490392	9.066621757504489	11.926039665629391	10.732089015567654	8.616531350315663	4.5319490318318545	10.228173230096756	12.31147286167775	11.196763010366144	9.313574767440073	6.438460810618229	11.620214432942053	10.704165431653779	9.207542396186783	10.862789126626827	9.357031798580355	7.96591041461091
316	3.383352986376678	2.434224360995898	2.551837914699807	5.299290166826878	6.323512538203366	5.576066956746979	5.055821405997485	4.084961880860779	7.034751397491646	8.94661805755112	7.608861427170087	6.694805128360914	3.757333030751073	7.953837374632847	10.869664164756443	9.478834128289924	7.423263531062749	3.5132052809707077	9.322462058372226	12.249750106401455	10.96270176980719	8.739250161040983	4.567073333653575	10.530500385400346	12.507276503456342	11.35831734650611	9.42009732729076	6.457553370384478	11.728086441947045	10.78598687309759	9.267532325234543	10.982322665143395	9.453935599300053	7.977570513611012
320	3.5025021941447028	3.0050666256374234	2.842365496134874	5.806365475300053	6.551477415710086	5.956336006385037	5.470909104839626	3.9436263938518943	7.232117634633725	9.36234471818364	8.041295031272389	7.043115121225412	3.874243964904143	8.161933878318878	11.311077089362197	9.811739896797562	7.677144984889533	3.7162353898636233	9.52589604833712	12.6110925356039	11.225978822975488	8.934013344143004	4.728493201715267	10.719712230320582	12.687508551035968	11.532210320920589	9.585314726470793	6.578835947592917	11.792512863903525	10.875272723397067	9.378012633488321	11.024381609739354	9.541718458880668	8.0538720881254
324	3.4802846820700593	3.445980540158378	3.0741386335959677	6.444278700770776	7.240385990936091	6.744954092162523	6.138180240392477	3.8698298833418012	7.57598827356656	10.008179639343592	8.77777860332652	7.663437823974434	4.046701421057475	8.44019983068029	11.840636223462202	10.33795163405543	8.13307187888003	4.160069931971198	9.714029287608223	13.03924366519919	11.587486237834254	9.26601216837803	5.039118754062116	10.801409694103574	12.900590864035584	11.773026436645594	9.853982900536124	6.824233037885214	11.852460831281467	11.0139407833497	9.561592077910081	10.993533106704446	9.622152304197611	8.192066171943974
328	3.5310223013419835	3.71462940231885	3.32329939956846	7.043423158028833	8.275036790936154	7.807561377840293	6.9263071838982535	4.033483971902614	8.052633265191517	10.834080668752533	9.722113584767987	8.443173387191337	4.261766899793051	8.800115563108992	12.425372092347212	11.036987276821787	8.736955620641503	4.737560737092764	9.899660085479393	13.511183704596036	12.046663253886857	9.713936781199765	5.426490293153677	10.805195781130148	13.163146939422498	12.08144375611838	10.200056050297139	7.127552491312521	11.929098099154384	11.201021166178148	9.782085394003781	10.907975169298389	9.676402067549414	8.333320596636169
332	3.8330655001185825	3.812989702134601	3.6561322119910775	7.458297233824639	9.33815953758064	8.844194389902	7.606259803641499	4.455435741619758	8.539956071273156	11.668701142414362	10.648657771881814	9.162280059570103	4.460348118011164	9.182697272958496	12.985080686209963	11.780884712992941	9.34323022390817	5.266700254494608	10.07463548024026	13.963764155418712	12.535108534636073	10.180093739556524	5.763659462682045	10.777556392161845	13.453213657745327	12.403646437800013	10.540517780394588	7.372109394534186	12.016839950739497	11.39281079276912	9.96353242265944	10.79405305044539	9.67452619017378	8.394874551558885
336	4.42364977673419	3.787110319112782	4.088726987052445	7.642984370962108	10.07669827778144	9.539141630884243	7.972232321638406	5.0060334079237245	8.887356735679257	12.306528060359668	11.3141498280019	9.607311224523167	4.583491790643372	9.49861524091088	13.43292709773795	12.39519974440093	9.788294767462224	5.582617745609835	10.22406003278048	14.327074968405249	12.950021711078753	10.540098163696427	5.938944324757804	10.765961619852252	13.72325893752007	12.65925499580945	10.779309245550973	7.457421283967231	12.089069335933113	11.525955171095074	10.031893704835477	10.677039119466407	9.593790030099298	8.317609765987358
340	5.166579710313794	3.718100061566069	4.568510997681927	7.65919397327714	10.290206883199412	9.725461935284436	7.956505755363414	5.480499253741194	9.00928876509553	12.617549864383983	11.582682580314643	9.685068106040717	4.615315425664344	9.686398481708746	13.721170390772414	12.746874777082372	9.974927877037407	5.620502457733424	10.344658825505782	14.562898599096473	13.20760818961542	10.708628627443293	5.917739853223206	10.804641696353714	13.927989924552003	12.785325971748476	10.859983416795044	7.3590807728934955	12.117590873641864	11.554033250247816	9.959305738099799	10.575386974337313	9.438280081761453	8.105070093672408
344	5.8159942480113385	3.703821649736884	4.98694657020336	7.629208545496401	10.037598584581817	9.474759077946208	7.675733546904816	5.710285649187651	8.939454056104365	12.617934195132525	11.495715112272496	9.4749765156898	4.598933208298478	9.753787016084503	13.865819896022444	12.811337438662783	9.922827695589358	5.447043405131815	10.453757259678577	14.684992753146126	13.286666836571579	10.685343715392706	5.76268146967304	10.905722590568725	14.049164736562961	12.771124807538724	10.797530146994228	7.147170525625783	12.092467277513888	11.475985498064496	9.78466126832589	10.49846646519314	9.245739913485364	7.829311351082499
348	6.1411804997843165	3.8287658594739202	5.222639070676409	7.663426379882665	9.600822424490723	9.05941674806223	7.378410320726774	5.647844300315759	8.812363602323675	12.45878216458952	11.245927782275707	9.188784576104748	4.615857589511851	9.774984335061747	13.933637583839502	12.679843870574363	9.75596139352042	5.223700987025046	10.580621692646849	14.747302018125529	13.235868420562136	10.553472492275942	5.600308880971664	11.056518526772475	14.101162874859412	12.662454573132914	10.669959995033597	6.951038343046019	12.028304069668073	11.338516206724561	9.596995329468646	10.44583222612925	9.074802375769966	7.598775367625239
352	6.048896297441628	4.130361069741518	5.199021326290237	7.807945708588834	9.3262481453988	8.806632973370858	7.317522507312385	5.385487542860471	8.787554718719319	12.340129821139088	11.070280047123472	9.058582283037481	4.7428111910284825	9.84764954941686	14.000605547842786	12.505742041485119	9.636083578576502	5.124983774597281	10.747764560266846	14.809191666406772	13.143722500994977	10.434907886862398	5.556000218668981	11.226803751257096	14.117499315858206	12.53654858285021	10.577082607267602	6.89299820113323	11.95621105990136	11.213682146370791	9.493061995380467	10.410922977865336	8.981382347319306	7.508451919672131
356	5.637448296618862	4.574067581072439	4.930127131412489	8.034646967629506	9.43249986174431	8.922930694940026	7.61470697387774	5.104692446218336	8.96021554592011	12.398542372871495	11.121341677243578	9.213298774346079	5.008884417285423	10.034948323663214	14.105769121796024	12.42031285011145	9.67849061429707	5.255023943031168	10.953665705682054	14.898059807356718	13.088900533054778	10.426471683880768	5.692820534638241	11.382017106883286	14.127030336952306	12.461508719453242	10.58855912396226	7.02718685283301	11.90559956405746	11.162139864396432	9.529749846239987	10.386001560691929	8.993988014401738	7.595962028398944
360	5.146814810156177	5.047957884441411	4.52716826249578	8.265006044501519	9.88690373785535	9.379440283936377	8.184538820583585	4.979248987977921	9.30298135316018	12.625590292525304	11.382171602122154	9.603492712569919	5.372603879715508	10.319541905098005	14.220755541183445	12.45867439939204	9.88837048895028	5.598207936457925	11.161230059100877	14.984862289742543	13.092670407618012	10.545408222276771	5.980820640722634	11.490039796429892	14.12867923984121	12.455910651230072	10.703188869156245	7.310771923680747	11.88040062765868	11.195560427056193	9.690379118295375	10.359578106473974	9.09464261619839	7.820616702361774
364	4.831202017984272	5.390952096679682	4.162177552205135	8.4109535004929	10.421095821772758	9.92293069241527	8.764086701200444	5.088722692993275	9.673410391226401	12.866461721360523	11.673422783942968	10.018242810704903	5.73348902208439	10.60113618081527	14.256391489274627	12.539171187213705	10.15393540679786	6.028953537024449	11.30456635482053	14.990675888360677	13.10285183459426	10.716270419721361	6.313352092062027	11.524049729815705	14.083835566248373	12.47400376031525	10.844572993555143	7.625059108556194	11.84826847899713	11.263199777776533	9.88673875219903	10.313019726464569	9.220921493137869	8.080143908127429
368	4.823422896604987	5.4512624602969435	4.00179575863423	8.405910470720476	10.675917598473145	10.20600697801649	9.035194374160984	5.382051454307134	9.882143949354184	12.900060621117001	11.747407883548654	10.18659016898348	5.972841247737408	10.742469760475528	14.105034792574246	12.506497351541805	10.299867604000218	6.3732728797220215	11.313161821412598	14.821998558769458	13.017798390900309	10.805770846741488	6.558460219037183	11.462733239797174	13.931357348554732	12.42415520392255	10.894569369466513	7.83207605291878	11.749220818419564	11.26943585411577	9.995020841159041	10.21839806837827	9.287355399525314	8.253596285008841
372	5.064130770295353	5.152093874321315	4.131319512427087	8.218150118106147	10.393036816106296	9.964160894032366	8.777300812495207	5.704039559268118	9.781537984947546	12.5548467319129	11.415708513048223	9.909521077886138	6.00281046305481	10.633927318427792	13.694908107513525	12.212430923146067	10.170796368669352	6.485901339368081	11.13989350367379	14.415182077252625	12.735350576672014	10.684455844606374	6.61374519585683	11.288762064088948	13.61587139506659	12.208626716307528	10.744593593172802	7.831736544862997	11.51805493307791	11.111726732809844	9.904598211077278	10.03839871733126	9.213137603387013	8.2445258886084
376	5.3354153498411385	4.534208286281717	4.507484901492009	7.85195491715692	9.54911038848847	9.146511054788139	7.974947432410359	5.870414719065346	9.332052207273794	11.799141854060128	10.643194171736916	9.156461692580399	5.801962360992323	10.246224377512117	13.029517140870722	11.592189759550894	9.704026197728693	6.307643874455589	10.780693980654899	13.769108737514173	12.202914207166678	10.285802815217368	6.440035803747797	10.990202875999964	13.115837064053663	11.766984909866414	10.341316197035217	7.593765239616649	11.111350031455816	10.723053905116833	9.559074377721126	9.732820486291248	8.9464463961746	8.007781008529856
380	5.381295190576133	3.753565063536465	4.963363158092492	7.348416786714365	8.366971948479918	7.938556174262493	6.830390436093545	5.752478585024727	8.619111993009342	10.763477298264286	9.566081022906072	8.083383539772083	5.42586849750095	9.648504232842017	12.196534126006028	10.701992007892176	8.961053825642116	5.883515343116743	10.280077908310435	12.954456296638845	11.448825807276133	9.639551138382199	6.067441924988799	10.569484684007977	12.46116253567726	11.107985468476029	9.711328481950979	7.158448678063129	10.530926677818705	10.104532216309797	8.97803208945423	9.275708175128452	8.482079484505219	7.557441215507918
384	5.048233019481	3.0272920055251573	5.265411363659239	6.786214334520508	7.201664906439126	6.66977976068728	5.674631581284505	5.330831991088062	7.815049628553808	9.683399175991221	8.427831628502044	6.963929158748336	4.985764967728316	8.977718330604924	11.338474245054744	9.698552107166341	8.10235402922614	5.3359489306198205	9.716105436589798	12.092466323839574	10.578216526026946	8.862108208216148	5.574945435753717	10.050984357253098	11.72870060820526	10.31322953481365	8.952971435830978	6.610416395663819	9.829935049034338	9.33119294671688	8.249944666060541	8.673277833021512	7.864625434092704	6.955937844834185
388	4.371252048900173	2.547537320380831	5.2096791135863265	6.269122584727407	6.366600974221288	5.659158692377037	4.8229818222347625	4.7010407329125075	7.108124715024902	8.793902374953293	7.469245891786498	6.069242462093628	4.604966152008832	8.378289201564138	10.59828850931367	8.772232033516305	7.3192381674032685	4.810157286897268	9.173153854098313	11.312564821292035	9.73557088301282	8.110065439729132	5.05915115986481	9.481632208727195	11.017116518815314	9.510839438267713	8.20066354588467	6.044016822814055	9.09801957694426	8.528014161513267	7.501236419812419	7.973349074260098	7.176777821541022	6.292879088726266
392	3.558217993335699	2.4036729275098003	4.717191207420071	5.896810039891038	5.992811664709693	5.0796208253404735	4.44440268348111	4.031279553725806	6.632943613471933	8.230549791536754	6.829706651610408	5.555471406261869	4.371207226207415	7.945449332204073	10.066086743689578	8.068336466445816	6.755938036073999	4.41825341062843	8.714657761505904	10.708013507510763	9.05128572086108	7.518866520018152	4.606389510922475	8.921213127500517	10.412689182694862	8.830073334334626	7.577614288271928	5.536549554197825	8.431475618055831	7.826021651536361	6.854223234037523	7.258452873977635	6.516488535640954	5.661478028308681
396	2.8810775207258565	2.548532956364645	3.884763469424703	5.723253235672245	5.987680420063224	4.903610693948919	4.501361358721825	3.4941108138558303	6.427324755653668	7.980811575767135	6.502808554443803	5.407596574481897	4.301929463015625	7.69349525416588	9.746703123280124	7.630990962789264	6.454645617401096	4.202095021129011	8.364380815368785	10.304861042708312	8.592416741611897	7.15111826044858	4.272639740646948	8.421986558631547	9.95821854938184	8.352642038237779	7.153141480505727	5.133786665352644	7.898607234086254	7.314214211117124	6.387127383318633	6.620021803354411	5.967751487923598	5.136621939088161
400	2.5380752022559165	2.8269371915015857	2.9646434709085496	5.724518761486921	6.108043655232969	4.949368941208879	4.786263453797194	3.206467381964873	6.433147891014943	7.908101061882109	6.363674624588784	5.4649023871729066	4.340293873319155	7.567055683104494	9.565757727313628	7.397333603302288	6.349997504414575	4.130353440347006	8.108170488867216	10.06020066582358	8.342067697444163	6.979778749009832	4.076950062948878	8.01163194540978	9.64227006385141	8.08479974612837	6.924305898350328	4.849987971458571	7.519020538419863	7.0107340635679085	6.113639339270355	6.127101882723914	5.5774626591055165	4.760507571599038
404	2.5579693252830813	3.0503625792736724	2.2735650481996195	5.799827561040437	6.098454936842872	4.991175162111629	5.0298662058677035	3.1951579966937436	6.533199293807992	7.829022387765357	6.244534953563899	5.508673653999651	4.383580196757231	7.481133918947646	9.40841290959565	7.239252072176747	6.309987052245083	4.123895634729766	7.910757998520908	9.887277578186438	8.213407495742631	6.908871633252577	4.002011289029194	7.686120013858573	9.410699820600618	7.95952079670712	6.824612600262185	4.672080028182159	7.26250265195203	6.8618416612949	5.984305843503141	5.80030058350018	5.342182145936115	4.532586086273605
408	2.7965195108380265	3.081251375048347	2.062186474361961	5.814116463287076	5.817858204458049	4.8708677168892525	5.025776850409278	3.3977754030272767	6.601465685389786	7.601972083925762	6.017333015508378	5.366972432891347	4.330745686087402	7.365293484212039	9.171999908178375	7.029860955609461	6.20200870855408	4.095338334234239	7.736719588773545	9.695936178523045	8.091652849748764	6.8213224238788905	4.000774373443938	7.41752050434385	9.195140815407548	7.8688444892578335	6.75584743701417	4.565015304483966	7.068645459448308	6.770098669125406	5.910073265412972	5.6063232280328945	5.212664591026298	4.410312641452921
412	3.0305533332604537	2.888778440811394	2.401771062509109	5.667606339450435	5.294526563628455	4.559035289698039	4.717835414419177	3.6936480905737272	6.551356299072208	7.188355904550121	5.647870049522237	4.992161261352304	4.132264126835103	7.193159562069731	8.812408425016432	6.705430967567485	5.956165775519988	3.9894645113356515	7.56805418011125	9.433555579209905	7.888279418102808	6.634702188906946	4.012551297547504	7.175134163860846	8.947962738333858	7.715313415121536	6.632571203652317	4.482485283024854	6.880074960504237	6.641787989059955	5.801935181274374	5.479171739096109	5.1179242004879075	4.326056469485472
416	3.093572608766628	2.5506448681329945	3.1413867394289903	5.358990655720338	4.69150446660968	4.145030488039443	4.2136983765074305	3.9508228202253264	6.364150984908626	6.661925775874346	5.201310144643833	4.47753285231226	3.819525947464168	6.984186154851977	8.363987901551418	6.294515593849087	5.596531377013916	3.8062817954285144	7.409598331817465	9.10820195759482	7.583099822926046	6.339253409593068	3.9848234552865778	6.946926576241214	8.666431405121317	7.458425503019872	6.4198198156396575	4.382002819441878	6.67182014688208	6.430752261138179	5.609688267849838	5.355615602323097	4.997546660203453	4.2143611801556595
420	2.9720654412572425	2.207191700131112	3.963206996448332	5.001934038885002	4.212519635055329	3.773761501321167	3.7236125375195583	4.072623719423424	6.089775546911172	6.169191344897922	4.804160582810846	4.009582509408027	3.4969742209836108	6.784174902000023	7.925661067025763	5.903676971788984	5.228269086989099	3.5987822918630448	7.281957131120441	8.785016991369769	7.236011010020623	6.002364143475859	3.8948721787345084	6.749588472491398	8.395454385541797	7.135502320394012	6.148659690591849	4.2421665084545985	6.463296397103376	6.159369453138052	5.344280706264068	5.207688318455855	4.829218852248313	4.040644158652114
424	2.809861414490865	1.992991084789043	4.515844333691362	4.772042739264006	3.999785413180321	3.5664822965222314	3.4546894939938118	4.025571336119368	5.821875557505767	5.860896095737328	4.582390296810703	3.778103103635645	3.2956614411116276	6.637152655056766	7.617395381768902	5.6656684732443905	4.9858317249302955	3.4456934841898645	7.205437642025304	8.555056550361007	6.9600639167536995	5.735825524153687	3.75993632320971	6.618454439619355	8.20555780246411	6.844371301536762	5.900578007105646	4.073340405670394	6.305641158396193	5.9053335040723995	5.071971403667892	5.054379927271876	4.637465942118428	3.817264070409942
428	2.816587202590339	1.9787237594237583	4.5682229880391	4.8092021820717985	4.073155869690635	3.564527264178534	3.5086817652808344	3.8420517347608114	5.658381924648285	5.82519148309554	4.60290716916491	3.884118308751283	3.309669009435637	6.564070685026436	7.525485973431615	5.673884377459487	4.966130720951716	3.4108316812230726	7.18467424486093	8.490139939807133	6.8665466135230115	5.640791401926584	3.6283483413642035	6.582860930035147	8.155885675819501	6.694628698612824	5.766806111081084	3.914024819982539	6.25076387734578	5.7604064795969965	4.881945120883502	4.945702063471555	4.478567588942948	3.5973906426203426
432	3.130559674942166	2.149052376089667	4.115397442917725	5.12705134051003	4.332524288683009	3.7174377347549967	3.8304073713868902	3.5993997959813586	5.660419926657299	6.049787029250902	4.8419937965214785	4.287280071878295	3.543476095789911	6.5582160784128	7.660905818670767	5.93361853055128	5.178877817429962	3.5091245085811082	7.202098351414838	8.604619004459508	7.007731419990284	5.7567458007427135	3.553721180526618	6.641256792467058	8.260125139362474	6.7508888074185345	5.80133341278224	3.8117599391067	6.318329795143942	5.781409249014184	4.84167574613776	4.928145873025157	4.4086985476764795	3.4481122406687432
436	3.7139201070478136	2.419326060862614	3.3805611048224478	5.581895337316981	4.612049091138899	3.9113638302279052	4.228784073643415	3.3818099413366287	5.824376091557071	6.425174220075602	5.19016502977329	4.814652907613457	3.8972549340080334	6.5932335687113515	7.948423365552277	6.351095660387144	5.535414204927011	3.692943325255682	7.221825581437053	8.841284729569992	7.343512993391785	6.036917194383493	3.5620911031434255	6.7505769559178574	8.471503236362976	6.99490211628122	5.9888315049602205	3.7948427104506814	6.477579577304131	5.956951603154723	4.960155474537358	5.0110397212350595	4.4506988413021285	3.414293518982887
440	4.3422832379381555	2.675005906027021	2.708750479534964	5.924048408810306	4.753491389670951	4.018202294695103	4.459663379853714	3.241204253596531	6.076208099283073	6.783905489006318	5.4895362715406435	5.2263612615239445	4.2006406678001635	6.6325640510949615	8.250525453717765	6.764505369273805	5.880691990310151	3.865659227148108	7.1996860322375795	9.087533927861847	7.748067359435813	6.361448748739911	3.629126062767269	6.83582256498608	8.69349096010671	7.324798088653879	6.243057712051515	3.8494870565499	6.652760488879664	6.205716117449748	5.176545606895078	5.151480184900257	4.575654971968089	3.4910070808009226
444	4.70503185991659	2.813951246786447	2.4012193619184607	5.916438564621755	4.663703429845154	3.9442098041134828	4.337008942144587	3.173930160138452	6.29116533598401	6.959745866369981	5.591482148358451	5.314487443857599	4.283267487202147	6.633917314946525	8.417222955433125	7.005751592114423	6.056587680784025	3.9206499954418863	7.096132260526371	9.21651933250445	8.056902865095287	6.584677679603314	3.6834494974598275	6.817285520507736	8.81385800997371	7.594578723806489	6.439569933845409	3.9183359047189694	6.75144098484634	6.408858759911716	5.382330880881136	5.268105493596285	4.710896003273367	3.6213283447388607
448	4.564994800486215	2.7760252882487784	2.5705661708781085	5.462977395570101	4.339878548155409	3.663371792127218	3.8238785170332568	3.128142587393337	6.339957698073956	6.847493631240793	5.41520451132182	4.994060026911474	4.0522479908676905	6.555170042653888	8.343264558708231	6.968140107681796	5.969103321263692	3.78890942570614	6.8888144319177185	9.137141204653105	8.135389307463047	6.596591932808097	3.638732662550754	6.644165022287596	8.748762108648803	7.676991920162136	6.4698352650373065	3.9252293010791286	6.703799230816233	6.462663634196038	5.469113336106367	5.278920637154184	4.772791850437652	3.7229044343414146
452	3.8918061158150032	2.5547320778242137	3.090364686792916	4.670028674732748	3.8607702157773947	3.2272407927095443	3.0597877425189193	3.036781541786599	6.140782340758222	6.4415016011684125	4.984004961781832	4.344789494035344	3.538234940178754	6.362985594896919	8.008653620527163	6.650305731195432	5.628843770120811	3.4726087959352645	6.580576880053121	8.830631233808315	7.937260130869769	6.369763835083663	3.4387743386232272	6.317847235941059	8.476848580892936	7.519459228604302	6.290685637804069	3.8141209982895816	6.4934434726803385	6.3251623947665845	5.378394590150107	5.142570959458883	4.707293498552238	3.7292499448081817
456	2.896549694377589	2.1952605192072556	3.662594309142731	3.806692113802112	3.3525957976573353	2.7492360999314047	2.307180637256594	2.858735554153236	5.6962389802167674	5.838294968169879	4.422475803653658	3.582989206804652	2.887274734836797	6.046458229057891	7.485590439016961	6.1570143544196325	5.146325575233095	3.0481431407264195	6.201354487974677	8.357976892350285	7.525460224225137	5.9703707544269955	3.0921766679895133	5.893957123180712	8.048675516788423	7.166572552706925	5.945223793278327	3.581625452535634	6.165316089322989	6.034543975853108	5.1291131843768945	4.881654727054889	4.518019664801593	3.6240038780267834
460	1.9421169708809278	1.7805720522748125	3.9665462870587977	3.178312293611275	2.944140903669054	2.3661425053938623	1.835755581989308	2.604948514083538	5.098469244482339	5.20036839125876	3.910321464202705	2.970377914558622	2.2998354376901777	5.629569993110921	6.907353860581848	5.654170975714825	4.682068812946979	2.6343882017380915	5.80080746139807	7.832979182494136	7.042995435099005	5.52715443169347	2.676634543336752	5.460017667336607	7.564949970219185	6.737005216755345	5.543239102673367	3.284159413629071	5.805025562888885	5.689245686472217	4.807914721747901	4.573515880481791	4.265651215273967	3.4488367947288032
464	1.3728038037926096	1.4091198408789598	3.8149716757776684	2.9777104779403776	2.7249042919026265	2.188020939071115	1.7980477764509664	2.3345439375109946	4.495136726474357	4.693480956625441	3.6091542152835134	2.6996352604417666	1.9451000641351148	5.1731085646674275	6.412294848465053	5.297181592918626	4.374891270082391	2.3411288202305753	5.432066426867626	7.372570972902161	6.646906359103184	5.1729526389170895	2.3076391161830485	5.09866140985661	7.132935029140729	6.366234286447556	5.209803568084303	3.01315545275018	5.498834119264972	5.39949511118448	4.526119697587538	4.311850060066995	4.037569035826626	3.2801315701638987
468	1.3524603809542624	1.1707985371593743	3.242053500573147	3.1933002391300747	2.7194573810582243	2.255684846905041	2.157352680481553	2.122666592007115	4.032777776073098	4.42567108944271	3.5952522663897795	2.811650030666769	1.8932973098637436	4.762114989655283	6.091405853150952	5.167494760818076	4.2845244299479965	2.2246663514236626	5.1360769142177105	7.051296216328048	6.439645274116215	4.989119517127805	2.087944740745902	4.857003676549501	6.824962598735422	6.146593555190572	5.029749380764239	2.8524954246981657	5.297524438834509	5.237802969106141	4.3679752239572744	4.162555207233479	3.9065897366120286	3.189563266330672
472	1.7945930912485069	1.1212441892925435	2.4790089067812655	3.615977039744437	2.880765669225179	2.519566052751256	2.7018647125693165	2.0158660360938994	3.7982032203146336	4.409441936804241	3.8257727526394363	3.180581800060013	2.0934586472108627	4.475800026083724	5.958690628266299	5.242349134560971	4.371212948253299	2.267782920833847	4.928543555214095	6.8770203416764994	6.4275498227917724	4.975543009593723	2.0611088223871428	4.732512462111613	6.65438507307356	6.090586646915227	5.012651430825717	2.8382966446742	5.198517309415289	5.21002815838525	4.353608597254045	4.133711804443752	3.8970370194272848	3.2078273215366346
476	2.4194648204753006	1.2611234156239528	1.8345131827767467	3.9474418063636234	3.1058936040663316	2.853339188047476	3.1432111183916693	2.005311245623721	3.784875621776505	4.563065517348996	4.156584252353534	3.575488081487897	2.404971116669731	4.353091705775857	5.9556526987390574	5.411288247751385	4.521495807676117	2.3936648308401223	4.795598494819768	6.797644598010937	6.525571329807475	5.059036718947131	2.1924633924442984	4.680049407587087	6.578914625723821	6.133769973527391	5.094446169388736	2.9419157430759166	5.153446184498565	5.25949524505235	4.4341659433946505	4.174509991596606	3.9745004076747015	3.3098938381551624
480	2.902670376124831	1.5311781129325477	1.546968933014445	3.949781646293019	3.271579734171696	3.100988618650859	3.2529113210565974	2.029459232928476	3.900800456688901	4.750725734160356	4.405842293106054	3.7691285515037625	2.6655800275260386	4.372983921454394	5.986112102653854	5.530864701612081	4.60533522396835	2.5040676530558885	4.701712119629562	6.734135133907367	6.604179842487426	5.133040892039097	2.384994977651562	4.636066901899793	6.52818296691636	6.17319439283093	5.172526823335889	3.0832903307316757	5.096459375865587	5.299641118974429	4.51946305087583	4.202883232949531	4.063389767878134	3.427504530836129
484	3.0339929980924674	1.83076250090908	1.6852109389672973	3.5616898446758105	3.2821412003620716	3.142421476059679	2.972282879000834	2.0107347914474305	4.01776408134782	4.845535742923669	4.437294471981723	3.6441903022311886	2.7625615527023264	4.464353073292801	5.965797409254216	5.493610368210045	4.538363445267808	2.523252480812017	4.610314357561736	6.624837858640103	6.5564412905144485	5.110253321143261	2.5231323178484533	4.550862300827072	6.443327887479719	6.122460826674841	5.1577586997464655	3.168806783305074	4.980606543363898	5.259577737880511	4.524700153371152	4.149309147849197	4.085114945588176	3.4833745868474146
488	2.801720373709417	2.0540528245564467	2.1346003955353345	2.9214682505280543	3.1093137185749082	2.9464156553265184	2.4392859874174446	1.90437197204434	4.034969796483823	4.783465373359922	4.221563805412132	3.243504277623317	2.673395388529256	4.539888370495891	5.859936699377445	5.2763752804101225	4.318565357749014	2.427374118398447	4.504031169963864	6.455826266201826	6.349714739980474	4.961757647384876	2.522874587365095	4.411374080964402	6.306239589028227	5.953631862867694	5.016038881989039	3.1336150090256383	4.80182408074155	5.117759214831586	4.411214340516807	3.9921641249000026	3.995761384412405	3.427607527662041
492	2.363780730955245	2.129820341454996	2.6696698598216213	2.2866046370949205	2.8023719716844564	2.581380837598851	1.9143127154655921	1.727282638957207	3.9223637481841416	4.580953586456665	3.84226488096999	2.737350933793199	2.4572813448854385	4.535643566124285	5.689412579477167	4.942630278506166	4.017420281757624	2.2430882397285923	4.391248215078935	6.259914859225752	6.034124359154949	4.721513259411112	2.3604423940190937	4.241462696810867	6.1415810429961954	5.703415856266763	4.776296603541597	2.9636580869236107	4.596312988120767	4.904950606360087	4.197990406881562	3.7641689682338138	3.8019211196277567	3.255009404547394
496	1.9355575989492464	2.04839372117718	3.0663938444919863	1.9004121970833292	2.465658896896758	2.1811692659621933	1.645765896456718	1.5495362242677289	3.7250776196844386	4.313515652256393	3.4485921772672627	2.330450767355313	2.210597509524979	4.435446727998351	5.508165822427447	4.6034231069687825	3.7364382649499452	2.0236089178492525	4.297013748764121	6.0897736395625435	5.709259495625789	4.460578430357995	2.071626181140496	4.083647240818932	5.995255455139314	5.446264730054435	4.5069332009013605	2.6920423439722896	4.416703689868182	4.680696475609135	3.9439678092563057	3.530565252927	3.5513462930661834	3.000032894189561
500	1.669365640240213	1.8639622879651512	3.1945676722933785	1.8752936077455022	2.213679784907822	1.8837058496599934	1.7475918487295394	1.4557098113500155	3.531773558282836	4.071914662570967	3.1819651046524675	2.1613347475796534	2.017196888599084	4.27192114705135	5.3696656091540795	4.361560333684164	3.5565566926807137	1.8213612987309726	4.246448982961608	5.984791740566123	5.4720530371792675	4.250396717784405	1.7310033992932718	3.976077308152898	5.9058160632752825	5.254428373422076	4.279786099118895	2.380008691500821	4.3041438947727295	4.501876819688541	3.7174837495406474	3.355335703961453	3.3090755855937517	2.719339125443289
504	1.5909873206978038	1.6670875507226492	3.0535590571556166	2.149725193318193	2.1183166450423894	1.7677959159087537	2.1457951014702057	1.4947426281383691	3.42114662260328	3.915128936419571	3.109462014930735	2.2410361710234463	1.9144034337347111	4.101151932852374	5.29662178609631	4.26322268363337	3.5020854384694857	1.6681250291669902	4.2459373366921485	5.946422561891023	5.36957024172268	4.130228032174716	1.4194984400196267	3.932785501087517	5.881118282728508	5.162524687130673	4.137078274772167	2.090677971329822	4.267798412991935	4.396704662666478	3.565709581909314	3.270803443280101	3.128782979695187	2.469219439948071
508	1.6227835375822477	1.5423749646346252	2.743434422242195	2.5341544087324905	2.1736671869711244	1.8199471189326022	2.6186284952806886	1.6473538833988146	3.415758601147767	3.844544400999025	3.1969938197481906	2.459014409532552	1.8874711942702378	3.967466105934649	5.269609437989461	4.280456055324479	3.535222998276568	1.5695983131834466	4.2734441649308055	5.935824379239558	5.380266175991329	4.093890179788432	1.1959990232789157	3.9366593261509784	5.8932342380507015	5.153871046405451	4.077282895284464	1.8685990524798117	4.281958569206184	4.356421459643183	3.4988398463603705	3.265580884318067	3.0326702518189514	2.2878668250494973
512	1.6668508010741991	1.5303038320051896	2.401536697046444	2.813197128822653	2.2982542456775685	1.9484040687959625	2.9094803259825155	1.8308352185755223	3.47119044381177	3.8118331336102993	3.33488678090212	2.650140517219561	1.8914755535054282	3.8820340535380398	5.240653501630683	4.33265780308697	3.582280388370773	1.5146551093960783	4.287468899392467	5.896623119725495	5.432378755205461	4.100863446372389	1.0853190394656433	3.949836244147495	5.895135387795658	5.174665914822187	4.065580834614545	1.7337825254535526	4.302588928803755	4.3474550137429695	3.495475044962005	3.2964131748896373	3.009165756257567	2.190044397546841
516	1.6822491841758858	1.6119192797971773	2.1465694850131722	2.849523537117168	2.3761680066197712	2.0355391450987947	2.852564089248774	1.940037484039254	3.504683008882239	3.7536225224138833	3.3994092855457345	2.682925694367621	1.8836233568318326	3.8263115786268456	5.162580000240885	4.332808006791424	3.5744635968560843	1.4887144527995848	4.250672329661151	5.788820728945423	5.446048722822314	4.102031220569881	1.0811206075075543	3.93571518858012	5.848551258579775	5.165480123829754	4.058859338049484	1.6867501693100908	4.292819965968312	4.3340787778148275	3.521794548679735	3.315281382773518	3.0262813491708975	2.1712388937491056
520	1.7042576031571852	1.7228121714010498	2.048828596664363	2.634509556794548	2.315781349057389	1.9990662285877916	2.4479381976311956	1.8989478301741844	3.444355002290168	3.6295671371374936	3.3149495041122465	2.5198221143045645	1.843284363861169	3.771628370299331	5.0141210429435885	4.229997147370821	3.4779198081899216	1.4783091507781263	4.149911393178487	5.6104664660900605	5.371629701403759	4.061309327362147	1.1523613900654206	3.8753754994777023	5.742738709255861	5.088244425324804	4.025505532591702	1.7121905045196029	4.238396157054205	4.293427456506329	3.5469441324327664	3.291048756873396	3.046612970289609	2.210471147678374
524	1.7987135603314266	1.7914751722881783	2.1240019744652914	2.2702307643793023	2.1008787102109276	1.834648366110756	1.857104296763899	1.697378631121025	3.273203603109857	3.4467809113264014	3.0896279733853524	2.2253854218564175	1.7746452048318906	3.702960720249922	4.811221587431691	4.03085946019049	3.303473941091903	1.4699857197841262	4.003540028954533	5.39837645121416	5.208440767489599	3.96690820646096	1.2534247605149111	3.772949209224219	5.596930966551481	4.93945931141212	3.9542405505481186	1.7821882918184613	4.148722161308931	4.219454277829568	3.5506985097883996	3.2180523791127476	3.040122978164271	2.2742659988204084
528	1.9909275719921289	1.7818820431543785	2.3413293302550935	1.9088246774163988	1.810837264257421	1.6224803883596854	1.3296204771804456	1.3988125288932647	3.0460319442138055	3.2626066125512843	2.8126244473970967	1.9277836035693987	1.697567577844486	3.6333861259279003	4.603884685336758	3.7956223392023754	3.099026433749807	1.451549764783065	3.8548786542840907	5.211973653985807	5.00148628879458	3.833770027018049	1.3382519449778671	3.6529040244381927	5.45043514782955	4.749829280305197	3.854408016010132	1.8627542210278938	4.0490174191290205	4.1208705798057625	3.5262906462330803	3.1138129155697745	2.993961803506647	2.3253548086584623
532	2.225641244991148	1.715214248141424	2.6345252924207285	1.6817383723714505	1.5918493230683692	1.4909179173020783	1.094515082456952	1.110069152890399	2.8650071548606686	3.1602334896408064	2.612729542811451	1.754631395678319	1.6334036547429345	3.594851246340743	4.4559001810106755	3.6091074852421277	2.9270038530836584	1.4143546783977867	3.750045766899232	5.104687677846766	4.81686924671919	3.6945016290847557	1.3713978494351973	3.546133509265868	5.34176014505217	4.568624008088136	3.746560325700146	1.9196864318063949	3.9645845789949026	4.012726296784123	3.4760804088567974	3.005053989452763	2.912747137345117	2.3312816561013845
