time	FP1	FPZ	FP2	F7	F3	FZ	F4	F8	FT7	FC3	FCZ	FC4	FT8	T7	C3	CZ	C4	T8	TP7	CP3	CPZ	CP4	TP8	P7	P3	PZ	P4	P8	PO3	POZ	PO4	O1	OZ	O2
-200	0.5202689753748321	-4.7681846498267255	2.766968243288735	-1.992603177761824	-0.6458491070653717	-0.8006491044810883	-1.1585923404052187	-2.167901510487268	-1.909088606782798	-0.7065372449202665	-0.4936706113272252	-1.639220114384011	-2.457891458027819	-3.467088452168684	-2.291602128918851	-1.6560760694653553	-1.437844392007304	-7.1252798854222625	-1.7184040503031706	-2.254775756865222	-1.188011285643443	-2.9420425817596785	-4.09018801610149	-2.171713823557477	-0.1393024768888575	-2.6849682263296275	-2.6022636824710537	-3.2030079283908437	-3.2317240156596507	-2.631133311304415	-3.0950148027479725	-2.5806715423278144	-1.740055199044588	-2.6434209280031276
-196	-1.1255950899315832	-3.8382818601975757	0.31471699396783664	-2.0459678121409466	1.053032037937358	0.19065307032610423	-0.2138940984570854	-1.2077540128732607	-1.811522002414872	0.980717656520508	0.2933476261838832	-0.8283614495344124	-1.535497423109936	-1.8028815939207568	-1.326266404618113	-1.148350116691454	-0.945265350339417	-6.950903398130587	-0.5810123667352942	-1.6705321031355223	-0.7429473381358349	-2.684439652341094	-3.6927568819272953	-1.6993539290438944	0.48367652174903375	-2.384253734291007	-2.24499225049649	-2.499391072638619	-2.4456260142569066	-2.4550795493129947	-2.9670345708323222	-1.6505823093702778	-1.8583247614672387	-2.7720358301747443
-192	-1.2820906606729443	-1.3827228511232181	-1.8106094553056646	-1.260457274115625	2.3976068436170346	1.2757203546740132	0.45304337029515557	0.4582926619403038	-0.9396659708140644	2.3329338968503865	1.3027652469168276	0.22345422151892405	0.3378408542686464	0.5024942743012397	0.03033014192970179	-0.14531402253179138	0.10421159837161086	-3.961238612664239	1.2610255447974787	-0.5309829102461585	0.31583046833407447	-1.5891890485694704	-2.148638481437392	-0.35737648516071463	2.0346212335715714	-1.3866027558604317	-1.1465115518233542	-1.2061042755193325	-0.6880849582465781	-1.6427233177671952	-2.25344442752288	-0.052452094720495536	-1.7747620299353553	-2.4849703249180695
-188	0.10901690992010941	1.5512168368275725	-2.3300054014506757	0.15319992563192228	2.7366793086575654	1.951019759020682	0.47767615197696706	2.220584148522592	0.4369029093678887	2.695854180205341	2.037934059719823	1.0315605375948398	2.456286662575938	2.2896866740591846	1.141347643831631	0.8677589871432256	1.2289954392875266	0.5381866083862351	2.7643926073852034	0.5535405860276763	1.4419887029480736	-0.20781795628053928	-0.09524813270362864	1.0680240365719922	3.6109318642048067	-0.21365015154779682	0.12866014209688678	0.07896903137296428	1.0620549890406759	-0.6635377390321258	-1.318453189382102	1.2477930752721718	-1.6208455521669136	-1.966163034243374
-184	2.2947223128556753	3.6007585434602283	-0.9368308162878363	1.669672961787899	1.9558073232862434	1.9576348016904428	-0.05028199764312119	3.4438197525814362	1.7971907808705494	1.9443774174236825	2.1803486292149974	1.3171411719446189	3.9853486914150125	2.7126378944574	1.5172076186974952	1.4541718923094038	1.9509477566099749	4.607801902581507	2.9842283650394004	1.028114197042628	2.1145074314137013	0.838766751555871	1.6469287830733499	1.737147088433339	4.331266869100003	0.6056052431075294	1.0082637046153287	0.8463115074724913	1.8900592279398511	0.013460048440388077	-0.5480259643069803	1.4880751333813382	-1.4774650298009484	-1.4326894247122748
-180	4.083786477268776	3.794311990694941	1.5405497512069213	2.686059945000577	0.5252082930656086	1.3892515862675623	-0.6822369081438504	3.7254135514615445	2.6053850585007705	0.5358055816474041	1.7382378534299747	1.1124616833256427	4.323709953835879	1.6062912900424047	1.0744119855457324	1.4413952791061881	2.0221984335388488	6.591490252065363	1.5355554780338008	0.6982095223918535	2.107384437962447	1.1690492600489226	2.453299754624495	1.2640089956795337	3.8141434096359608	0.8064873794220976	1.1999559372169846	0.9320723390888517	1.4572529755993544	0.16763210254307823	-0.15250115058066221	0.554569541007836	-1.3260861601727674	-1.018011805825153
-176	4.4679241067615685	2.0697462506490267	3.6729314234507386	2.821223728686421	-0.7838249782799738	0.5988068565509022	-0.9316118336044797	3.0504228991740328	2.5752370292494944	-0.7672811131178856	1.0029515002677787	0.6789832694077108	3.37332891566224	-0.4937748002460295	0.1526936288793172	0.9749764775455927	1.5215786657064179	5.9012265056391655	-1.182313796873038	-0.18579344404519124	1.5789347847174913	0.8020905832066969	2.1815941278690794	-0.06544302387404075	2.3580977857181282	0.4905616032612679	0.8045568445873416	0.5627463445760588	0.16036832292121975	-0.08742772765735993	-0.089286066366314	-0.9619349813016638	-1.0738488408633162	-0.7214855533503907
-172	3.1755313793116557	-0.6802557093611632	4.321210850296046	2.124335045219455	-1.331357237315526	-0.017103480131955385	-0.5925080165208763	1.7911599829274019	1.8291958524297591	-1.3251980509678563	0.3620958021081806	0.3210684648990663	1.5959027965307304	-2.6420135431342446	-0.6961400491304769	0.4028628756365403	0.785028813287463	3.2764635003336817	-4.106852521064299	-1.0924274893836095	0.9480852460766213	0.10017646078805241	1.2162282436181617	-1.4801098070922445	0.7444987278261319	0.018854206380329492	0.21036095864113846	0.18002325250950477	-1.135867354386239	-0.4154594232083442	-0.13604050840363158	-2.127116436356232	-0.6389034374318763	-0.4476886678359881
-168	0.8415741303177039	-3.0784621160984798	3.2878334439237498	1.0387438509464546	-0.9556249952030931	-0.2392826521315795	0.1333074417324847	0.5296391831377347	0.8258002975595249	-0.9682679151884152	0.07310122978112393	0.20418968745177102	-0.2005662615003785	-3.9343173404543768	-1.0316992972075265	0.05700402692469363	0.21499957089978233	0.33526289378397467	-5.956215843421473	-1.5291498860852515	0.6294290407501694	-0.4639254796712911	0.24090850292417418	-2.204594368136937	-0.22465032282377315	-0.23530955553249502	-0.15888696868835703	0.16104294319024556	-1.6329517323273885	-0.4954755293734342	-0.06314882620126705	-2.233439439856713	-0.0455870254676942	-0.1081394401442639
-164	-1.3189973797875276	-4.004451264761559	1.3474014963463683	0.1586646880673896	-0.030306503100172584	-0.11639186710535449	0.7880280594003435	-0.20296314307467975	0.11197165371519685	-0.058729644716519494	0.13604453171714376	0.29032486603869817	-1.2486345736449862	-3.879398574571305	-0.7694473247174884	0.06587935967501735	0.07562110553960866	-1.3080774512643776	-5.796258434920298	-1.3236622776944509	0.7881583551534935	-0.5751668796322854	-0.1439438607634764	-1.9224076222521003	-0.17767952337704776	-0.11793614149119937	-0.09159096307279786	0.590605793892317	-1.0721305581680696	-0.23268689156435465	0.20604917355013413	-1.2289642064537432	0.5424066768303228	0.2884562902320298
-160	-2.1706795637639456	-3.1858990111977112	-0.3249869338413521	-0.09286958700813014	0.7942198494886231	0.11663904011603338	0.9792097782207871	-0.15182951054386765	0.0292356348789707	0.7616605143390465	0.33610266362209495	0.4175325919576876	-1.1899580925461817	-2.55846690485641	-0.19688852081657157	0.3103276781353364	0.3829739680157802	-0.8744923450325671	-3.4971191794793386	-0.6948215347867294	1.2649353710662938	-0.22196283880460319	0.2578747564003967	-0.9481426453493951	0.6499133689684099	0.2360272848607458	0.32022741356108664	1.2368044821984139	0.1369705941795197	0.19441321443110512	0.5561704025531716	0.2601367228615895	0.8896152950714422	0.6261734350607572
-156	-1.283604737855706	-1.3072150912659444	-0.9330760813043351	0.2955943636583743	0.973868367597371	0.19986289689148234	0.6339515431610839	0.5493161664445309	0.5173882829001105	0.9501337981077346	0.3951754858053326	0.43264225016081137	-0.24871948298601157	-0.5373393283628921	0.21938912515086104	0.5189699517498769	0.9190219021482291	1.1852853268261678	0.16430737036706228	-0.10011284028049591	1.6890939431460312	0.3317982248035406	1.1294745178316394	-0.010397262845014845	1.5842701156671557	0.5123714791713216	0.769051728691113	1.7127672390609934	1.1824930876440696	0.46095746639219404	0.767972765414113	1.3063795533575924	0.8160008767506784	0.7524071316796087
-152	0.7970684150598919	0.42800038944903546	-0.5332812057382501	0.9157342291600087	0.3615632048061348	-0.011038720579887478	0.014810269661108297	1.4315010273077433	1.1410590381423573	0.3535026302949306	0.13597257400992033	0.27687370707226233	0.8836321808439944	1.403520342144318	0.1164762151280793	0.43749269732645213	1.3439369167729012	3.481026402267772	3.809780349649418	0.04609636950775573	1.7052314238410669	0.7114327531972436	1.813491935919725	0.23175427259106995	1.9267444561950082	0.4290839422836716	0.9256889796727477	1.7025164322784025	1.3547196354041247	0.3123383216124683	0.665331242788889	1.2423969475849899	0.308744578774099	0.5774371013367586
-148	2.8101532388309485	1.0213829253158484	0.1242813017806794	1.1798322170987245	-0.730471072736884	-0.4790295350378201	-0.4852129506735299	1.9210594843999742	1.3371593918418925	-0.7255778294364026	-0.4154349555017257	0.00014285622419577624	1.4258487188579638	2.608207457633049	-0.5441743717759636	-0.009790151355284743	1.3767628634978848	4.494578827000668	6.052711471534779	-0.3753692498266673	1.1944671839120558	0.659666774991606	1.7181154446138966	-0.39076524874256907	1.3694522346253513	-0.06812916678870663	0.6450862868234621	1.160838124205396	0.48139652488284196	-0.253711252764058	0.24590413210296003	0.06926593912041222	-0.43681222090109195	0.15192364117889154
-144	3.4410014065649923	0.25274404819572965	0.22427144590021494	0.6665064675669583	-1.730860824983329	-1.0334657404556302	-0.6276952012426755	1.6160281855790397	0.7397719006934432	-1.723027940214592	-1.0527898046616024	-0.30136528535095747	0.9293544268986007	2.796649925800466	-1.4509611093127495	-0.6686588508890081	0.9303496456499027	3.4194743546936834	6.118539317895679	-1.117289778749549	0.3512457004262087	0.1783819194104688	0.683689056100847	-1.440142031848305	0.17297251478869685	-0.7550610880861772	0.048613067593623896	0.3419090202759076	-0.9596208905787466	-0.9612904166746901	-0.2983131401159723	-1.5305991134146615	-1.0901938649309357	-0.33862125788072023
-140	2.0581309743416827	-1.2289833991493124	-0.4683818507289943	-0.6129397734425576	-2.140308374723194	-1.478579636655434	-0.5005229698895602	0.4938372063089518	-0.5883717522071311	-2.140360826810464	-1.5107436141972137	-0.5646207914402227	-0.4686491477578147	2.125874990817984	-2.1198196357612513	-1.2376149861560233	0.14684526585220514	0.6048482641207931	4.1673273935007265	-1.7127343372971604	-0.4245745230922522	-0.485292701688038	-0.8918194152250265	-2.130851740225585	-0.9924662088132334	-1.2534186808411594	-0.5577583894952683	-0.35187876135676976	-2.1141161865263833	-1.4067523443944587	-0.6862827522116995	-2.587078326369256	-1.3463361229283426	-0.6685040576269173
-136	-0.8900050498426444	-2.351551765226843	-1.4039161169846273	-2.1862072889444684	-1.7913689568114566	-1.6820205407591047	-0.4339383233558576	-1.0546936962202111	-2.1546139662703276	-1.804239387725312	-1.6013187129599276	-0.7817213515572271	-2.105716700005842	1.0657827827248065	-2.164254183073381	-1.4277820551110172	-0.663359401935408	-2.6520790986813414	1.1762115925656296	-1.7488340095235224	-0.7486615758113798	-0.9748848652068042	-2.23589181335516	-1.8412833167318217	-1.4459108077736815	-1.2488398520410742	-0.856337485535557	-0.5863991364932699	-2.2524082603807205	-1.2909662690947494	-0.7033482772235449	-2.4122888980996193	-1.0774295302845127	-0.688590942074799
-132	-4.062431802029723	-2.3049552382448786	-1.6581786829091434	-3.361840478038658	-0.9151411033413462	-1.6185915429257782	-0.7395093422338705	-2.407091373088328	-3.283502332026726	-0.9368689036557516	-1.3070903983493891	-0.9709709858221546	-3.1621653953823885	0.13506153191798984	-1.5117448530176227	-1.1228023739123278	-1.1687332362231213	-4.839308249653259	-1.5585428436984194	-1.1096482248900579	-0.4691238391476074	-1.0194058392536403	-2.629418843306424	-0.5420668111466717	-0.9015966035014279	-0.6818208081197239	-0.6949501616098299	-0.27667859126808275	-1.2026411264573365	-0.6037870630278913	-0.3261338464132245	-1.0111407016020835	-0.40217634933975066	-0.4072247435301907
-128	-5.9167241900787975	-1.0622544261815907	-0.6720695478637344	-3.6099617390088916	-0.010453599478733675	-1.3692419494391146	-1.4726108275426961	-3.020682565691991	-3.4816949279618847	-0.030476910916510037	-0.7977250198250798	-1.1440725297653032	-3.1279008309547383	-0.36885589268063634	-0.46703192473752947	-0.46420112135035896	-1.1856869429216503	-5.044476496358159	-3.037701122243872	-0.07093073409768866	0.23193493426892803	-0.5922356232949404	-1.856095428548978	1.1132329674270889	0.3349733940250315	0.18941731703141843	-0.18163526012338527	0.35458847790838477	0.5204706774922427	0.3400138011930919	0.247662498921717	0.8968751407867555	0.3618208160802036	0.007209870946085537
-124	-5.5358304837650705	0.5890276417165835	1.2269308536070094	-2.855458967628916	0.43180072198567465	-1.0682874891012342	-2.351683610700753	-2.7046143940351524	-2.70546173366314	0.42448535454389336	-0.34325605544210813	-1.2787363496920332	-2.091513628447463	-0.48077538488120586	0.4409648764921089	0.20939700252594223	-0.7674101571734986	-3.3885607633868453	-2.9724159165676367	0.8356389978291792	0.9336640215189151	0.076595991656513	-0.3656602790660391	2.1234755462439643	1.5206870994321184	0.9171405411452886	0.37982073330351124	0.8994775987803679	1.9891068885174166	1.0610910627278018	0.7065410596175224	2.2771170081821066	0.8594627954718191	0.3246310047059745
-120	-3.1232070843998163	1.549193735979714	2.912538044251773	-1.5016751251454024	0.19390022705714088	-0.8280710557057999	-2.898971550297988	-1.6929316477948502	-1.3669141496479336	0.20432218857677217	-0.16691803890047188	-1.3150538172898547	-0.6763080341430112	-0.4859458195815154	0.7507590036510855	0.5455991612010773	-0.15880089958151866	-0.855338452086999	-1.8070013477479407	1.1236702175380664	1.22228753258144	0.6432793720216582	0.9731575822102191	1.7443188384838968	1.900927538840756	1.1202526064245637	0.6776452047405264	1.0089684699333734	2.3891124665022505	1.1903134554374355	0.8134850839103505	2.375862115583556	0.8922821260812496	0.3980420519792781
-116	0.11747210443163333	1.123796937012539	3.1594471851689145	-0.18204261316591303	-0.5539170489631272	-0.6790816766759865	-2.7193529537208416	-0.4818434107059172	-0.08519203939386616	-0.5295779095630603	-0.3165945402735211	-1.1798393696560796	0.35018491656581924	-0.6813235265696184	0.3355700365177268	0.38266068600363173	0.3562275758332473	1.3600408996576574	-0.3800336112917891	0.6441183073947537	0.9433014965083157	0.8604096152516858	1.3984272444704093	-0.016790747600124528	1.1603327960282661	0.7167440634751242	0.5880375489647193	0.613214610458923	1.489396449143383	0.6941148025154119	0.5586229548655526	1.1560809583085931	0.5315524922301941	0.2619847350658623
-112	2.64181565571409	-0.48905196662453065	1.5312393865072222	0.6145499929170993	-1.3262402977837673	-0.5462966547524779	-1.7376885370251116	0.47248956441796414	0.6751991493344096	-1.2984628644585128	-0.6172245725307081	-0.8154900053415983	0.5527818189016013	-1.116384026569829	-0.49125692124313974	-0.133212849161465	0.6283937676776794	2.5496096546651494	0.5837504252954284	-0.29080858753215155	0.3182097069335667	0.7345575671723674	0.742670355352263	-2.2970814646899287	-0.3546901634321149	0.0025710347043630534	0.26681688360560324	-0.013386944275078206	-0.20000919649171417	-0.07535848002481076	0.1891024107927039	-0.6617240293008345	0.09194200462731623	0.12931945887340515
-108	3.3881678495694776	-2.2512431087875933	-1.1579781741470039	0.8197295048998339	-1.5519584378159956	-0.2769168906372931	-0.2451758378514495	1.0091931794436093	0.8630061723854804	-1.532086368507342	-0.7399928551110677	-0.19812536189602178	0.09939895545182344	-1.5142371616279684	-1.1038894625449782	-0.5966508373455301	0.7340379338805275	2.80500768906977	0.8338184931684007	-1.0327461931857185	-0.15479697248000193	0.532660244550548	-0.42164340508817794	-3.773506155023594	-1.7837203696039	-0.4852088081507285	0.07358441483277571	-0.3851600875666878	-1.6861813025817907	-0.5525603280421751	0.08254364857098956	-1.9914394566801676	-0.036177948025915625	0.2701936953398602
-104	2.3410792291662474	-2.8653449939864024	-3.1898193278839804	0.7939456085187039	-0.855678198561361	0.28723895477253303	1.2703095642442537	1.325414058199977	0.8382139780816197	-0.8498987534045964	-0.3602815261327655	0.6603664739148577	-0.3450085810056918	-1.4261249267811555	-0.8764075018690098	-0.5414736257233647	0.930195150411035	2.8036448884750658	0.6383160336590978	-0.9212741232500257	0.032040025957991825	0.6336970313285356	-1.0890328856629319	-3.3604261790309984	-2.2004458848710438	-0.2518868141967343	0.3717293133887137	-0.06648155285024332	-2.0261247106895808	-0.26211193137749184	0.5341301546916426	-1.9817811200651483	0.39712047476641016	0.8459873774150211
-100	0.4786606120899143	-1.5619003733301402	-2.9504871293915564	1.0464616987510655	0.7243786435911942	1.1959857910478089	2.3720121323779444	1.780736918721845	1.0957891913404538	0.7178445440288338	0.642771063612297	1.6838462310239655	-0.07389362882792856	-0.5470912442699725	0.44961157327623213	0.281088798528524	1.4630383216159368	3.2116525092100825	0.5067562448104987	0.32881653225850216	1.0742813321647144	1.2739032474779783	-0.46219760062825976	-0.8582239129332906	-1.1502467364834184	0.8482841231863524	1.2800447908508392	1.034233925115556	-0.8667049386076788	0.8853650070725295	1.548202033902445	-0.5081787692591168	1.335912224257761	1.7744495823882316
-96	-0.8727783538717333	1.3778657878420242	-0.008438396246288005	1.8382929517109903	2.700014345981581	2.3005437792869	2.8561196255099386	2.563923829281109	1.8807424259385326	2.6891229084785615	2.0577049203419038	2.695659869063864	1.1384892434939993	0.9981154774261372	2.55200743030912	1.7032011704358534	2.3440551698630796	4.112151612390032	0.7969472388173694	2.401765817300382	2.671126597336254	2.3376572073090425	1.4640390835991888	2.8348164486838408	1.0384353373058761	2.4627764162826975	2.5283665593208338	2.5272617276280664	1.318388697156618	2.4799485143991324	2.7641053129981117	1.724017615733944	2.399469607970852	2.7128481796436366
-92	-0.8083133081055368	4.694578635760854	4.4493074304780045	2.9563801213963314	4.316133488248318	3.270495168058101	2.797699444383021	3.4834411056308157	2.9741132184279757	4.3099341283701715	3.3915438566410323	3.4403335961266146	2.8224577832487348	2.629726641691267	4.618325698636479	3.1723155895248527	3.2714764989272056	4.884221064633859	1.482785221170878	4.477507579942938	4.127535332749141	3.366015902603922	3.7868895435090915	6.129167064450878	3.3775374804099156	3.877863874181503	3.5497884660742667	3.690639724950219	3.458006611676477	3.78981040951429	3.606730213595908	3.5542836099532984	3.0650906485419074	3.2137198367042528
-88	0.6956044417938775	6.823964578565823	8.170629480713917	3.8231022261416623	4.8947181578080405	3.7423639202999746	2.46471785876742	4.053576936024247	3.806242456363062	4.8981251592948	4.103567113052575	3.6859662439744696	4.082169522469392	3.631257763277634	5.724095806928663	4.025939931241728	3.781035175314033	4.653590667419514	2.246278280308917	5.626276955704684	4.713442313691743	3.8091423415333527	5.191289888626652	7.584673862381301	4.73467730280439	4.391896236775297	3.787816753360876	3.870864381553911	4.470226753392717	4.151767243393528	3.600647678821226	4.017881383288442	2.9590682908689145	2.9768068715278644
-84	2.8477585243805357	6.759735567192341	9.0881166228677	3.8618419072877503	4.166962136238465	3.514361372657852	2.1499874537545427	3.8046004676129352	3.816796769996083	4.178383816660068	3.888889779762796	3.3443293487035968	4.157307614320702	3.586796513084712	5.305634008363595	3.848966827211614	3.5167744070908467	2.9626002236908078	2.718898289491643	5.290298448557343	4.067724694472414	3.352902403949286	4.734824645485903	6.683530790620824	4.4469280130645785	3.705219974699784	3.0237564964245864	2.8771538661794884	3.8628022573219467	3.3443000232184414	2.6540009908426265	2.8903827594261178	2.0805292076988287	2.040209288214445
-80	4.601051795787026	4.634228217822404	6.563385946868985	2.9064977095654854	2.4374337134810813	2.6929008892734667	2.04861783464097	2.6450030736900514	2.853976719326384	2.4505040583730087	2.8734176086358207	2.565662615974107	2.949740640822274	2.6830780438392825	3.4968101890016032	2.7335841586714835	2.487873309529881	0.2403952175269868	2.7408461501540033	3.6113822368995923	2.4384493766254898	2.15566396169004	2.487076276221957	4.118565548988829	2.703616373865553	2.1261403506958545	1.5583091934914899	1.1562756270779382	2.02154516663376	1.7494217113195238	1.1657961577545846	0.8285767415107975	0.8469025471285918	0.8147826770238347
-76	5.3146357402134266	1.6861882167205673	1.8540439558902782	1.3891949618551687	0.48574662085917897	1.691207404635141	2.2198622170668956	1.0383534405241615	1.3540433611062104	0.4938929962563207	1.594803090837401	1.7311916307609971	1.1727623909904756	1.667183871828363	1.132141348841447	1.2783365217358895	1.1398797006438088	-2.261634820950077	2.475678914495361	1.4123262131319119	0.6040877088553793	0.8323087075200519	-0.37650391364406927	1.4437839948441757	0.4783758210978965	0.4581805158014421	0.11970135539350761	-0.36565863993831194	0.026794757626355706	0.19345028649602863	-0.129785194665343	-0.968406019150011	-0.09332075691503776	-0.08971080906391107
-72	5.048346029887208	-0.43414810190261494	-2.5320935185399396	0.1325603124132727	-0.7944756130187085	1.0245741579890657	2.587774508618475	-0.211039557520193	0.13235360350571354	-0.793578205489236	0.7237361055221377	1.271008845934993	-0.05855992049095008	1.3825548852346652	-0.6459578855418121	0.26935213736240116	0.1267618086713894	-3.168476096736695	2.221788400762594	-0.21414123421486142	-0.5402076826761762	0.1196806278783393	-2.222429746738758	0.18400771869455146	-1.0049864028352729	-0.42784577500087845	-0.5274261222874567	-0.7995941618758722	-0.9539684629196777	-0.498252181940963	-0.5568816647774806	-1.4343281948115918	-0.2134349191760563	-0.1913454080757448
-68	4.3367848286807975	-0.6002477392300646	-4.230615605163449	-0.14194084668085652	-0.8394925573134684	1.0093082164077354	2.9697749539735967	-0.4429803777477777	-0.10421588990602385	-0.8422712662412368	0.6781663281484819	1.405768867758148	0.055576611169926154	2.1735339109857432	-0.9782599782086894	0.22355370167080302	-0.08305717238675542	-1.8506632996564427	2.114458555605109	-0.49117946500744963	-0.4961745428432727	0.42442574989926846	-1.9494385670080725	0.927181360764866	-0.9728335117573935	-0.09432588493850866	-0.03958962475198787	0.1454146798754017	-0.3517811885535188	0.02169482963270198	0.101913235824294	-0.262370526128197	0.5781453237241918	0.5777738079742447
-64	3.6515426543549596	1.1413916320593642	-2.3928317963268446	0.6935444456709962	0.2721246176048062	1.5293273887169445	3.104973308353323	0.3900705268071435	0.7566388230293984	0.2730538838168308	1.3409043516636752	1.9540127466458768	1.4266339504462522	3.5370216280327695	0.22727434279757874	1.0481835577249898	0.45971238497062444	1.0718758079169426	1.9511154840799494	0.5914571270314946	0.5112324344125397	1.5123137197459229	0.2703493230669758	2.9355618879589023	0.42477518212838195	1.1695114344633442	1.2430756060686892	1.8983244848006973	1.4334219657947147	1.381864782659198	1.4270515405864943	1.8769231987295472	1.8379126740782834	1.7855110123377211
-60	2.9795594140166424	3.5747613816606303	1.7851006939641234	2.022123093268043	1.8292026473592464	2.0476331659117664	2.725956671508124	1.6001595218312625	2.085957045056951	1.8405333710931513	2.079375023360312	2.3643903672604685	3.043425313895069	4.310158718671118	2.205203289186425	2.0476350732603943	1.1567252845169884	3.953139533552607	1.3022417989277317	2.238441223215056	1.6156277615764496	2.5673232013733567	2.9930238648188294	4.545553195921042	2.1615624373221203	2.4613909659230364	2.4212679801844934	3.256590834978582	3.2144441523457346	2.6557676725093087	2.5421702797602257	3.669367304120748	2.7890338827288743	2.693285696859165
-56	1.8563686562399386	4.990868555819678	5.734446511095645	2.809292309343986	2.8317558693916416	1.8908057165091334	1.6772425132366833	2.124634022116894	2.8420569824942956	2.855362408104624	2.0883271641458157	2.0037789294197044	3.559374085022844	3.356863728631057	3.709051361256273	2.307213539020427	1.2008155554017648	5.027762400331023	-0.13406915928846866	3.268741837831815	1.7889971687925426	2.6407127313699505	4.329097260035656	4.162014950734598	2.9053568766673648	2.760144703572076	2.5323634083708013	3.0658056658588277	3.6831931974879404	2.8728070186562835	2.594804280405536	3.8875248334008856	2.740929119819321	2.6530189447177865
-52	-0.15175719520877648	4.166954030006796	6.994918805581715	2.2363276425166574	2.517933839162848	0.6697530729550322	0.05765552431689527	1.1858426302534106	2.204109424748269	2.5495681698324906	0.885852453856272	0.569363413803737	2.1699869577934043	0.3689019670709314	3.6885909941051715	1.2564704386459544	0.10278503570831958	3.4600198181533277	-2.172797435996758	2.7872769762239105	0.46699184061401927	1.2491577832155034	3.1113533895139724	1.2802679506403147	1.8037661268469902	1.5393056830643104	1.1484409541698624	0.9621546244171065	2.195641512095698	1.6030509431420166	1.2780058351675105	2.118841881170824	1.506973858843267	1.497024055516032
-48	-2.870016567613524	1.1084569664625845	4.637921798440519	0.2631043487104965	0.7959321717194073	-1.4107321465160636	-1.708645935513049	-1.1401996583761553	0.1364202942980203	0.827562210854637	-1.3275738921026048	-1.6231912333514822	-0.7671530227365867	-3.7268633748374005	1.89576410768619	-0.9204623675948792	-1.9115281056780058	-0.08213221261030501	-4.054613103166406	0.7346633058119321	-2.046380514700329	-1.2334303824754873	-0.2897768609360168	-3.0664615553682806	-0.9640556549527732	-0.8573227503112066	-1.2789317337171138	-2.2702107372187084	-0.7773346881314127	-0.7269890290025418	-0.9176816917138382	-0.930347380673407	-0.4320851553498247	-0.31451570908293836
-44	-5.319530950467181	-2.8982512877723408	-0.21192172116180272	-2.254252904922572	-1.668826456624936	-3.567528238826109	-2.9704830571517404	-3.8442149065235385	-2.48987721768217	-1.644590016027558	-3.6880717184411997	-3.693027248595314	-3.8072051905830433	-7.092609864447618	-0.9374843216115036	-3.2999474918973153	-3.9228961368699315	-3.7202441598425158	-4.764369475733575	-2.0207307287696055	-4.66266487851721	-3.6693828013283505	-4.053980340259068	-6.764122945873892	-4.214743126718416	-3.327681056204126	-3.5717091470186784	-5.001924978979019	-3.826896896237062	-3.0002875252313985	-2.9029755519053104	-3.752428522172757	-2.1369104331424174	-1.8962224674033554
-40	-6.152804359160487	-5.955013260111521	-5.018008219447446	-3.990617265162697	-3.7625138664618696	-4.802019107138762	-3.1158356587897655	-5.49292324586681	-4.322732437664031	-3.7486266995200026	-5.0828351846158055	-4.606658447079022	-5.199033247219162	-7.907343844476794	-3.456531992768457	-4.679839122400851	-4.793741214093256	-5.408086286242135	-3.6224682239626675	-4.115176667314035	-6.063604339549269	-4.734635817971731	-5.911903843258692	-7.751240233878486	-6.368042452946897	-4.577382552987897	-4.438440311669992	-5.618533120275017	-5.338279710643233	-3.9909882444708424	-3.562656393593048	-4.825902449821383	-2.697622530802073	-2.4017932354369096
-36	-4.51921509555419	-6.563505632995391	-7.282663326949956	-3.914271821629865	-4.483231056338401	-4.440484512562048	-1.9158575486449803	-5.064309107392071	-4.296572197556739	-4.477138507983422	-4.756864535719564	-3.7599100971660753	-3.9440331359468144	-5.426013455996678	-4.400084961272445	-4.250916470285534	-3.8479726217392707	-4.142354001077206	-0.8041539171896772	-4.424630630766138	-5.437481866459667	-3.6801986601419854	-4.509055603087164	-5.209003435334859	-6.307518466283299	-3.8435044191596095	-3.225305549107863	-3.4850578220116217	-4.385828007115325	-3.054997436439705	-2.399285787246829	-3.4540824802929517	-1.747737164853135	-1.505370851530725
-32	-0.818302510102869	-4.43611096215805	-5.999724849811868	-1.9484603355804884	-3.4768397720293187	-2.5543489391685648	0.2503859096404346	-2.6300733023044054	-2.3065476359306776	-3.472592821890505	-2.779322617189428	-1.4022868836284503	-0.5069763647630986	-0.5450022802898035	-3.304967633486203	-2.106596702979084	-1.3652386630875275	-0.6266815050515399	2.5744197303623975	-2.717543595128608	-2.99221491058198	-0.8491811134833126	-0.32918155110218505	-0.14051626587199903	-4.035212983433893	-1.3780095542448594	-0.3795989742231843	0.5465633259325298	-1.3045842614614904	-0.5478049502847111	0.11486325383988479	-0.19713327238856257	0.2838366024480543	0.3692571511482512
-28	3.2501792825655706	-0.6638770086693306	-2.226250404459214	0.8984831548894461	-1.2437839476654116	0.012912644972088399	2.4681329664858485	0.5787494167974652	0.6448571069648794	-1.2358920542984957	-0.07139593344782487	1.3897889817435005	3.320216170511303	4.530314910894818	-0.7886018137095028	0.7364819031240825	1.4607503377273652	3.07172297655861	4.940742957038762	0.16680434304084987	0.08351878055705299	2.4028398929965227	4.454265106399325	5.060648905374945	-0.7209320050157592	1.6213976103854295	2.695274823059587	4.464855659656278	2.4218268333324966	2.303330654050982	2.7225806644365695	3.3709404383428314	2.3533897340484966	2.2325720730681313
-24	5.474107728488777	2.8763942645883884	1.559990521307069	3.0527658385449485	1.1041269274491639	2.054912323531938	3.67596315409494	2.810927145536758	2.957338325663321	1.1176184387600108	2.048101419999939	3.224889985525538	5.371114240437043	7.39146326106247	1.766920442888503	2.8496856617505477	3.125573865628582	4.685815799326679	5.08378933576696	2.7403380801632204	2.2209618035509355	4.387795437225104	7.169288140316035	7.840044955486551	1.9047864627430615	3.6245140937847724	4.357566345657138	6.142011626948966	4.925322997055722	4.0302824872305205	4.033038129160819	5.47275970984594	3.339631787451419	3.0468001288737314
-20	4.358176697218097	4.514081943559093	2.8901512549863946	3.2425386823803932	2.39290403715613	2.6146242552547876	3.1843619266221244	2.768970005673818	3.3041398441816527	2.409969323749397	2.540324919962639	3.1166412751665153	4.314156998232557	6.687249166771104	2.9430570528111946	3.1418731133291296	2.633066170720311	3.045803062378446	2.8224918771054606	3.64141081844304	2.291022056517361	3.9851734537598156	6.164175971680604	6.8195423907718125	2.4573399958557496	3.575714579137472	3.612927666125427	4.503852356029989	4.9329690808682045	3.6993341352523643	3.2683670438264136	5.051917063355975	2.6379272871173396	2.281245941124563
-16	0.10563797477038768	3.6195754913497318	0.7264383416908523	1.227100130797744	1.9670134733128821	1.4794722758133365	1.0526496145374447	0.3713837554615008	1.3810290063322677	1.9839397618748837	1.1895701855189629	1.0258978579368954	0.4455009985643203	2.857415430484084	2.040601486776077	1.4447721206427673	0.07961067537235136	-1.2197538583477248	-0.8322820642439046	2.358898872141887	0.20607182331509158	1.2692351309202452	1.78909611250262	2.517614596686237	0.6260274036814262	1.4631502591385424	0.681335983940345	0.1720061744877156	2.4413838324896626	1.4165347778795871	0.7013434153969417	2.324162477347386	0.4956355976465744	0.2101741278825617
-12	-5.319610582272399	0.8543854334240915	-3.9414477248815647	-2.0480947442797413	-0.002885796122417587	-0.7278528791170905	-1.9083062362174514	-3.16945575867575	-1.9094500493478033	0.011756714403748775	-1.3008626666604006	-2.1005639976873085	-4.427631366995134	-2.1036672539050594	-0.5584984407629311	-1.406555887485775	-3.3592564974848793	-6.014306053235747	-4.212012280320281	-0.5026054965681097	-3.041540138194873	-2.5058078702603575	-3.7607512379110215	-2.949280016128613	-2.6854538849740313	-1.679638500741315	-3.093426458178008	-4.815595137835688	-1.2973967757847518	-1.7299286083413956	-2.4778644976044673	-1.3530619110278168	-2.110480541622843	-2.225509637935816
-8	-9.17808053560443	-2.266364330291774	-8.64857957563758	-4.970285403100649	-2.6381938390881023	-2.909817211433935	-4.5237836723554	-6.025119766282176	-4.9529757374644205	-2.624457829525004	-3.710801592041039	-4.8316650268637185	-7.960979918407538	-5.729134545166674	-3.619710674683741	-4.0437650578446735	-6.054823860140285	-8.926436401718286	-5.8861574978036755	-3.565346947251416	-5.9265246241666025	-5.572095380066333	-7.666301707939371	-7.016720277236876	-5.8750047535386205	-4.3433494458212065	-5.958000644900121	-8.084412554356886	-4.470611084141259	-4.2609214675136915	-4.800496089259307	-4.2199859512596225	-3.9890913862602995	-3.9200215240689613
-4	-9.443251585960327	-4.247460831408761	-10.824720355360638	-6.159020408339129	-4.826024043296417	-4.099217404506428	-5.840276703394367	-6.802813512792809	-6.3188962776864575	-4.809024321812238	-4.971544730032285	-6.019200786652344	-8.554621674873825	-6.400527937941783	-5.737655148325093	-5.313458906109952	-6.817065698578358	-8.5798406384332	-5.424724088324152	-5.425442205082593	-7.208825570025783	-6.597571356328573	-8.080750444991132	-8.015367487697713	-7.508191089747253	-5.357733712974488	-6.691293222699614	-8.211276033650845	-5.677710518807249	-5.0950956215965695	-5.304740892368535	-5.043177591942493	-4.358367432080897	-4.186859120288572
0	-5.9233007281481305	-4.3778738864994216	-9.197855926179502	-5.208436475955186	-5.770440087054574	-3.9519593615890343	-5.589548096849661	-5.32310961333046	-5.522026048069943	-5.74620150068999	-4.708818423780322	-5.385192380660288	-6.183914645794587	-4.1706628694139365	-6.064902767127778	-4.863681780933274	-5.51957939661738	-5.334334360006221	-3.567684164576448	-5.367104039946679	-6.548066122688914	-5.3601474626632175	-5.128020750450209	-5.925548061669068	-7.0330114187057555	-4.476727951191245	-5.219487177068643	-5.45611284785794	-4.620786655203752	-4.0777382747693975	-4.007740010633382	-3.7015156652456356	-3.2172825255227724	-3.0843501013131065
4	-0.35005658776594184	-2.974199764371971	-4.462563026605426	-2.833466045855219	-5.323329912096994	-2.8433039116598486	-4.245464791069562	-2.652186387041666	-3.204843036189555	-5.291396127692755	-3.3522097979787446	-3.5827977566861167	-2.307138198749621	-0.6129674896023082	-4.686937797157098	-3.2372150339410757	-3.089883558101504	-0.9620676016359542	-1.6599202114157938	-3.656141510315639	-4.578206050758036	-2.768622868223522	-0.7134068590272205	-2.17096805024393	-4.962096201766345	-2.413014644252572	-2.5607461864668664	-1.5193849763656428	-2.143913263630108	-1.9652898261996192	-1.8058282091324336	-1.1292351455788259	-1.2704110113494054	-1.310406443148451
8	4.611575115004841	-1.045177695496556	1.116237995190498	-0.3761956682243916	-3.9501447577880735	-1.548057909871742	-2.672138445783406	-0.40504875676886937	-0.6787988526372414	-3.9150380989411624	-1.7860152676312477	-1.7300341085623816	1.0435975763675498	2.1641759817796333	-2.464936965441061	-1.4566703998027906	-0.902778980836852	2.41362523423211	-0.7715404610227813	-1.2825967041058097	-2.442537301572444	-0.25814023548755605	2.6813523701681024	1.3516343797890504	-2.467522853343468	-0.3421871653500497	-0.16852202968965033	1.4961372576133025	0.3540277174117537	0.08508254566169021	0.10347080949647082	1.3044538464990512	0.5163729773835699	0.24106608270340127
12	6.823720914778597	0.3799225380365306	4.909024226192331	0.9992496942087045	-2.38668131225729	-0.7327817659950577	-1.6000205237999972	0.24423049328653737	0.865138588151581	-2.3562681615467223	-0.7865472416092824	-0.7255125027458937	2.4174115596772623	2.7359518935745633	-0.4832862007337076	-0.38644862077418896	0.03620626023211246	3.5009090812031687	-1.029502031588074	0.6502186639581787	-1.1038199635293455	1.0497516367157818	3.447814932701354	3.369715920523657	-0.674008725371961	0.7956339696823489	0.9088810659349712	2.2777697982500387	1.7472201541656585	1.1895695894725167	0.9115400887363327	2.5819494659085724	1.4544098340507465	0.9847062801295172
16	5.7494850013530865	0.8106728175676583	5.261478887625467	0.9344357824575183	-1.2118668525616683	-0.575060783364853	-1.2452213732751856	-0.758644578925671	0.9962426994920227	-1.1935285299685028	-0.5937083348543325	-0.7608440499169746	1.6691192346393335	1.113683578540453	0.5466713295485901	-0.2645545297142204	-0.37129428888991883	2.4331130920015114	-1.601022120248274	1.5123002490962376	-0.8476863482054092	0.9247083640593787	1.7019014315551628	3.7967333697781833	-0.08472097643681498	0.7775401453414348	0.5585242495740537	0.9605112051555087	1.752505417213838	1.1752066582572536	0.5947329983000793	2.529391282371225	1.4538174830924642	0.9144881940641251
20	2.5435469086324827	0.4354307938549429	2.262956136712122	-0.036171354262103994	-0.5904158338898975	-0.7401031833082684	-1.29213094385072	-2.399721854826905	0.16632187324493358	-0.5873280152751044	-0.8703665115316312	-1.318968054302372	-0.15271836480683654	-1.400090214055444	0.5822622165284339	-0.6794431192409919	-1.3816813195630426	0.452025591185863	-1.386753674820622	1.3744189704526553	-1.262132283838874	0.006795747654118717	-0.9620544886141368	3.460324993933807	-0.4604139018355372	0.08748338349427844	-0.4851393985420628	-1.1325403423325662	0.9194701290758084	0.5343131409506411	-0.21021969563337745	1.742634053598929	0.9523772573267713	0.4900345193888499
24	-0.8439098575266201	-0.18134266092292162	-2.4265468059310535	-0.9580978130946464	-0.3021868757724671	-0.7031807285675044	-1.2366448609601084	-3.318578473295589	-0.7232136112073558	-0.31193083445949016	-1.0407106850097871	-1.631125207597503	-1.6133719641959754	-3.1034049909439525	0.10926137837003845	-0.9658775901250226	-2.0028161951997228	-1.040507790799484	0.08399546125186007	0.790064809711821	-1.6553255277802386	-0.7509912233465442	-2.615885727953629	3.287144414231886	-1.1549347609924563	-0.5294548855765545	-1.2426485983945963	-2.454923146725499	0.11978474974191844	-0.0241219288991829	-0.7294495683373025	1.0616062852759396	0.5338959680429114	0.24472048816883754
28	-2.9066755698250457	-0.6012264474948055	-6.5337405039811856	-1.1466532916682721	-0.011019373284771263	-0.1774908299733265	-0.8240819552596336	-2.726165049345733	-0.9871495341173366	-0.02732468575790942	-0.7545649986289641	-1.2639555899179498	-1.8437589360416724	-2.948938362305623	-0.29828229471237894	-0.728322206088867	-1.6995991425518813	-1.4151085579430025	2.1391837542884113	0.31970021047937935	-1.6014608104327133	-0.7735477070351695	-2.257102245354221	3.5139090926144383	-1.6462117391985123	-0.6249607785658635	-1.1812541455008962	-2.2577128353337588	-0.10285166625042964	-0.10329122815279657	-0.6058547481499292	0.960994718032706	0.5085565434967494	0.39401137729348595
32	-3.364110699743131	-0.8304249027266819	-8.344206788930462	-0.6253930314486833	0.4324695457030107	0.6452972872654343	-0.27854260731943736	-0.9176801419930779	-0.5977735504316848	0.4159834672438864	-0.1576544191433198	-0.4385486532106269	-1.0241700384985089	-1.1309241027889172	-0.393697767455792	-0.13148514893236754	-0.7494117002639842	-1.130009767540371	3.2482476152425668	0.14264056050526944	-1.2391798464960053	-0.2322272950508132	-0.38063469433050895	3.505193701477385	-1.884196157466678	-0.33884912643712123	-0.5420275316858638	-1.015092251122136	0.1259612586894323	0.13062162664336427	-0.11778919369045725	1.2691136566544996	0.7309082728052078	0.7042781692843381
36	-3.050758115695403	-1.2374422518959003	-7.469165783144122	-0.04975905256821431	0.8539255835908103	1.199837800811338	-0.15960201580759967	0.9251741743571223	-0.13732250000138513	0.840358016753422	0.20823550171729788	0.12408511309289653	-0.13858821953115613	1.1122096748881685	-0.3812441518217986	0.23002807737924927	-0.023346330911581923	-1.2674211231657309	1.986932868709368	0.0022313182651540597	-1.135148283953484	0.1354237046398919	1.4493582212094966	2.2973585070781453	-2.2457916679901992	-0.24616284606295444	-0.10737201544355711	-0.012266417003000631	0.17658269360782144	0.12528598276931563	0.06811141950576957	1.3685175145883435	0.7609484772543574	0.7006359678698887
40	-3.0572755259572686	-2.1487207358469744	-4.840412127671712	-0.1724664415535091	0.8870250560299777	0.9474835967937775	-0.9244382954145833	1.5316774806452151	-0.3020905546667533	0.8753036238505566	-0.17891582801469635	-0.2568077140523217	-0.1859955931974366	2.3506920278327734	-0.670926926826275	-0.1960150892553994	-0.32952093994867926	-2.6205148630737773	-1.859477872922152	-0.49141156549361903	-1.8046467258666787	-0.36762931850122277	1.7417223409547467	-0.5009145724047459	-3.137997857754197	-0.8649852850056058	-0.5661802873621887	-0.37096595670500254	-0.5288373218535959	-0.576354740595015	-0.5554441199584172	0.738382635636526	0.25213158066988645	0.07294374685944437
44	-3.7901575469645854	-3.4443955334485126	-2.027539248115819	-1.24108600303111	0.26270770960284007	-0.21706533377203108	-2.5228738721093595	0.3963508893973357	-1.3278795447202414	0.2496235364333598	-1.3963932955772291	-1.6879507260621256	-1.4286478721788385	1.8610308123332093	-1.4749145470574487	-1.4541441165450086	-1.786546941061302	-5.013174521186945	-6.851096612799079	-1.4557762109241277	-3.2507111944142033	-1.8177071763875983	0.1106203791686474	-4.121064652528662	-4.573966491595155	-2.197156185324906	-1.9508458326676663	-2.2170488778406	-1.9952769229104081	-1.9161544989845016	-1.8970975827957381	-0.5777494296745932	-0.7307639699605708	-1.026847717553638
48	-4.624981868511032	-4.476898182056294	-0.3340704134612866	-2.751993172373174	-0.9435543990154592	-1.8222269965895046	-4.298857201213079	-1.8657559109312039	-2.747552626348619	-0.9598674153889152	-2.933664076074045	-3.535011044160282	-3.181674710823855	0.02019920381274188	-2.5485989983108897	-2.9478187486609886	-3.6512463000618847	-7.283890705792072	-10.496525737964152	-2.538275235443278	-4.851623522907078	-3.5166087061787894	-2.460080378997024	-6.8541407412093625	-6.047957405079496	-3.6304399875533804	-3.5315050989634456	-4.532179821015842	-3.557010641654177	-3.266007653573581	-3.2421255029838534	-1.9274727057430352	-1.6869147973385448	-2.0070857951034937
52	-4.364163387724222	-4.4007882960790194	-0.16025339026522178	-3.713278999490228	-2.2598526420757925	-3.0310196799999987	-5.281413541810976	-3.86321329095128	-3.6310255435821754	-2.277419322939644	-3.928089847183967	-4.733339774579007	-4.241946686525222	-1.9755952308366864	-3.2522263444805684	-3.732544174307311	-4.715322959438948	-7.95908067601121	-10.580688449848829	-3.0617525500243343	-5.677374348611564	-4.3689956554732525	-4.246279228933717	-6.973524552858631	-6.787302476912781	-4.269184578607331	-4.236011017594895	-5.7695951316123715	-4.255077828154667	-3.778404464718869	-3.665979614538847	-2.441200727021375	-1.973206157470831	-2.177871221765808
56	-2.1914470140441544	-2.7420532634169468	-0.9357525086619272	-3.2706885255252645	-3.026251070011428	-3.1087946813295146	-4.7317700266581655	-4.282720554983069	-3.1752102294864164	-3.03966712184218	-3.6665635016375924	-4.421964157384198	-3.692582836364991	-2.9067475722357528	-2.9303755686208	-3.0871045511505124	-4.056998242625716	-6.204245074820406	-6.5477595163969635	-2.4560949740388245	-5.069328295306645	-3.5853345303613526	-3.92612050972556	-3.857276906765218	-6.256419166027791	-3.5136546999911795	-3.360056868652902	-4.878363596997281	-3.48208498075631	-2.947083942602053	-2.652159684160874	-1.633415337253281	-1.24468516989214	-1.2171778648163256
60	1.5580438336136198	0.16131490428250783	-1.6171833235918702	-1.3120725121750063	-2.7690691878024736	-1.8762763691260778	-2.625649445580345	-2.7227160861891573	-1.2799098459354084	-2.7726824213596353	-2.0556123204784127	-2.5141255792084736	-1.5600136479091835	-2.2905464114532545	-1.384100433669789	-1.015689251242699	-1.6801856713789716	-2.442660802396107	-0.04274798546369456	-0.7036986333246501	-3.120964996087606	-1.260572787916908	-1.477556463325803	1.4093979561507797	-4.58356999193712	-1.5172083339532307	-1.1019102307155637	-2.0596239514802472	-1.4683318101050744	-1.0130135987454871	-0.5096418844707242	0.1890505696530414	0.25172558363302394	0.5467396364713302
64	5.39422892162258	3.1940994182052056	-1.4011182749659343	1.3735489810597101	-1.4984906874016723	0.1478184457861571	0.2536849373134561	0.04218940053659228	1.2995426622005375	-1.4903019629045244	0.256550877638633	0.1805404867143985	1.14059459875144	-0.622784970618476	0.8980857707237319	1.6634559589349431	1.3922638857976157	1.7905529692265418	5.805857643727849	1.5300686320774999	-0.7204247694900012	1.5769696195842082	1.7713630154709756	6.422561629292403	-2.5896682673874976	0.8073106983783014	1.4585752450357132	1.2661243645172715	0.7556105833049742	1.0827501984915993	1.7127151446015911	2.0256404825566476	1.745845075014162	2.245099062019658
68	7.480025272557623	5.007834421865711	-0.19499966452956954	3.5110888392493664	0.27216255596111	2.0206639715676253	2.6962590149516337	2.5349070961848135	3.348540774474214	0.28841000722547855	2.208611721184656	2.383589976968464	3.0169567985657775	1.0240411732568298	2.9378836080763313	3.7320060635756374	3.6652479079214317	4.693583476614196	8.041096667015077	3.211679450509453	0.91035270461076	3.5169970900431653	3.9883537191784217	8.707066513966478	-1.3567496503907595	2.2757465781928907	2.9622254296854065	3.2952861702690694	1.9410792540180082	2.211486095567047	2.803128950671193	2.766004316975861	2.370701545451932	2.942646972856175
72	6.737792474901551	4.7640266298176925	1.3544264997618594	4.055008878006715	1.7724373295856948	2.8769056724392703	3.687296858061076	3.451396695006154	3.8752272031218755	1.788563127770384	2.891984932273635	3.050234548497018	3.13491462869704	1.747272844671507	3.7733526134590405	4.229502190401856	4.005615701098951	5.162150846799586	5.526043877954819	3.5069243819387137	0.8938529468856943	3.5668394475528236	3.9820372957782313	7.114011746565214	-1.6032756526522525	2.1097364372393455	2.56671881027686	2.927753202675883	1.3842681611397634	1.7171485380687914	2.0960810131557803	1.8910824012694822	1.6829599099583932	2.186054224217072
76	3.55896948869513	2.6446430616365166	2.2649061622656705	2.7797174383554233	2.357724422224198	2.373574012485695	2.9158496783071324	2.4199557243284318	2.6704630784322894	2.3654577672364114	2.0316307493414505	1.9392783592853113	1.5696432550854937	1.392052646937065	2.991558544235371	2.9777660294691684	2.2806329669592404	3.3400621329856106	-0.36115500239742115	2.2705907764328366	-0.802042601467774	1.7290286974168487	1.934060926322715	2.525346034349822	-3.2471690095934345	0.40032482046144496	0.4596798110323369	0.43795850762419575	-0.6104771479452351	-0.17145578519924923	-0.10722355517495763	-0.15697675903741812	-0.03162020436886661	0.30651259344915255
80	-0.36367913988799655	-0.19029046547052864	1.8291157437873833	0.3997827758232261	1.8159888936923514	0.8269506672007855	0.8789563752871046	0.1820637579135937	0.4175390590616294	1.8119883491544173	0.1053154316865806	-0.28749528454674245	-0.6688163859647518	0.6057757123911566	0.9707970594691391	0.6675088388756153	-0.5788167700458913	0.45541879419739184	-6.425696356762516	0.15901060362247024	-3.33623742214932	-0.9940580104525861	-0.7374955993152181	-2.5637001926544767	-5.425767884860823	-1.9220902871241172	-2.2285220566751582	-2.6867711476202416	-2.860061161449694	-2.4295971332243775	-2.66596912664615	-2.1735508387048164	-1.8583694649507072	-1.7110694603634975
84	-2.9747960492367986	-2.206293100508747	0.05004290106178897	-1.839724416856302	0.4339878846178632	-1.013498422924866	-1.445452448056516	-1.8904181671097824	-1.7024080710344744	0.42255410445340186	-1.9514213751161644	-2.471927874999827	-2.267699235912793	0.3396714321143664	-1.3091335263578414	-1.5334104260830397	-3.1157445828927783	-1.9270805071814034	-9.398416495436319	-1.7107864575108185	-5.452477441372978	-3.1646792808740885	-2.263494247443796	-5.368235574520239	-6.968119126846887	-3.5953476338211794	-4.055569638503346	-4.622934806596034	-3.9582126040659222	-3.7816173934827293	-4.203414429542428	-2.8519985603805726	-2.717098706061128	-2.7285787990344628
88	-3.022442094801318	-2.323246234750212	-2.3454649389177478	-2.86032556765325	-1.1960360973678723	-2.406980746867904	-3.1568028847147755	-2.626628630682243	-2.673874371453462	-1.2043789594760201	-3.276149979902955	-3.6259207633979202	-2.4018487869657	1.1299940319141901	-2.789294712653753	-2.6229481630859444	-4.158668984403935	-2.767069809603176	-7.767620067058567	-2.3709037244064994	-6.163724883730083	-3.713002672357747	-1.6147767264604953	-4.329700935876417	-7.054980260203024	-3.7229998017728145	-4.073994626249797	-4.275752533607839	-3.0871322077056185	-3.3988237295169395	-3.8489200971702284	-1.5355602464053706	-1.936523790238616	-2.051656479423947
92	-0.7451024632715376	-0.5139034973521156	-4.30602215633415	-2.3226559103498468	-2.5000531610311123	-3.012471191429886	-3.8841206929370684	-1.7321209863799887	-2.1857099477897184	-2.4935989316925493	-3.532177439354814	-3.459222546426825	-1.208612677383727	2.6429171495467583	-2.881422512408945	-2.286478036829737	-3.43601535883283	-2.0358996339894864	-2.6386051111360143	-1.52294492337051	-5.267003046089303	-2.5092267926760417	0.8726473428628478	0.024677250471991968	-5.673322186451385	-2.2560779991409867	-2.34075784092243	-1.8969250869541938	-0.49946552388926985	-1.3485283817576466	-1.6955072836983816	1.3903710807029073	0.3827819814554434	0.20808042533314505
96	2.3342781007959674	2.1836857740582567	-5.022876249983251	-0.7581861596038609	-3.1877760806662385	-3.006042711297801	-3.8876070878104683	0.09787747984254758	-0.7461555581327703	-3.1596343437530368	-3.026574604022452	-2.466560357542065	0.3513912549683827	3.8231959246430125	-1.7383216575603173	-1.0049269173999371	-1.6418093401465168	-0.5639572129316137	2.910470478339024	0.3294090024260737	-3.399240723610735	-0.37421384359293586	3.7303826714746333	5.384408937211338	-3.5987746624685326	0.015417980922574938	0.16709656971228462	1.1229344578048166	2.6215493612858873	1.4602106772749313	1.283420917131683	4.701769816925559	3.4135165128355567	3.2005860724704442
100	4.330176819359102	4.260562409134471	-4.35004662369126	0.7990460375639015	-3.3046491062653276	-2.8747937606709204	-3.7629041576748734	1.6589407878953173	0.6765964610183511	-3.2564864076411992	-2.4423921046581376	-1.5454615315518812	1.1354629964771037	3.572004309218861	-0.1015832123575865	0.2924895279175408	0.05552535862612931	0.5955075606569799	5.587872967917123	2.2044532243384656	-1.622558470444144	1.4566076957166452	5.274242387806865	8.948167778311369	-1.921946997558439	1.9418170403091752	2.1602177565393825	3.1317863385285465	4.841789233381126	3.791341295206836	3.790846815075028	7.011338216245827	6.023032173208833	5.783255562486086
104	4.070131768440946	4.56658791342775	-2.870626919174483	1.4301104509486444	-3.078280441141663	-3.041016809415066	-3.964798440459817	1.992490405774194	1.2407842843200185	-3.0198137683919386	-2.372399562568006	-1.4010000193509986	0.5364855514332849	1.5326083859849668	1.1588857144660627	0.7995712736923362	0.73076808268105	0.8206124881053072	3.781964530933025	3.215837232099908	-0.8056678751631497	2.067166561629661	4.607229221155951	8.960791565205765	-1.4147473537965756	2.663533919285355	2.7796511579906005	3.1994964995667012	5.279329286597733	4.745131003797284	4.8982214804005135	7.507596950649632	7.331238728133468	7.091117364146211
108	1.7090283589129625	2.904144995032851	-1.5772522648090195	0.8264155963059877	-2.7139980724477404	-3.5725405126019063	-4.484937656523301	0.9463657712884821	0.6874655467796361	-2.658542626344466	-2.9571700021469005	-2.121263498672645	-1.1565554112798073	-1.5425661763345817	1.5149301252263776	0.2763673060115292	0.2096932674120503	0.21914912704927886	-1.5384852847356931	3.0407783908365666	-1.1745619744209908	1.348913189343345	2.119010681524402	5.6187801219223426	-2.1301431602102845	2.0431981035145164	2.0298378416311333	1.6164717633443382	4.046454896247306	4.182727803160331	4.472057331238437	6.323967440851144	7.0920796215290345	6.910635453896317
112	-1.4357554876317797	0.09522908901967098	-1.3325859274598237	-0.5907610639915649	-2.262957090386436	-4.1396055117042625	-4.855196940561631	-0.7756507973161145	-0.5662897810943647	-2.2214436474980834	-3.820930948147266	-3.1524126450102834	-2.9523820802534715	-4.092025746504565	1.014585850061403	-0.8627090432320252	-0.9020853615873521	-0.5569301829582053	-7.370284538734349	2.0359523244953346	-2.258290046712306	-0.006680736301363391	-0.7710050325001158	0.8938645697913962	-3.4412796410461013	0.6658200008748133	0.689116118598589	-0.3449238828056798	2.107185596867978	2.708940022304871	3.1356050889003746	4.365971077386407	5.727832302890908	5.6888007974047365
116	-3.679760446794703	-2.5071387227655424	-2.424605840283488	-1.9610457370837475	-1.6534998375153778	-4.235983361039789	-4.473747242122843	-2.0697030968863186	-1.7190107063761628	-1.630008097347943	-4.331231106313227	-3.6725053694509597	-3.766351690319978	-4.575406062972136	0.16400051075537211	-1.845114941706889	-1.6629306035972191	-0.8246530273597847	-10.371627781431345	0.955975232094909	-3.2375371374406283	-0.9935100649545494	-2.4803516802153753	-2.609361880390144	-4.479340541974444	-0.5703337178135858	-0.23405943751845462	-1.269537564887072	0.6495903713991876	1.2492748467375467	1.8167380048659973	2.721488230509884	4.0275897878049465	4.206021298279743
120	-3.899407376934728	-3.757662048389402	-4.442790497053296	-2.4915037092246943	-0.8537973740002222	-3.52944182458511	-3.055275670920814	-2.104707474163053	-2.066554302720074	-0.8448505380280903	-4.0181174176811565	-3.130650512420574	-3.0677499693664925	-2.39556884160802	-0.4439359892127265	-2.0274763056110947	-1.4181064331490565	-0.3421600750390677	-8.75733087236008	0.46389806153476365	-3.4668068798274763	-0.9375787949732342	-2.180166239002445	-3.0817329805769162	-4.690934169369909	-1.0084894870091676	-0.1454190608167816	-0.4933504449786225	0.3671298613815884	0.4916496562465732	1.1747747630023015	2.029274935367296	2.6982650688711294	3.1174848000972473
124	-2.0580239243999365	-3.270758620587343	-6.4890541866501605	-1.8582779122165634	0.010629093247638263	-2.0901749081291876	-0.8816910363824951	-0.781317589694538	-1.3628759349745965	0.012986504440004376	-2.863482706469742	-1.5920470912792346	-1.1565066546805043	1.6728301006043909	-0.4776808309415701	-1.2514693705433464	-0.18845274996861477	0.5613898620736852	-3.265637151102593	0.7635918240341826	-2.8307232785281595	0.11378657789112227	-0.21586601381637224	-0.41390353336737806	-4.147296418209503	-0.5802828058850854	0.7996768931226115	1.500420447376048	1.0986475916780858	0.5400925861074056	1.2607918945905492	2.188568586545929	2.035996431932357	2.637028210657818
128	0.9024043656453845	-1.5005775652192794	-7.611528377389184	-0.3036484114609921	0.6886269432801524	-0.364243655477239	1.3036532369124494	1.2747870651484765	0.11911261796680571	0.6919236761743558	-1.2967826095265367	0.3074329189644834	1.07524502005901	5.805864319448047	0.0072005525980887485	0.12160655080371745	1.3848621810280952	1.2546273438248632	3.2754087365423996	1.5571490486885107	-1.747618909238199	1.4675860367915277	2.1638679449762117	3.8661701581618324	-3.4415869625937874	0.23187126160730748	1.8409606171858226	3.3784913931424927	2.0043339678704513	0.9498711800435172	1.5767831762558215	2.5338275368613674	1.870844478652121	2.513827079148192
132	3.633542528515396	0.6167197211907351	-7.259965878276794	1.5513575037888874	0.9698821877787914	1.0704517337475645	2.678561442288186	3.115858546973301	1.7898852779974537	0.9772223209504144	0.06933560949939815	1.733598466310951	2.6739771298607953	8.044809321119473	0.6932761651655395	1.4700733386117248	2.4522473750189975	1.2123924463179707	7.510604839435983	2.305835479636699	-0.8672459103622945	2.229505771730048	3.534360399859557	7.505789260987448	-3.2696506894530555	0.7453209142940879	2.101712459979941	3.725312700402839	2.134629005764755	1.0714303228030162	1.4447689019919576	2.3204433859413705	1.7583196118784188	2.26178216363159
136	5.093520151629844	2.216428989536501	-5.51123379269558	3.0539755744122554	0.8873760677821738	1.8349436475202279	2.8025274205976385	4.0340399640276745	3.076857320646599	0.8964349604862005	0.8120347240926927	2.144922966310054	3.15573119320442	7.330816250412367	1.280990478142458	2.305923217673587	2.488269322788769	0.34036844882861006	7.352902870687414	2.618091815060486	-0.6473268850195568	1.8628570986445163	3.065877191432378	8.733251549605933	-3.960513581767022	0.5263550268235472	1.138372299181245	1.8570001078450948	1.0351407501788792	0.49104922885894425	0.46556275965449256	1.209067937659372	1.30030977397686	1.504781600013963
140	4.995974528096826	2.923381559620514	-3.0005590839923095	3.8110244177920287	0.7931426147463172	1.961318845565419	1.884269113551699	3.9294023414586072	3.6799321081712226	0.7983519414772445	0.944846329687704	1.6031899411732817	2.715545170603624	4.075650681696056	1.7114760832491287	2.55362986873581	1.6096974570641394	-0.968891797003704	3.0440180224812194	2.5023057397607764	-1.0751115056550502	0.518422363879708	0.9102348662283366	7.103804093545332	-5.255759225927261	-0.34144940886120495	-0.7799782733298164	-1.786220546027336	-0.9783926581476243	-0.703844843517915	-1.21391486815098	-0.5416460023556199	0.39518448610667095	0.22534482124178137
144	3.8202688597547727	2.9352149889271852	-0.5917889460881214	3.801147928177682	1.2140330045566265	1.869963522004565	0.6918304545101625	3.301985017069173	3.641741028174262	1.210532423777806	0.8999492503332848	0.7333014588915422	2.027731175071511	-0.017012743236384836	2.1882398073261777	2.5645797187905615	0.5056949841129523	-2.0714344926033825	-3.048721305779281	2.3400409162568816	-1.682443018480206	-1.0444047424650602	-1.955761427709882	3.590922346585648	-6.45531557360668	-1.3080083098766127	-2.806486599512203	-5.860468849644657	-3.00716947749979	-1.9672223279876477	-2.9584360047987337	-2.2479624691474385	-0.7024285179523381	-1.2037988870745306
148	2.4742050108430766	2.7801909376523235	0.9996126268898254	3.287423125550152	2.5272221501440355	2.111025089656136	0.1412414159785056	2.9043924735173334	3.2318591989936603	2.514283173888862	1.2502042023565383	0.35683867245226414	1.8005980207758874	-2.8325083184253863	2.9862949772778347	2.8676893638687893	0.03554558744992887	-2.428912633485505	-7.771522979188605	2.6008613043923186	-1.8353692246828497	-1.8865122747475125	-4.294377316123072	-0.06389857812484256	-6.846796972154418	-1.6855444865586182	-3.9732973475275926	-8.798034645755848	-4.0983109370709725	-2.606405966853906	-3.9796974558488363	-3.2141225256833383	-1.526046868286079	-2.209505314016872
152	1.811273451046786	2.929140560384172	1.4628404341957821	2.61735700900155	4.64271591921699	3.020683519366305	0.791221318631478	3.2637276567073896	2.745107882244684	4.624785888439505	2.336563581289465	1.0100601886043232	2.342703813360144	-2.9449198171650117	4.181953419617364	3.8132433795021248	0.7230957728249324	-1.8821220350430206	-8.856019951395583	3.489922037850171	-1.1226680250433434	-1.4232073986360558	-5.249608026601971	-2.305901283164365	-6.151550277437579	-1.0566002103831833	-3.7091312314800704	-9.575653051995674	-3.788666954011806	-2.1749327127858002	-3.7558655644004078	-3.1217653672556294	-1.6552455383471518	-2.318961852894574
156	2.2698018493565817	3.5447738081126845	0.9826630329117756	2.0754344410948704	6.947641355139556	4.525902736681104	2.543094151751912	4.403196800559022	2.379601949405901	6.932619077345453	4.056308736096695	2.653370373702495	3.439335814375594	-0.31776842394708626	5.534938798281482	5.360487447556158	2.479414456783293	-0.642521737383831	-5.980293258826992	4.796859729100031	0.41884088410488196	0.27796873380098874	-4.667523849147032	-2.4451990065828135	-4.681045997245215	0.5090339767001948	-2.097045893142968	-8.122167566773772	-2.312341207388218	-0.6912177783680631	-2.2745635452063757	-2.142581934287766	-0.9186333394699194	-1.3855872119253125
160	3.743884077156488	4.472444523009921	0.08498357959987114	1.8225949956654188	8.57264039736251	6.183238490705962	4.697222220959257	5.872167095617319	2.2161290589647487	8.568446137729547	5.912447437617671	4.705807673971028	4.551722991895455	3.712113609478522	6.601581556818937	7.107699376280858	4.677022445314456	0.9003562308467836	-0.779247222363492	6.027287944835051	2.342794650838552	2.5665271217397465	-3.0222337169637097	-0.7860966901005627	-3.1338345925364366	2.519896262482478	0.22332265916707575	-5.2290487157407926	-0.39167565008456984	1.4066365921745971	-0.003066977012609706	-0.7533674221091605	0.54224425417372	0.3562511792725188
164	5.6874966477803435	5.404356942837244	-0.6428420527440453	1.8974374484793894	8.84246251734778	7.412461738945245	6.308939917848313	7.029531461133975	2.254760021239041	8.85384652763398	7.276182156312023	6.3567075568878675	5.169446932138831	7.1498412905421365	6.999209386320394	8.51781366105074	6.492718203364542	2.3836264550109743	4.119850625126942	6.7145280668487155	4.038208951291319	4.5654544715055625	-1.0804474326511608	1.7452330545231534	-2.1828954164705303	4.336575497168875	2.4078810154203185	-2.094132418113703	1.2124061553862344	3.5049686343392814	2.3586957395130055	0.5777443632798	2.353117936869007	2.409543746586775
168	7.361577969084701	6.058330997430015	-0.8246176222008775	2.2349801007109775	7.668348293017211	7.796969870909026	6.653317434679039	7.40081165352544	2.449020141140427	7.6956214710489395	7.71359823186781	6.976857167748898	5.101294981474716	8.34916971006051	6.659499628419534	9.203261352191245	7.322441559423989	3.6143562702477965	6.455300791654813	6.715926630230195	5.0358323923760775	5.611164555687908	0.4942008840481306	4.154355038644563	-2.100827211797972	5.489500985591026	3.8121247195318047	0.24175441204069079	2.1098315662521667	5.109717356178794	4.199938286667904	1.631397720032728	4.078416814043807	4.236496914657877
172	8.096029261175701	6.265787108814197	-0.4494791019535533	2.679113619715991	5.648080811545631	7.285780888282417	5.5644330837905125	6.9053835694491275	2.7067599228230708	5.688039288465009	7.1931643304413	6.4102587538046665	4.528173912059891	6.797459108356865	5.895286545174426	9.104861236472884	7.0415143788893655	4.562357414170852	5.376973138585092	6.293429835642599	5.203878866408588	5.537881360377324	1.3821220363053992	5.796547398237439	-2.651022427541431	5.8639569134481055	4.236281384262914	1.2844719854349984	2.4162540374786468	6.032120212584081	5.230769144203245	2.472002976852054	5.396821008408028	5.476022706511285
176	7.521610241019525	5.93880508830796	0.1377309706309996	3.007050029791962	3.802794208462222	6.210319026526262	3.5017473609251732	5.8550519795411455	2.883227102629609	3.8509311578798724	6.082247241876468	5.021055685717829	3.840576400597056	3.2861964619637716	5.24517630206482	8.489802339099978	6.006312355135812	5.256246076664557	1.6893845753932222	5.948793396235623	4.756574618728108	4.691658961848548	1.6438128906709384	6.497170908736601	-3.2724890626300933	5.685010895680907	3.929129352186225	1.1771488159977115	2.5826699668527984	6.397489054740227	5.536782250730441	3.3031549370338706	6.202131255703429	6.058134063684174
180	5.712953076243904	5.024028288554562	0.4312862146932725	3.004223100706692	3.082124225464234	5.123380648075449	1.3347843851721686	4.772890555729151	2.821290009051244	3.1348133008011776	4.957636343836931	3.5043711573815615	3.3959777269453895	-0.5533139691688124	5.189550386677918	7.800623397205954	4.841629969770688	5.692759022644988	-2.729779713414365	6.1265539968305225	4.110358704679715	3.7122607137414563	1.5885897834724116	6.394252760955673	-3.422457686366449	5.352868543461624	3.401789418214896	0.5193557726145339	3.0628211420931697	6.516163809537037	5.474663243776681	4.270571221059885	6.6097826790821665	6.191945060355611
184	3.1986467757529287	3.5236527830805606	0.04481444496522736	2.573575728594509	3.8933188816955835	4.542679775212965	-0.04133751232916171	4.138642300647124	2.4385509429399304	3.9487364192448764	4.333056438950221	2.5652229721153534	3.3475947295547277	-3.070957176084469	5.890016540915271	7.443125229163238	4.137340058371359	5.8143367620536095	-5.896980270756087	6.954054814901196	3.6765122320812242	3.21437811039949	1.5862219293600428	5.729355797607521	-2.8768625186765617	5.232114778660297	3.170216075522585	0.04867262008418475	4.034988869970103	6.7043433020123695	5.479504094594537	5.350674138865114	6.876647455019726	6.242436393235945
188	0.8092358687950412	1.599567528500848	-1.0686974498469644	1.84186994564422	5.922965988463917	4.741744029471119	-0.05665444940925886	4.207459915982409	1.832234616422026	5.980502590338915	4.45654772586988	2.6389465265404253	3.6486520675092304	-3.335949650925071	7.119196396973266	7.635946731361957	4.225534428418465	5.589302525713807	-6.579187376577625	8.18779561836589	3.7093186284827713	3.545254221548361	1.939417953363023	4.752453792017321	-1.8044911577442075	5.516155705830125	3.5633616357482496	0.3544653943172344	5.348661886062577	7.158014756250259	5.88576744500925	6.397070391716381	7.274810295811337	6.555928690570674
192	-0.5996080621839501	-0.3288061014456928	-2.5602939064234524	1.1733386486947093	8.328188875152543	5.664720997813433	1.3482408489519762	4.961266028276009	1.3111263480462305	8.387256601138667	5.25497912033841	3.75906394963098	4.172824372246613	-1.43539476032251	8.412131288270688	8.374542215184439	5.109117495035289	5.08811949398967	-4.677452075592912	9.385569548752445	4.261564244001327	4.702354896117197	2.8008320260859274	3.767344942118007	-0.5993302449353535	6.211342319065182	4.650347697914762	1.6912003712870753	6.693551046638006	7.92449663068837	6.827489835667518	7.28533552237778	7.982095698230935	7.320725899333106
196	-0.470749108794917	-1.6257812935790126	-3.818103065387682	1.0424995396042698	10.18850037863442	6.991206628314476	3.7593796158289137	6.177452071805776	1.2956767049501663	10.247855160589054	6.427997096045037	5.60351608768964	4.856729495184226	1.7447887615021194	9.342991805329671	9.496078467235645	6.541134817774773	4.532917011260563	-1.0649754974180068	10.18838116934517	5.232540117404341	6.4174523191551565	4.163847435928946	3.20366000320304	0.39879298109458494	7.209676724351027	6.284984095917829	3.9470479388719424	7.8472351829769424	8.949101425464773	8.23601529903028	8.036082247472073	9.02423665629314	8.512936570608952
200	1.1997313469160378	-1.6712446170573685	-4.257756222465531	1.797536964646531	10.948660822882191	8.286290147841335	6.475748522621254	7.549581031811943	2.1028361267404097	11.006978007183196	7.603283862944667	7.650032500979714	5.747218594345869	5.050254332189519	9.745686506461402	10.768240901462708	8.161872843162783	4.2610788237755015	2.940200321403612	10.518907520439381	6.435113413776094	8.305813768397512	5.87973545497321	3.5520694166147724	1.0950993271835652	8.36350438867422	8.18732354958046	6.709364874112728	8.809386231115372	10.125817273323928	9.890187238518447	8.804326988879609	10.272754643253242	9.925629590723887
204	3.827711334101217	-0.21353645568817484	-3.6237912086547617	3.4327273282167416	10.612713786987213	9.155652023087814	8.74571798023852	8.789648987512859	3.7259383107528223	10.670113536598151	8.463891961662954	9.355468726379712	6.908006173812623	7.581214885644429	9.749686216534311	11.945114105583674	9.606283163612677	4.593285549010979	6.14065073370289	10.574625942234741	7.633277396957075	9.987157796440124	7.671365718546703	5.132976042185745	1.6223419863748665	9.510072684119258	10.011589025016136	9.383516287954407	9.733940099935882	11.312244386722531	11.483958215329523	9.737101530286788	11.49246308286176	11.257385225484084
208	6.455857737454188	2.3746757447369418	-2.1485021060104903	5.507512555522358	9.622530912900269	9.35558030627445	9.980552648141371	9.680173849461278	5.74637316206651	9.68195626675414	8.809704758336247	10.302455876088409	8.274603822797598	8.955382324496767	9.633329367157673	12.78806015600671	10.564949962644913	5.683444485620164	7.83742473530884	10.645340892617726	8.55697438940646	11.152300806498909	9.176001525599913	7.821466903012704	2.15722441128632	10.457735988916578	11.40333840352135	11.357933969431883	10.72607991371515	12.319620101342238	12.697443930039205	10.8034076417914	12.416835753562612	12.216122596415556
212	8.157713869479435	5.16430328972628	-0.4503788340641662	7.312676888122959	8.553704240183757	8.85737226157283	9.916014646290153	10.121346448139905	7.484589557824419	8.620844819237877	8.583476998592475	10.311511013699825	9.60577104050606	9.264108634447288	9.62283608868075	13.105137791924914	10.843935939113393	7.451223831437712	7.961655119821849	10.900651904241196	8.951372124006403	11.61561295437701	10.063659642560452	10.954268427848502	2.7292749812836816	11.002212496636146	12.087073295593914	12.210411040949019	11.676900834166121	12.936290708305803	13.288263287373212	11.73649975674514	12.846012083045453	12.620489088619726
216	8.451039292933196	7.081212502721022	0.7894598225688783	8.220614412533518	7.826070288926375	7.860079745475031	8.695209481220534	10.170003865314419	8.335976579600654	7.907339552942381	7.883843402031244	9.503626799430942	10.587677928896124	8.84436128290695	9.775756811256088	12.828120199240528	10.43227288473282	9.620829557924095	6.953622323599797	11.295935602278844	8.677237488773233	11.3721532534536	10.21276185318254	13.55368229305075	3.1734473625169906	11.005336733688805	11.982435196187689	11.905881851654405	12.282036750301874	13.00925060802394	13.189747777062857	12.160652129941836	12.728431669523955	12.46339222622339
220	7.510326366536296	7.455913048039643	1.1891711920278438	8.02639577746479	7.594279270071893	6.7535400220114505	6.861600858530616	10.04328057614462	8.105567911664314	7.693556289321975	6.9714774909436334	8.296942689928699	11.026027651605316	8.04185579176902	10.020098660919944	12.099071472138327	9.558134054847523	11.79665943982079	5.499770627441318	11.658996552595113	7.824051837240797	10.643765422651	9.819324468616792	14.768948517704665	3.2682650006748157	10.504443142118967	11.290770502194228	10.872625323501408	12.24142739066319	12.548549620417567	12.567555395821243	11.823044747066186	12.185646980037422	11.90777680251632
224	6.076396449960088	6.406221850433511	0.8769274927887175	7.079838258034551	7.828434924387934	6.022802814536316	5.228275285872139	10.059724782340894	7.142919999208292	7.944303015678647	6.240193828086578	7.30719612184041	10.998345347292883	7.141023140997749	10.293584797619594	11.299406023107485	8.6792449732042	13.586276020080275	4.297696579572944	11.87705895286243	6.761659605120833	9.869832967634778	9.369135832973624	14.339040720022988	2.961484186324851	9.781856512168421	10.484822246782763	9.884450887519746	11.523343057149031	11.795288056157261	11.800465554007959	10.805352183717643	11.478857965098259	11.23245713259048
228	5.0738816133188305	4.801159369744693	0.40509712593798247	6.105350955807395	8.456618287670087	6.081466182613303	4.6107740285810825	10.496068927967746	6.168573840779608	8.581914880066146	6.1040010298159295	7.132964593044463	10.839407893470527	6.415582640662563	10.649128886992928	10.943502398517774	8.343581178580479	14.70666977030331	3.846694698158513	12.029241531518734	6.043401226044369	9.580234503400124	9.427036261599412	12.770073858444698	2.4990296300736135	9.301498389601912	10.145770047321404	9.739245390144657	10.485819790115205	11.170121164730284	11.350800485563175	9.550978636469592	10.9112596236358	10.732773753725105
232	5.150038706174648	3.7960414790633776	0.4008570303333007	5.80482767546873	9.447741484630633	7.0968198597067635	5.5050501684436135	11.430133790721765	5.8820814937856465	9.572107290896229	6.828463537142111	8.10200593810153	10.954271288871444	6.181684001574145	11.2456683828623	11.460131616268585	8.95835969570507	15.066213569749554	4.325430382298332	12.366947142848726	6.1797580562970245	10.179595921564616	10.348129246334423	11.108563395110313	2.35557412506471	9.517595267108078	10.703936549818419	10.877204867557229	9.761012052687356	11.106896372409443	11.571608514180493	8.683041550648229	10.711194965022262	10.61625764073803
236	6.3494977790740394	4.168966282809333	1.166708347235924	6.451453192634986	10.758080455321368	8.869598366278291	7.820281485840404	12.637278524917669	6.556718809739822	10.872516604629613	8.361451127876181	10.070383046474142	11.534952134573334	6.73553608147463	12.205429046332691	12.941459623087674	10.550538990086082	14.759388886381144	5.552518353748573	13.127136197325918	7.364670258047841	11.714598626124165	12.021801918195232	10.394036266787365	2.963460676340613	10.623439761996753	12.18469521307205	13.09449192555775	9.924682592130086	11.828569382367178	12.52243801770029	8.68448732090825	10.942429514914526	10.927321406432162
240	8.059148768104754	5.839007362882435	2.457870954030068	7.7181582256001935	12.196855514249846	10.84078690652857	10.815242740028122	13.616457904769698	7.864338854961348	12.29797550911173	10.259349797095679	12.389493910980278	12.355242697993022	8.142701128428472	13.429470982024021	14.996245346354428	12.649872747908333	13.96718117048577	7.0552215398044655	14.293668710860198	9.295152640716566	13.749071086502752	13.797181094621033	11.07939812723961	4.385144699469345	12.371242491958975	14.100481951399217	15.517129858894302	11.12433335356659	13.176964726558023	13.884574855081537	9.609038328705818	11.472875566126547	11.520586938381575
244	9.304569220892986	7.879851798190003	3.572957029858545	8.846346832828695	13.356179203644611	12.268652884979218	13.325827564927296	13.787128413677175	9.04093930822851	13.447777714155535	11.79926869274389	14.11545177710605	12.81741425139158	10.046836827661519	14.527726136721896	16.837266879487057	14.413250886766779	12.871863332675009	8.25348184409116	15.488093337055991	11.226368875769912	15.47144981292809	14.709557496126097	12.773156133827541	6.155546649650389	14.104674303683554	15.604448279084	16.934917407194614	12.913468328297505	14.622327767647601	15.058233223090014	11.0129937847559	12.026021927034675	12.106731384228363
248	9.235739684628776	9.026911712743907	3.7482473755616095	9.067499137873368	13.71675678604723	12.52880379374623	14.228294336635603	12.776882139372333	9.307723975523693	13.807640994496968	12.267025916599538	14.401897394058626	12.248163192342963	11.670736283400434	14.951691589753048	17.604461625474883	14.97235866581171	11.583856553395176	8.656907059747414	16.098657567387022	12.274818389419218	16.02466388471251	13.914960826074156	14.449656450029355	7.429774265604416	15.02530571005059	15.861828763968845	16.35282512350801	14.411724054190067	15.477470358872363	15.417891463453937	12.150276153405533	12.301904647285403	12.365864722502337
252	7.565907936067596	8.399723985445567	2.630936377558574	8.040372828210753	12.907705274418014	11.406049699596048	12.954813924506594	10.653917285723514	8.31237218665488	13.006733861509298	11.300816507417888	12.909972158262388	10.309632275301247	12.101720779382616	14.282353365124607	16.787586169773622	13.86091991739712	10.1242551547976	8.042010287007887	15.601021727273805	11.843925446171182	14.92954155013612	11.157098741972636	15.01690288566995	7.392982941081827	14.584089242353519	14.481371843015687	13.525057758516086	14.739603959062933	15.231457671810379	14.622352563179765	12.350448577216552	12.115821807789397	12.087653129576825
256	4.77938030943591	6.026818737072563	0.5136603700066906	6.046941741935088	10.978586169181149	9.237711883110125	9.819067930226327	7.978188017729326	6.3309807617562885	11.089573832169975	9.123121238563012	10.036645863942132	7.301070671721598	10.787545176926665	12.520348517278318	14.539527856357628	11.312917680788214	8.516477563336828	6.573270781133579	13.905368769823959	9.965384458177224	12.393561331929481	7.042784673075611	13.942473376358697	5.732310757469445	12.80617806062405	11.788017243187337	9.200340247767468	13.512349094607742	13.842401469567898	12.831097570448831	11.391197175829836	11.495415658537901	11.284098596693495
260	1.9456036041729061	2.8428389954317743	-1.807026262489394	3.8277733229316264	8.487886407403154	6.804390413271005	5.9399008600947445	5.587908730703898	4.1059021846104	8.607212998593583	6.501576407230117	6.7956800289241	4.127717484543115	7.9397740163614685	10.178982708980715	11.675206154910144	8.226140001508824	6.883545381332877	4.743500220720346	11.498622865255877	7.341136437001301	9.295343375579366	2.898137562110396	11.566324204806628	2.884967558252656	10.340642902969535	8.745227791641126	4.880723940924427	11.096618624327482	11.804803818462338	10.67892167256224	9.641310667491526	10.669525119546414	10.200326893802314
264	0.21144851988812563	0.1892893011559253	-3.4668083103389473	2.157990688597618	6.323844416864638	5.0064797275026764	2.778349630970571	4.223321427172832	2.4214131770988	6.442184908814393	4.435524929292098	4.391662586568367	1.9322123478743183	4.591299522252077	8.102007845450158	9.331466651244998	5.784330353437962	5.493884072738163	3.1834261337015133	9.275175071186926	5.044450747151681	6.825521451883426	0.2530598336029524	8.925059296008872	-0.09487055963167161	8.188997248001527	6.5464124514284405	2.2004556600327625	8.478115060381926	9.941571210556685	9.008823372030298	7.89011285697147	9.952623342181612	9.213314033135102
268	0.2374878817761179	-0.9123740769239244	-4.013717641233525	1.426401492332215	5.319971071163091	4.4758558160310935	1.488383408603338	4.181899060181466	1.678423042828124	5.427253709442033	3.7094716932101677	3.6802966501777488	1.5549576243242316	2.1919681970567546	7.083029729126347	8.443281152388819	4.9129972333844485	4.7037482142899485	2.411433452239963	8.128148058396857	4.0184750455489056	5.94355009485726	0.1724600787576954	7.198664647047287	-2.0061244913949836	7.237697106207772	6.0619850005641	2.1911792699804993	6.797120077138238	9.018407798885983	8.483773210086879	6.957024556714987	9.591837858778543	8.665108658847801
272	1.857944126206664	-0.3198946706324681	-3.6452419665809503	1.4546110593310002	5.8312702031729655	5.291578279486729	2.385605806049678	5.161121832214781	1.7076723532477458	5.922193989106735	4.513390529681445	4.761648642915737	3.077661744930457	1.8842445564381134	7.456941108950133	9.276535010758687	5.812896237002315	4.7842550156919135	2.5965640479334415	8.487018563777417	4.601045596903984	6.896354657881347	2.7118005684097093	7.0627298176785756	-2.1015038437237537	7.807129840213208	7.3978681377552835	4.766372668630129	6.760715944387132	9.351948714486744	9.249200797570865	7.254824143212871	9.634984945766774	8.691424347868274
276	4.141607750926502	1.1923859089310433	-3.081176034777541	1.6449447828723653	7.509144287224094	6.931399804735006	4.787405955625364	6.3908758002098045	1.9146649789153252	7.586281280437546	6.323112471828645	6.912371141147794	5.703261361027895	3.843731870483498	8.896294571350051	11.262343378242562	7.822518328943888	5.697935089984214	3.4626691253976154	10.058704350824916	6.325962050678871	9.052966095002345	6.782986146967624	8.32559297366984	-0.49672835939880505	9.457287764513756	9.798667882975586	8.693566300377515	8.253006914282789	10.619787189374138	10.82170579085409	8.546510674833268	9.885099386053266	9.128519988854558
280	5.830336079182405	2.4213018356226406	-3.1273879925923858	1.3676385844987047	9.420071578084281	8.500614144797778	7.337790470670638	6.998743993255163	1.6670575099817582	9.492809271687257	8.125155428399529	8.916075683971007	8.068204859390484	7.087849122272138	10.535755130870479	13.243249859752485	9.708329176233454	6.991280061236654	4.380892265703226	11.930011719147194	8.126440981374799	11.173117609424867	10.564244243652555	10.030951474613246	1.8459453536158033	11.176573725138798	11.978776901519192	12.11195370477182	10.36222455269532	11.996484726181514	12.2927140879214	10.038996671126139	9.993319486182868	9.576766943594425
284	5.942874416605792	2.452100986011799	-4.178737152993404	0.3507329216685006	10.467402431763267	9.132743812391258	8.64974115095203	6.433526976554758	0.6870096904575449	10.547379467083806	8.8849344029217	9.634001707549043	8.86367318776542	9.901194547450617	11.380902261610222	14.021112406616696	10.252901051384422	7.947100142441604	4.62481831336618	13.001273122387342	8.851210571830087	11.99657437156703	12.308756797231482	10.957921000471115	3.57409881643098	11.872900932853396	12.734824148450688	13.374884571639377	11.824423760124228	12.559651343106824	12.762728658878283	10.779533359014764	9.649038290457856	9.601135229665713
288	4.249234665632798	1.1772307127794261	-5.973340019403629	-1.1742984026824594	9.895375226786598	8.35424039638804	7.934942702286752	4.7140407443237775	-0.8008010367202372	9.990968678998861	8.016995409751708	8.522210099638272	7.4584555437607625	10.696459743196671	10.787123652879878	12.926897969987232	8.846124626713534	7.912834147502483	3.716842641983062	12.522873846861787	7.828985194467111	10.85492608190791	11.149892778856064	10.2653941848978	3.6138329414679897	10.915861102200843	11.527856797677186	11.808034867038163	11.6633557978844	11.757493943093502	11.785970658109495	10.15602013884826	8.759138085185107	8.962490059158997
292	1.3727674449593883	-0.6607893092638268	-7.729942302261115	-2.614322894171564	7.654927234396311	6.282785876624063	5.34856127342245	2.4119176803728957	-2.2097628060816517	7.76773069327899	5.657487378141755	5.874354824493631	4.237866390972779	8.877368904588751	8.784093834633818	10.150758717657931	5.803674206385949	6.699298364891318	1.6973336892189779	10.481817219019353	5.21663235300969	8.021013239636584	7.547372322100722	7.9556965627079865	1.7297214225966793	8.473047235077338	8.764602639004318	8.044976214124423	9.714506124765222	9.716314291264563	9.620634054689726	8.255283334870304	7.539158802071411	7.777599315080246
296	-1.5490716656675223	-1.9291192244461537	-8.605727174012374	-3.353403559801292	4.46070002383303	3.5820426850480085	1.8868521404311636	0.3839708258948094	-2.9305736944595333	4.585608470783291	2.6130614214727226	2.6772854260560557	0.47736930726643806	5.20827864285622	6.086730941663731	6.6716041396499595	2.2545447292626557	4.804417121201312	-0.8079863766297692	7.641417960901366	1.9546140383008528	4.613179672038144	3.123449794512729	4.920807349178939	-1.316348191752529	5.464385018857563	5.627253041365061	3.757665147830923	6.755187494388883	7.221685391312896	7.14537380321821	5.883139595437028	6.454553587829795	6.510037882581068
300	-3.449135771626242	-1.8024615003854405	-8.189404466933604	-3.084911100228316	1.497614379916397	1.1931198805249543	-1.089290139309133	-0.6202238782482332	-2.66337584776781	1.626056905455758	0.008265657329552173	0.15655800660660585	-2.2141189519294184	1.4461581670488748	3.775005092626621	3.815605630777899	-0.36107242016229335	3.248347989464115	-2.8148960996130414	5.19305084824745	-0.6607397778041435	2.086486811138377	-0.08508262761807657	2.5202495988158145	-4.118823517890765	3.1407706658221475	3.5230924994210864	0.8906542040272543	4.145339001680021	5.360504136856653	5.462399945772975	4.197866906057899	6.016232475350024	5.770173535083812
304	-3.828247299065684	-0.2710579626869213	-6.745244485991135	-1.9488820980458543	-0.08863688982996246	-0.04036582623661567	-2.4695148405668323	-0.2775600247527958	-1.5536487063282687	0.03559492891980742	-1.2007942169389891	-0.7646944503550988	-2.6240780287294543	-0.5837027415797286	2.7998342443349067	2.6607096128044487	-0.9469311809473939	3.062343112843278	-3.426376334122669	4.199245919115941	-1.5752361973092268	1.5537401398531232	-0.6002285465344953	1.9319181393484497	-5.3120155200357155	2.4961697992245107	3.4204249295661615	0.7558496575345647	3.1671998420859864	5.000988470802673	5.375286088723629	4.140290249861714	6.524774058080973	6.013298973160165
308	-2.918273679994738	1.8253254844356857	-5.080613600301346	-0.4252763975850328	0.31757238427091494	0.3035275332416928	-1.8494585705792843	1.208588835525877	-0.08294469097176765	0.43354260812019285	-0.6216992720166334	0.16124777455149905	-0.4924911844217099	0.03960315500631772	3.549851646997569	3.5719659238277224	0.7646977882151977	4.674108016610877	-2.299708122169259	5.08886335995459	-0.4547299433194618	3.2751090443892257	1.7912714436128503	3.558679810122253	-4.257360924462379	3.8013903998720164	5.401689992618147	3.431113234440299	4.376924980556993	6.367752059118284	7.002516252004184	5.935275539671852	7.899869422040831	7.294613819778672
312	-1.4437886440064565	3.2478251375214655	-4.1236991778210825	0.9119683481079627	2.5378005440534848	2.0665001817027546	0.36405607966060444	3.2268314280102603	1.18001568019488	2.645408623692079	1.4318153822034951	2.4487605033084408	3.3560240183975814	2.84279202697181	5.683803543999385	6.07051180260556	4.1005048648303255	7.537833194774953	0.10228299323722459	7.453347664134987	2.1745281164580863	6.544420225786498	5.936767563136103	6.785505277668051	-1.385904785471874	6.478922827575397	8.636217095505218	7.731479148418124	7.294778805434993	8.917345978157252	9.709192251487623	8.922373749140652	9.682077383392018	9.205124831800799
316	-0.15397322139012462	3.052602044981519	-4.430397499342886	1.638725634252203	5.669332489958772	4.5687346343085595	3.197560302290706	5.028513895690454	1.8242233945565711	5.770570740435592	4.095572938115483	5.131498323836205	7.371707420810836	6.245364173379921	8.286678293287133	9.07745072933994	7.750820617180326	10.287244770780134	2.665444605773451	10.234071705728836	5.1808628905145495	10.020729039641498	9.890689824881925	10.226455662657244	1.99009155724662	9.37612817304386	11.779290169539935	11.772691696961381	10.609736415778908	11.580813378659206	12.393329589071179	11.829944580727965	11.214294405280379	11.030872317120428
320	0.5756856784591006	1.1328456373223348	-5.896815761936923	1.599722142949005	8.45990560303044	6.860447866284991	5.5592465260338315	6.0235204544576	1.7136304335244512	8.556575753543207	6.325643523457996	7.188528519600954	9.969059918983374	8.46189973602101	10.273817990113349	11.40016362173005	10.341011974929053	11.402736635029218	4.139587868729453	12.204111068430745	7.34413669639314	12.339634864170124	11.88727661946261	12.322519271256793	4.302010048495158	11.297238321391767	13.598093952179344	13.857539141953994	12.79719063388893	13.254698719892037	13.990100825274094	13.368914570433747	11.92561241953672	12.068820922898297
324	0.8560008385027156	-1.6861512618408998	-7.814684848128704	0.8879013039106085	9.831396078083385	8.078985193835921	6.67285297616414	5.98080061356204	0.9611436700396235	9.924045537688334	7.321454506509001	7.948988894420478	10.230003331105317	8.487419106989295	10.864669772374032	12.233633010494882	10.999962778929424	10.077250455209244	3.778836002345953	12.526568381154217	7.889686087715956	12.708680120806733	11.21044060737751	12.054356544577882	4.485948551296139	11.539646119546834	13.51957317753628	13.249674763605892	12.85507961842295	13.305863346838054	13.951248133721798	12.862922635981274	11.586867303204468	11.949119537702467
328	1.0723012658702753	-4.035554398838304	-9.2196292644424	-0.24222324727414912	9.330145812320112	7.785173396482022	6.327888949630306	5.07999323516009	-0.1651795949341808	9.418779349388814	6.8298415965258386	7.317126255634919	8.303695657746122	6.612611277097486	9.913028692013024	11.461505860955057	9.691710447637718	6.812228662457758	1.7821187928028286	11.129042597329114	6.7995948619830635	11.22284314183106	8.53054330579399	9.451858496644164	2.5052432950664705	10.186527226478757	11.853135079021465	10.483586284871821	10.795961352747701	11.851602524398869	12.477028815239253	10.59438607402079	10.415434811044863	10.809073420890865
332	1.528163190798131	-4.679650294886679	-9.34363553549162	-1.4446811639550698	7.321726780525648	6.150207027166312	4.883098589966283	3.8261380099016975	-1.3168899979721695	7.4073700717828075	5.217324720561652	5.7562699172600285	5.325421796704749	4.1933784378990655	7.961239794658103	9.64674470373269	7.180369359007541	3.3401901637622653	-0.7625246028721737	8.731442429432278	4.7748417733755915	8.770872093944543	5.5441131451821475	5.638259873460075	-0.6218373759782293	8.032073000656023	9.599859213433584	7.075810891406535	7.655620555622588	9.687273954728996	10.396524403072588	7.690587501182498	8.973200775379514	9.228178954667396
336	2.174895281068976	-3.141286842044599	-7.9605927266360546	-2.3405594766651183	4.824535357692266	3.894145240488663	3.042049400278548	2.8475274967779693	-2.1248524135347995	4.9100880498895965	3.2788283742138193	4.046851147924773	2.8705298828130337	2.7996280122645043	5.982387050783376	7.728015403309682	4.652478683169392	1.8046631767485952	-2.429557794158925	6.501582606113158	2.8721752094232595	6.582910044262318	4.068946828105803	2.3405659139667376	-3.3259367858838225	6.176969035765737	7.9443621434861145	4.763036239042605	4.988269316476876	7.892279605012875	8.753743149590818	5.578784451704718	7.904489497254996	7.9526824750385945
340	2.6218113833036583	0.04592473420826804	-5.499937997283425	-2.597904675600345	3.0427515429922294	1.9826778123388853	1.5314030608613622	2.6488284997820775	-2.277131074878238	3.1321744839743437	1.871240968748166	2.938366405697793	2.1935722772529003	3.2729229844429626	4.925388323746231	6.574699385255949	3.180302373486011	3.58056305934984	-2.229124302004448	5.499728188934346	1.9967424819124453	5.648130879447116	5.074853407444795	1.0897898646496682	-4.273583401380649	5.495876775217263	7.686223487521642	4.652739989931428	4.09151028553785	7.308504562999215	8.306575754174396	5.270301328704266	7.639457206511786	7.545104961419192
344	2.4293947158512315	3.5593256860514084	-2.8844666408192285	-2.0485956617131693	2.7931733060887844	1.1928046911641779	0.8138713220075199	3.404484024989099	-1.6313990313349098	2.8892548011312362	1.525800581894489	2.8367102074528634	3.61532186549072	5.241387830852461	5.260871873924606	6.599055273561155	3.2647359288758646	8.393441179064945	-0.1903775925598091	6.165148719480882	2.4846918520183823	6.274953826320351	8.178502062175975	2.479508393703222	-3.0478336734115272	6.228976233968171	8.881785370336878	6.713046533801919	5.347797380296938	8.140430429886843	9.17873666353246	6.838375074287497	8.199128130239133	8.123648622983412
348	1.4540891610626645	5.8841223568176035	-1.1535080642187145	-0.8162040689842047	4.112470616448064	1.7498067573238008	0.942878601554702	4.865180480117723	-0.3361519268608774	4.21471547016331	2.2203161660403588	3.6547865775340256	6.364176257277947	7.364833813192692	6.761626703357001	7.603498439665317	4.6582660557438915	14.251244509001976	2.6033422881201855	8.113012293359386	3.9766464132997767	7.9956574238131495	11.849605530385356	5.83667705969618	-0.3543158164615482	7.896879653066446	10.859721156358695	9.833607648817546	8.031068781603384	9.877065633632142	10.831530543636902	9.374261832411365	9.203658080705868	9.324418044390237
352	0.030339481232456455	6.0064115372644675	-1.0453026268316898	0.6482177360381207	6.245606406655676	3.2222115912146734	1.6134109456335601	6.4406962232102405	1.1402572364628631	6.349857791127574	3.421116581862389	4.891960131691957	8.959148384362747	8.170728662842572	8.628676392704433	8.927112556806911	6.539710982023974	18.33279414316727	4.594230163418994	10.343708012214726	5.637352452350306	9.851118062896873	14.226829492889301	9.535793280367796	2.359436982873561	9.576258635185065	12.593561140689665	12.421059577099312	10.690895053574492	11.57413098274102	12.363983123080818	11.462816209462492	10.079484914126942	10.502265903660108
356	-1.1580038041441925	3.8736605546425547	-2.678587429913242	1.703571315278974	8.026604632139556	4.73643158670499	2.3536927640617695	7.4402961543107615	2.152722830105669	8.12706182335321	4.3670301327121015	5.88885353508935	9.962083791376477	6.959907514166204	9.897858594700251	9.801013921788021	7.93998191736192	18.42432780382484	4.613996017250926	11.753631562121807	6.594761354962377	10.890851946990546	14.101171457928238	11.804371803998096	3.6668426897930155	10.382075283541198	13.224440541257493	13.207499470743624	11.912282913649962	12.341567008330285	12.974621740008342	11.924762695722947	10.351222965809034	11.057002993323986
360	-1.460234876760649	0.4061582674262396	-5.50311373274904	1.797520394555325	8.477011659200631	5.417765603692062	2.767359249757474	7.377796631305715	2.160617346076948	8.569691636383627	4.45973538226442	6.142934783684916	8.716653801845103	4.223319996661361	9.932837461189086	9.736614202712333	8.208170870084466	14.126679384804754	2.5251901085994835	11.695668190991295	6.376405223006349	10.63312050995815	11.53281876513292	11.591463059723626	2.907479755690325	9.909901593937423	12.469102828015611	11.853319138164066	11.050696345085514	11.785910576627714	12.348291365918287	10.433813068749927	9.870803808086428	10.718945476172127
364	-0.6551271660476841	-2.932713501201567	-8.506292321663325	0.7812962512317623	7.321703892342112	4.848681437648393	2.7295789649712687	6.202789290980087	1.040662405247641	7.4073471835992715	3.5742511659026412	5.545906052892464	5.7062706803257175	1.357510086446884	8.75877378159716	8.763286568451	7.2963423544727934	7.177128773688573	-0.6971812230627846	10.304788563460448	5.131551729597788	9.268345809424384	7.7733979028899265	9.084530807447065	0.5238226042873688	8.422940232945546	10.722519847500994	9.042801834163749	8.561845757802363	10.190657589932684	10.782615634397606	7.68774126019237	8.874047256953094	9.65758511965991
368	0.8921614266758842	-4.78322743161858	-10.593483898119747	-0.9359060502264809	5.149108396881343	3.299217692628528	2.432968848761519	4.359489906748473	-0.7651454787009754	5.233700739044477	2.1298649257291755	4.432026851908352	2.347301715646509	-0.12168277769361212	7.058618050873771	7.404450874707658	5.746661648546494	0.6855542046404494	-3.475633135603532	8.419565179548306	3.5389861971196064	7.526823978494154	4.595712650140105	5.603975758708987	-2.1857328359732544	6.702360613113567	8.831463791484436	6.080135806945275	5.756807312735966	8.356898286701153	9.015844322329954	5.041290747312248	7.85138461991715	8.379964807333833
372	2.412807458507856	-4.468650806588835	-11.028526278307991	-2.528381102854122	3.1062977235568883	1.5847159584089499	2.253965133698323	2.6068582468973194	-2.401534789697816	3.198719016582214	0.8685173370367882	3.399197569848027	0.2902728609862629	0.588775871697688	5.816258892633473	6.396865828576029	4.385710705174703	-2.40464233744998	-4.465954769303162	7.131562691802885	2.441906922850891	6.277785285358612	3.363947859854016	2.9124424384017944	-3.7673880958807153	5.633409485899079	7.650569896455652	4.1982879532675295	4.108493794558691	7.181807023035893	7.838849524733954	3.792791833838428	7.291397553154711	7.463631134262832
376	3.16103219187878	-2.248986715360673	-9.709803556722896	-3.134844533634961	2.301669353395997	0.6401218755772986	2.5316619809128555	1.6837165313172617	-2.9918751641076184	2.409641975041117	0.4719136643415983	3.009181968720905	0.6024865492868205	3.191791049528172	5.805494293814216	6.315619929580715	3.9059810539811193	-0.7795248011935102	-3.2321791567260068	7.2156939324352	2.420729154197084	6.097844108444756	4.374634731691925	2.3215429724254104	-3.370851031375894	5.762654289955091	7.6376099393655705	3.974622716405472	4.494252193548124	7.214323979283141	7.716225604602876	4.519999969514611	7.4475259592851835	7.283417683332329
380	2.81943463567336	0.8551805593833877	-7.178317051883816	-2.3139841498126588	3.2207426943525372	1.0214904520947516	3.352693072437363	1.9691330144757437	-2.1008303112394926	3.3472444926629117	1.2036751478322893	3.5037197978251005	3.230390778968681	6.533668024733322	7.180716973294993	7.283506375043531	4.531844604494472	4.615436542302221	-0.39321866532229705	8.731441475757963	3.5127003104214456	7.012804013666442	6.812775594676837	4.072650422304216	-1.1670757502653921	7.04293106208281	8.677028634098468	5.148652540559252	6.771118623804227	8.405781724688087	8.597295739402313	6.80945394704118	8.234517076682987	7.858751277155631
384	1.6443945127931883	3.570330372379215	-4.369126308854271	-0.3089958719558376	5.4722008566979365	2.6089110308582013	4.468287933512358	3.3035423672239324	0.0024792163104554632	5.614224896561529	2.768466227217448	4.6802515865416545	7.0108537496943155	9.280216193610721	9.391653990875755	8.912233330159907	5.934851154602123	11.100374193776007	2.794398539163694	11.005375834335679	5.214465128131128	8.526618935991888	9.276964164199986	7.298372250250139	1.7847069456817313	8.884427048186653	10.191730473535932	6.873831254770488	9.8921937692751	10.169525120808792	9.987100575981284	9.511843657320352	9.295245147125023	8.878602959151065
388	0.3014927796858101	4.948982226274552	-2.1914102975830656	2.0652253575635173	8.014876345426003	4.688843238436467	5.4068961006982645	5.092193590659072	2.4678676066079785	8.165000894912698	4.477443683763901	6.008576377957245	10.260271046483002	10.618883106124468	11.477944345105449	10.514726612246813	7.446803550992329	15.700709303316062	5.151631819116183	13.010352101856608	6.768739683227958	9.923811887481405	10.598448726598424	10.574348423009369	4.143718232183381	10.485617611160638	11.484065980527005	8.258376100670601	12.497157065310505	11.715320557579862	11.236246080639996	11.382277459971007	10.199705098149588	9.88558003790752
392	-0.5297233448959451	4.7456383585323305	-1.1682804793425505	3.8335671328077456	9.72791478562004	6.349598391714166	5.7175068710932475	6.602964384574235	4.29085301269569	9.877679799890357	5.614643082748217	6.9081892792809105	11.604718179013892	10.554591152246262	12.579211203286931	11.458115548768793	8.420253732403012	16.630651432010666	6.120803817554268	13.92057892145792	7.5599317359789255	10.64338109190246	10.432364437466964	12.690627066042742	5.0098729007118825	11.244374246818204	12.087047546387435	8.833953835118285	13.626114810873245	12.455730406784726	11.866476982674303	11.732415169658283	10.655137988845432	10.501763317296632
396	-0.5288498388289671	3.422898045480938	-1.3064066138662522	4.353257168269336	10.006837819583795	6.972982389011123	5.22568510643532	7.316083889609718	4.817321288344025	10.15007397950048	5.808665260908261	7.045221787785034	10.628639194356673	9.707608198452071	12.379869429803405	11.473173112512514	8.54873655068214	14.072063410516376	5.860812649234853	13.532611812757267	7.407226066961393	10.528592083098037	9.310832000113015	13.202168431328374	4.353077877498304	11.030303927229285	11.9453544315108	8.695910431841323	13.15721794621237	12.267200438999	11.763708084923515	10.731799098576198	10.622477504613927	10.582464191421495
400	0.1382934298600025	1.8298555566364676	-2.2390887680742613	3.608483066985037	9.041698432982452	6.5369105174009166	4.151006211290957	7.1408085642770995	4.041848172473537	9.176242805201355	5.199846254571845	6.486480696513835	8.022717455635698	8.80862710636143	11.23658844971872	10.755757304692468	7.98000047576308	9.880880330888136	4.950966822521983	12.317855803861342	6.60401390315679	9.839135145141482	8.191939333260212	12.48790451711609	2.9260828421149143	10.184390042341086	11.358261079721585	8.296612718616055	11.75184819115463	11.479407281503123	11.158799143274495	9.21485898552378	10.284153912328465	10.231545422471054
404	0.9838182901338954	0.7466905694229236	-3.503031006551815	2.160382980614283	7.659943561287943	5.583847031800579	3.032127849552865	6.401843531657944	2.5518815452996724	7.787186126121716	4.334221828961927	5.647014603662581	5.174642072964337	8.258305528771364	9.95004460683656	9.83209607502986	7.187706929179445	6.429029448489941	3.9488518138368702	11.113892527176935	5.714318261024394	9.053009964020788	7.812523345296027	11.351742715785406	1.7609111026174202	9.282349563051136	10.752634974988437	8.06111810556316	10.390141460888996	10.636528941956382	10.443773243285328	8.14390275806411	9.909275029913125	9.701930975260838
408	1.5317282638024357	0.5370338545591894	-4.756117808731703	0.795013127703936	6.831527692712988	4.880210864143495	2.4675016340899814	5.624706730946686	1.1622214287978507	6.9545359435926075	3.8454332254596713	5.057021128284495	3.4349009903969225	8.002079943480773	9.317293143590353	9.265761352033447	6.689609987535407	5.269023881960665	3.093000165759651	10.642748805832278	5.250819192980749	8.585287072440444	8.246692636649806	10.464030239388968	1.5593132933348408	8.806343056379403	10.431643459685581	8.090868929462657	9.788443540655209	10.178968403866005	9.943715070414552	8.048674563114108	9.699732755967071	9.248277640834914
412	1.5935267169774032	1.058611509511406	-5.866518482655506	0.08224137851693553	7.115951520119887	4.964947687965201	2.8052337098821876	5.236958490501095	0.4596178520042493	7.237487297858693	4.0989885226710685	5.0719447007871	3.4431333454939357	7.738293151391643	9.705213522249622	9.361137366502119	6.764953119364227	6.365831359049891	2.3503382146622798	11.120902987059138	5.407599912341996	8.575963952346795	8.903777100017683	10.000784848712847	2.320604080063279	8.901272751269122	10.430542919527227	8.121960619447634	10.030729268498085	10.21882722181957	9.763196920540727	8.760923363500911	9.693808531128514	9.006154037625416
416	1.3234820332491053	1.8409225894225518	-6.821726304950869	0.10605183216976012	8.362796762333234	5.844777092482126	3.9417207141539468	5.353909002138197	0.5260834680626361	8.484321572817429	4.992902743131437	5.680131421053334	4.855429637094246	7.273519020790182	10.874489756785275	10.016352628214559	7.319232445357384	8.300387361550861	1.6915304618090081	12.173987357874477	5.984684929042955	8.849366165706815	8.948284126577676	9.672562574761256	3.4067780885514223	9.337230658798806	10.54109570702887	7.745288352484821	10.60718438331465	10.521445247788932	9.774026846050493	9.576882338186419	9.766942953246113	8.947703338920451
420	1.0366666290812767	2.406421893719901	-7.55396888733065	0.5118321167421109	9.83266160389806	7.01229904311718	5.342467771393157	5.76366184686783	0.9899204944413038	9.954482053419595	6.027443870585389	6.5141181781335105	6.611087782380873	6.732553465057601	12.147211997834656	10.803000422859323	7.969143370535365	9.270898795562957	1.3208805289298067	13.096472707107925	6.537490828220985	9.058119750995193	7.8836121360100995	9.083784080459205	3.9850094217778076	9.687614416459093	10.47983453012055	6.742575151586253	10.81115433824401	10.691864940351827	9.739581083503182	9.737739538402852	9.726585363626326	8.93240735659823
424	0.9185809469872941	2.508455746993174	-7.89028118048789	0.7878933529034913	10.631764385083645	7.744537810799705	6.279394610763484	6.069053634579456	1.3183757033440897	10.753766986399153	6.5761818719770595	7.035620671628855	7.529600601259362	6.4700436428749155	12.784146276622058	11.195699663506037	8.251016595989475	8.218564966432735	1.6174966056040188	13.263050045859721	6.627009851890235	8.879812218181215	5.873308643771175	8.111227968717895	3.5389830976780856	9.579128241195885	10.052228902232866	5.258533941343839	10.206025097828455	10.418034527224822	9.458341574630726	8.905714012549414	9.421859717423029	8.790760971762982
428	0.8614053704447894	2.1738431398820572	-7.666897754385619	0.593902288367942	10.202385876646236	7.508211593745004	6.170451625503871	5.909697517733257	1.1577826709126342	10.324626896540245	6.21223734240887	6.802397710791905	6.918865663226123	6.774561864914919	12.361489264749713	10.834075900380963	7.849936465471343	5.448930249762061	2.8061575818738733	12.461050955782524	6.040054306039392	8.171029070251482	3.6350870040669165	7.038463097921728	2.1545598452530084	8.880557991494761	9.237100577874852	3.719680538322943	8.884175278167758	9.638358091815387	8.857431389380299	7.360546570314112	8.816913582475761	8.405529000994877
432	0.5375498519677072	1.59375762537068	-6.924479943912632	-0.07056663912599744	8.60470769617071	6.245820506539169	4.853088366653379	5.148685919160242	0.508726774361798	8.727448441405253	4.920813071224823	5.685380921314739	4.9038772459196815	7.597570400129502	10.95431325054126	9.690186476083948	6.739099485548886	2.4181141792281005	4.616232383517253	10.971790286019596	4.8749036665860945	7.016332608628236	2.0078272768826277	6.3668722945636205	0.4332016993552607	7.744255523202761	8.169942835207838	2.5777394706494263	7.384627323579729	8.555200555182422	8.00584791069538	5.8170280309677125	8.00248048669265	7.761933783961351
436	-0.33910065803743833	0.9605756973809929	-6.030759796175162	-0.9223786569195698	6.457700236228833	4.401790130945875	2.679637663751533	3.9358217616847093	-0.3324400476168616	6.5809879136824545	3.10273956469136	3.9419925113334364	2.3119244517130006	8.513423898183405	9.056537605308268	8.073595980287516	5.178109155932879	0.8287743905123737	6.211337550693613	9.377021765876076	3.470240822613606	5.671915516838237	1.4627871476434875	6.4413952664824015	-0.889008937021673	6.501610739505421	7.061121445948017	2.0507361837109386	6.343435748297108	7.507030944944274	7.063171845723113	4.987355219646908	7.152231198373016	6.953984243001959
440	-1.7228808359516576	0.3775365343098734	-5.5567459919825275	-1.5798151453186011	4.617307174469129	2.715119831859581	0.4101855446472882	2.6556692056363884	-0.9688375567770954	4.740626323175112	1.405865904119597	2.140072578749058	0.24667055842586935	8.990316368292843	7.330405216783033	6.51103876377361	3.620414486327472	1.6226369101564704	6.566424830070541	8.256772020474456	2.260554784789474	4.479146469251545	1.898722286198924	7.200649720131874	-1.3374748196212476	5.514409051324037	6.134625896224205	2.0582926221379054	6.138038142919691	6.809999448748787	6.229038699635738	5.183788763309897	6.467199786070572	6.169138892810652
444	-3.146284095449951	-0.12051700025171595	-5.956778988103889	-1.7775973036708728	3.771020402924157	1.875606412920494	-1.0913593741519312	1.7732237532668758	-1.1287209959142914	3.893371333782853	0.4529554534443338	0.9395741200566974	-0.43271189818805555	8.748056389656444	6.319049819251011	5.54123018773093	2.5545105869647875	4.439169395683044	5.070016848161352	7.93343494319632	1.6151672560920776	3.767612686181662	2.7884986330201427	8.203465441019198	-0.9060125924123977	5.044068800588925	5.593587861243759	2.3580944478580292	6.7126231024065035	6.6383542846924035	5.701321110636066	6.171125396406711	6.1213903272573775	5.64115427500306
448	-3.9078905483763227	-0.45901015284997615	-7.233270150042192	-1.4601501189559924	4.162630070667127	2.231754535762456	-1.2032444446702297	1.6598752695137466	-0.7631156425282742	4.28298090807079	0.6026120766684007	0.8370280244675179	0.5336266146538514	7.968682269004546	6.265227778829037	5.519267545116703	2.34890961053991	7.847279051995386	2.0240492769637415	8.386740663334793	1.7290104583955934	3.774798383719062	3.576854696779857	8.915581680676356	0.02332505577874112	5.191523538833581	5.602215752762503	2.7730061937892376	7.670021991438278	6.993316632734198	5.642386422216746	7.344270687634257	6.220686896830896	5.576848016010144
452	-3.4567737492070556	-0.4669061589373709	-8.828108765247789	-0.7346710544157332	5.561089978482791	3.6807832624964663	0.21983475927639912	2.4541127619771785	0.00455780233037107	5.678804383245405	1.8399065686502758	1.977340574040593	2.759771578496724	7.223184090497344	7.090112668256413	6.503329737456403	3.145979634925207	10.144121144432502	-1.3302411999495694	9.355442977173235	2.590661757604105	4.588169086316377	4.050899972224853	9.058461166399603	0.9715865229871959	5.909009441715707	6.255956633985501	3.3340172683463316	8.552619912488742	7.750675181847442	6.140509589904418	8.108081797156014	6.771677953789387	6.073666557236267
456	-1.7745268300076655	0.04941034677070718	-9.876337026456248	0.20562884159623931	7.418261509285827	5.730910763576495	2.768671982450693	3.970159282197381	0.9646658276997984	7.5332717705310985	3.7878208064767107	4.062968720668504	5.424245343818525	7.120293122434365	8.469623544290084	8.220441797482684	4.782032954540297	10.258065197794723	-3.3745114718115983	10.491286251283045	3.980311622107051	6.071334346701383	4.379499901204788	8.756938912217027	1.6250587660768696	7.015196305683108	7.492167930760608	4.179886807378929	9.086071945138487	8.707652069995273	7.135069829092614	8.193939188296667	7.6472220227763605	7.038026315085916
460	0.5285277949340588	1.1412212819850263	-9.692783331240966	1.1464207143449459	9.107380844010468	7.703511695485806	5.611566529411258	5.727656826817133	1.8959597301298488	9.22015855368667	5.838159546417291	6.426896079049526	7.634947757518043	7.927554110539049	9.951933835652591	10.138983700902992	6.791863424319478	8.281316736293833	-2.9424586221791604	11.478237123119847	5.509964929020804	7.84032962726928	4.870814787964826	8.400484063873824	1.928188438315691	8.218478182070161	9.020525909537373	5.325429902936418	9.259470916258314	9.619262671026195	8.369029023975214	7.748971442685484	8.5862922451674	8.168610552191183
464	2.4952754911365584	2.606192105388992	-8.204970339086687	1.8882296037684452	10.143671963830608	8.99323270434505	7.801578502031424	7.117238026769471	2.6052768164661315	10.255210850572926	7.366787415024917	8.269630411250096	8.777276970637358	9.375304198436567	11.097011538144848	11.648609131967042	8.537856080433732	5.358654008687496	0.003885403731341393	12.098120658847272	6.727083189192506	9.350172972914079	5.642074093878912	8.324722269021159	1.9992411086151212	9.176546073633206	10.360242817470832	6.489280207462578	9.232954001957587	10.243353817826982	9.435934042949018	7.180527668943665	9.267442679849026	9.051055885351406
468	3.3238689815524953	4.015353669519189	-6.061824783279348	2.255476707486011	10.302140209890474	9.269445395908424	8.625637986340033	7.63838861444295	2.9324717447629687	10.414154026441164	7.942981223079445	8.96211621882791	8.692339875209713	10.777166339367419	11.589700669591357	12.275303809645044	9.420221304951578	3.0353858394280624	4.271384228412569	12.236290900807996	7.250967007449904	10.074533437088663	6.4200296239887376	8.549704530110848	1.9531236837666517	9.583359694127097	10.993456812759327	7.12655637849155	9.155595756303288	10.389530155653723	9.916195844409813	6.861956579049736	9.42346761231643	9.32300183803395
472	2.8272023129608774	4.886126505913228	-4.303737629514966	2.1517593806299518	9.65227124638231	8.592589356662732	7.885873774645747	7.145457249720685	2.79620432147725	9.767413114682913	7.496003132014353	8.323318460430954	7.68094490019366	11.410788507262305	11.339278192501446	11.883573502101353	9.13750264721811	2.4668831762973533	8.007382372666603	11.895946472651168	6.934776288643716	9.751856779272972	6.679510576550164	8.781301476242431	1.801076407653647	9.300432181718861	10.619838687787094	6.731995565583912	9.06152722931911	10.00379559852214	9.587238287562128	6.920822602918449	8.979320503452442	8.863547302755972
476	1.5453830918395548	4.944768893155307	-3.7643468284933745	1.645831223147227	8.524018266137615	7.397359352508766	5.988414272447846	5.966652378276716	2.2723624648896674	8.645644166099093	6.362280829578875	6.73135374277059	6.345780356598073	10.925468417240063	10.532854053607295	10.763309451585021	7.866137961554705	3.8861818215481976	9.629885649209825	11.224894495280472	5.967907413673937	8.559283234920649	6.027103408855292	8.649191834547167	1.4859398565922957	8.46054933319239	9.362237906660473	5.218094812570206	8.897716499752223	9.237915015739006	8.582957246091347	7.220179539571092	8.133079508274541	7.896561602682727
480	0.4241967786569419	4.292100895535557	-4.573863017932086	1.0090848181996812	7.422456245755949	6.334860308865634	3.7839169406723583	4.796701419163907	1.6294134814131649	7.553505878451204	5.1709670889953445	4.987801062388702	5.329660402193315	9.535181975132522	9.604698156902812	9.535687422518942	6.234701617712261	6.576686365689164	8.617057778536989	10.526929828768736	4.840037810503468	7.087986451373354	4.55304907602907	8.03159711717334	1.0124835942454824	7.464199524153975	7.77744291249275	3.103676788123442	8.64652822218817	8.440408685355056	7.386237602658916	7.522655944904825	7.306593399673963	6.922938329384054
484	0.2418611937615363	3.3641021166743053	-6.056781753506924	0.6434974058116961	6.887145025031064	6.020391449033371	2.2209627572252497	4.386765945803143	1.259981986679386	7.028368932145211	4.594243991696548	3.9752166170845147	5.071926580975134	7.909739474353558	9.091743446283836	8.895655609559672	5.07547234207458	9.311914420459402	5.708131775749486	10.193384144796406	4.150988091478991	6.100642665719184	2.920757524745547	7.2025103387184854	0.5454472289619284	6.8344917124808955	6.634484274326198	1.3591576780336057	8.422384240820485	8.03797052261379	6.631111605114742	7.697803954716525	6.969367963361068	6.496884806442401
488	1.1093430491095784	2.6909718445548263	-7.121922951836988	0.8857949949788536	7.29964492862217	6.760360700705167	1.9386603783298404	5.144589411144461	1.49305808167198	7.448086719781815	5.040986048368925	4.236802567275514	5.640989289346738	6.827136022497025	9.397463774796634	9.28189942877493	5.0242857806193415	10.956704112046454	2.452500813967943	10.538523647404016	4.324171532203854	6.149586185187899	2.058691734838314	6.699953539145034	0.37238603736319087	6.966691476398832	6.530069811546606	0.9137957669075176	8.452658631918366	8.332412698689243	6.780614835785866	7.826571921615538	7.400609951408029	6.937934381134522
492	2.3501114785941266	2.572469227971692	-6.955173474871516	1.753850694043022	8.681189515130443	8.36245725427745	2.9732098504340407	6.835352403549279	2.3451507032312855	8.830070473311684	6.420840723992793	5.672269330008731	6.68343923788668	6.755251867405078	10.551223728243533	10.621602985267991	6.1495275342175875	10.932371111924784	0.33402860080308217	11.590147942844624	5.350756631693275	7.237493496741734	2.5815868312506747	6.947387200934875	0.7072300297047418	7.880010584963284	7.527458171912964	2.076571220877157	8.906122185155805	9.296574569118738	7.837576846361923	8.101395586540571	8.504565217480673	8.124396303645586
496	2.892797939626319	2.904343120871584	-5.570437894108604	2.84198164222349	10.59424302287369	10.157750104053854	4.747559058600724	8.618188836273392	3.4146582994079915	10.734881373959041	8.129958132244825	7.548400859848369	7.5740070151792285	7.618958930806702	12.114504783561765	12.313831298256268	7.854207019049428	9.398900008313516	0.0027766514033755953	12.977054563183353	6.7334284612406945	8.754648186514801	4.365744579736832	7.8996019163957545	1.476419325915649	9.137699104126794	9.065571762084776	4.2757363211445005	9.698085760426796	10.50997254579153	9.281325316837902	8.609942414480246	9.798294042644498	9.500605559204194
500	1.9402199934610955	3.2450451768961597	-3.8567056558511332	3.4652769478092442	12.24051853904195	11.25430771847281	6.342555030068131	9.416785216398242	4.021344174722571	12.365741698515832	9.290623641399387	8.829541184067415	7.685074309973273	8.833035446753906	13.322918858269603	13.48163315230248	9.119777656418135	7.061431866937223	1.0363142464222543	14.020349467165497	7.68497322049599	9.740043615545472	6.498720629496849	8.976881004557233	2.2511081638721624	10.005274747383153	10.19655988026202	6.264765246786748	10.426433536908208	11.299110384070145	10.280323956283446	9.171289420814446	10.60234543984542	10.313948605246404
504	-0.4700005042607505	3.0797388475863454	-3.1025562208044937	3.0066213531878194	12.765993086055099	10.945027323745856	6.940724355340125	8.464048364250448	3.5479884058065947	12.873417821806827	9.163197494260169	8.691041924468362	6.672503931365217	9.591018652542818	13.431952442589045	13.395479168450175	9.009134269856661	4.768082606675128	2.3127937258502103	14.028248751508347	7.51084850322321	9.367683386993404	7.692549209246393	9.357689833857014	2.4105694233114803	9.799724554115496	10.064150784832162	6.749482137805387	10.517423603206801	11.046040507084573	10.10316369366921	9.35871694109319	10.364401791154178	9.984748815122964
508	-3.36266326055306	2.1461353247817243	-4.24207257153467	1.309774633915427	11.659466714031915	9.084770179699879	6.229523166187249	5.756383881340551	1.8324464513290228	11.752845734487073	7.537048797651689	6.961734277314668	4.674436080574893	9.26375577495111	12.104272811846876	11.860334366417838	7.18019626711955	3.1423034588633216	2.7317483356170364	12.662870375133817	5.986226543571534	7.412052135827383	6.978384953999924	8.465509393299495	1.4758503399780598	8.258871057639565	8.376645067046805	5.107950674512112	9.5317945239692	9.517378783038799	8.515179612595476	8.729361512079134	8.948196388540788	8.413242318846496
512	-5.295907007197968	0.632801054310534	-7.24712369996449	-1.1285363407252436	9.072432495099681	6.24017284725167	4.551825035047053	2.1520106738116906	-0.6345279200746068	9.160069442510254	4.899477946309206	4.253845204103824	2.3015284480161036	7.723583678772531	9.64762494512451	9.366507506564243	4.129661549632201	2.3877026974475823	1.8524078083953244	10.191244099635792	3.5285093695245977	4.430973518628541	4.275600422554756	6.370860083707605	-0.5573866353267428	5.737532124338586	5.608996853972189	1.781273360523469	7.477202396588187	7.044335347510173	5.945582374820391	7.147239190176391	6.740891916422046	6.063639625498887
516	-5.152844416006432	-0.8870623089328683	-11.05077454637926	-3.329920045074816	5.859457001197504	3.50378655502708	2.736062996632144	-0.9833154653518398	-2.8725914882613197	5.950269207236536	2.2704672756091737	1.699958320140391	0.38858064911009943	5.456942544511119	6.946228486643367	6.905315381735677	1.013865825954334	2.2788445892019147	0.10469186279567601	7.450191478992809	1.053548333369099	1.5505607088995417	0.5058056103333762	3.8531200788490776	-3.1016073148620653	3.104662648945538	2.814589493321091	-1.8887547206875905	4.923500048604514	4.43726633858946	3.3252859031645188	4.982921587761129	4.512032497458311	3.7739975357138817
520	-2.8072838712387056	-1.727314706256015	-14.05317398337901	-4.315091122223118	3.2670907891757053	2.020475382472032	1.6711916881329416	-2.4138169227692234	-3.888939370827124	3.3664600764156667	0.7536036353158091	0.409122018973246	-0.37285575176515745	3.3966247949674377	5.087008463413863	5.521271691687571	-0.8867256619000269	2.3603990018378065	-1.5163289270264348	5.5006594519019645	-0.43396121153939354	-0.05812529832350644	-2.8228154111164843	2.0452988096096765	-5.187050329463771	1.3675392831607596	1.125855681437883	-4.317999352043656	2.8117949891624967	2.649057858454594	1.6601543384598805	3.0323624534341085	3.0782658976083748	2.375884050092778
524	0.7185856085754552	-1.4349957668313906	-14.936354599435326	-3.642951956134462	2.383528941812368	2.436771386670009	1.8334329081975649	-1.6406857925953375	-3.2225797094998767	2.4912486013457	1.0069045995085915	0.9078597403493235	0.22425907793645528	2.520265572860574	4.849880683098246	5.810513004891632	-0.8045769909572248	2.2118318025058716	-2.084249968034894	5.129983412188418	-0.32280614890613846	0.2379937314938883	-4.377298344050923	1.831701154852633	-5.916745647750862	1.1956616609903388	1.1849762171391431	-4.5109152679994615	2.0237908312246478	2.3355064333123976	1.5429573020126104	2.156747335710742	2.925819628004251	2.3040156306270116
528	3.7367522622178293	-0.022796291800402737	-13.330911602695222	-1.6844097333342494	3.6071784405234872	4.564205158154224	3.0396602077034034	0.8472982623642565	-1.231018897763253	3.7186496163895106	2.910310976310008	2.874448053732096	1.774533744146442	3.3872477922750477	6.318319781563646	7.627789478117172	1.1202582092611584	1.6491782623614937	-1.285188910100547	6.4525708989309924	1.3028522696979798	2.2100570146075205	-3.6824955847272505	3.3433256064881136	-4.935458647664897	2.5927252704010195	2.819488995109258	-2.587586634778617	2.9252264425809438	3.538786163932245	2.868043415457861	2.817305796185937	3.986244191595857	3.4034001741312396
532	4.754243361867539	2.0335204549946386	-9.994849179782522	0.5316208587575788	6.4082045393323135	7.436600666344017	4.549802291827063	3.8159131907441632	1.0516976091534957	6.518073065513662	5.599962697195682	5.299512372942039	3.435041418939659	5.827741608211172	8.808940865210735	10.146438573015518	3.898803701093967	0.8056167939827062	0.4347228992930552	8.817984558730382	3.6900315191564665	4.869938361270261	-1.3508146967161687	5.836951717898612	-2.666471951428206	4.878767001232102	5.127285944391273	0.27686366368964305	5.11929987568585	5.6488156176045665	4.887235629140409	4.757639872936845	5.671149716364097	5.02071379347626
536	3.2437217153669087	3.981795062502476	-6.4225139455767035	1.8372161342011968	9.522366499701011	9.74552152080508	5.453695760309111	5.886905655303008	2.431158059657814	9.628251051435631	7.856089095308104	6.98230884696487	4.300806034673736	8.933194137907279	11.16080185933389	12.236826865772462	6.167244418785894	0.02886069372460289	2.151620144180108	11.087205858848316	5.75496815182142	6.937374097475049	1.2296673028417386	8.014485338957265	-0.17249353186449112	6.9906530203752	6.91361282510462	2.4472963748178747	7.562814693430142	7.664604644497611	6.567300779927948	7.0409269155119425	7.143660050475955	6.3194637139032865
