time	FP1	FPZ	FP2	F7	F3	FZ	F4	F8	FT7	FC3	FCZ	FC4	FT8	T7	C3	CZ	C4	T8	TP7	CP3	CPZ	CP4	TP8	P7	P3	PZ	P4	P8	PO3	POZ	PO4	O1	OZ	O2
-200	-1.8226606799837954	-1.5479464491862933	-1.2631092039642762	-1.3265072073823976	-1.6875520901988743	-1.9913419434815611	-1.6063952405426305	-1.3143786158755437	-0.6183333381300204	-1.1800307005653257	-1.918490166588773	-1.0321663592028074	-1.0291955445054128	-1.0832207175562683	-0.4719186115271022	-0.822750745126581	-0.9725367998364507	-0.770502863369151	-0.8419414141378826	-0.6241922958827146	-0.7393545489717797	-0.6618117077330777	-0.4884114253110691	-0.37554082179622006	-0.49232369537031395	-0.6684348566345077	-0.41962915553004626	-0.7114047390142699	-0.23242331982582334	0.10758506479518824	-0.18817949247533192	0.21261089986527817	0.3144780687498577	0.004691277618782818
-196	-1.9697967717982867	-1.8791499090434443	-1.3502252067808285	-1.1405720681957718	-1.6052604873182617	-1.9414980362511427	-1.5177495441264248	-1.154041764206686	-0.5684167132331597	-1.0762622329241787	-2.0252306410202072	-0.9794064735480493	-0.9457369422876893	-1.096328971002177	-0.37071823980194146	-1.0630284520966897	-0.9246948934096936	-0.5913541898102274	-0.5907707795486388	-0.5684702382040329	-0.9650370454265222	-0.6368220432415747	-0.2636645429630036	-0.24303989051015493	-0.47718581436796026	-0.8541021921528339	-0.41059026018429123	-0.31624290267255645	-0.1569858487457234	0.09323929226699668	-0.22834728600547163	0.27617746521839887	0.31154644410630417	-0.05708652347814478
-192	-1.7651038125296252	-1.651819701792691	-1.2468627659788662	-0.8043752292351695	-1.3622992004332057	-1.6470706421275572	-1.204177018940031	-0.8258107283723343	-0.438263087358229	-0.9333634949007164	-1.9317320536479308	-0.8514550306757527	-0.6977491361167707	-0.8764902927203938	-0.32809418357029296	-1.257080074951178	-0.8176829794266378	-0.35305157214673166	-0.2664772861428528	-0.5316372500348507	-1.1558611363792166	-0.6264918430723434	-0.09859833841464116	-0.10852549197691881	-0.4695446181363369	-1.0207464669205435	-0.44681212193213427	0.022259302381106114	-0.17275303558602678	-0.05660316333784942	-0.3509836784084376	0.14883667193028433	0.1351343985960438	-0.18642415059228964
-188	-1.2493408886837911	-0.9522314643660188	-0.9711757873810857	-0.4300455440154051	-1.0143979762215452	-1.1976332634252413	-0.7679986934345249	-0.42598172914720156	-0.2603102021797703	-0.7827213386800991	-1.6719285207497945	-0.6960288268636068	-0.34446033748443194	-0.49970412128170333	-0.35914614705962805	-1.3651399577960288	-0.6904287916871632	-0.06971030664725203	0.027249663999423256	-0.538114009929082	-1.2765504089550597	-0.6441817267366345	0.021141719019679466	-0.01542072087358254	-0.48356166359884156	-1.1397585840059312	-0.5199100958095456	0.25298893387817106	-0.2800061993682018	-0.3068353824021187	-0.5122724758565997	-0.1363877799643774	-0.1663713749022946	-0.3303637198213531
-184	-0.5955347403749288	-0.10893724086198765	-0.6431977732631667	-0.16878622727695022	-0.691339669866321	-0.7725173811481834	-0.3913299729480677	-0.0977439654385878	-0.15428943893102087	-0.6919668299370643	-1.3609926666230279	-0.5788190946270317	0.004781728132662395	-0.13661631907303043	-0.48579305287734176	-1.3762019837919646	-0.5934245571412734	0.24637620088838927	0.18577291024511797	-0.6125661119254041	-1.3140081134045554	-0.6811488849608675	0.14981465003812858	-0.00546880484109224	-0.5377843962443062	-1.1981148689538106	-0.5758656844858677	0.3810936202917984	-0.450280575807502	-0.5844195470359876	-0.6333124621614157	-0.4799167501730618	-0.4910012471200212	-0.4271821964922694
-180	-0.04136350367950846	0.46992576003639086	-0.423533408764589	-0.14589229189278102	-0.5394561873167455	-0.5607317671923816	-0.25358244712702355	0.025507980893225837	-0.25592592293974087	-0.7343162279662812	-1.144402739496525	-0.5560312853126171	0.22973264695816595	0.03480778625760066	-0.7213595491316536	-1.3100044694251005	-0.5687265977805646	0.5564161525029602	0.15759053786544305	-0.763262031535473	-1.2790471283091076	-0.7131503206367549	0.33049145257478424	-0.09296701079976954	-0.6386293752758909	-1.1990921467070805	-0.5426430688509052	0.447710691752177	-0.6300098284073944	-0.80227839744191	-0.6340787394727134	-0.7529818992677267	-0.7227240782610515	-0.43043160329864066
-176	0.21244767254597288	0.5069445954875135	-0.421972094900962	-0.39936625856658725	-0.6464555843244301	-0.6651138050452974	-0.437730281439927	-0.11329853506093356	-0.6150486453740314	-0.9439851617821634	-1.123483893418969	-0.6431168897604107	0.2542325847882697	-0.0682874320213469	-1.0478007766972086	-1.1998988359674339	-0.6261951907560452	0.7870865444338485	-0.0227482728085768	-0.9662563776416139	-1.1931463449871678	-0.7089077216369989	0.5556710348405042	-0.248241945474438	-0.7653866986977723	-1.1514718503490387	-0.36500054505700835	0.499990044761969	-0.7534840087940469	-0.88448142782061	-0.46497446181204477	-0.848206815962274	-0.7743542174815891	-0.3202871672173231
-172	0.09092108882360031	0.0027158916859304416	-0.6279031618477718	-0.8514217116794074	-0.9865411495096503	-1.0407075855682668	-0.8758627750217829	-0.4544385958165353	-1.1319029302629473	-1.2811057535251624	-1.2964850631405693	-0.7976626137621575	0.08761972911885789	-0.3761854162255161	-1.4001380169804332	-1.067402598547133	-0.7301129680319777	0.8547164180156935	-0.2449870848430836	-1.1612282962091105	-1.069062349481358	-0.638983724888186	0.7625059466184061	-0.40345680611790513	-0.8687959887504096	-1.0555945608190718	-0.03248428917670355	0.5649511203807339	-0.764457164264847	-0.7876509408138017	-0.12678244677959077	-0.7226280551785608	-0.6186899527188113	-0.1054707613904731
-168	-0.32023510256024323	-0.762705860596478	-0.9079641676867063	-1.3303004469663264	-1.4156717026254186	-1.5038703642069375	-1.3679014409815005	-0.8367447235916158	-1.5800179203196152	-1.6284542042625718	-1.5496586522077882	-0.9306954121933718	-0.17519833103292462	-0.6968225819160766	-1.6721659856539801	-0.9061356163989035	-0.8084090927694491	0.7080284339194923	-0.37812724614042853	-1.2662900654293288	-0.8995817280945276	-0.4862857448698112	0.8629431106714673	-0.48227527615854693	-0.8890443421805803	-0.8978987909535435	0.40907069937422397	0.6364219768668523	-0.6406379921951056	-0.5149399029128534	0.3254229418167833	-0.41660132899006813	-0.29807996674619974	0.17996813311438786
-164	-0.8122590759750609	-1.377200003961564	-1.0768324109546603	-1.637268300691124	-1.7256231264415602	-1.8135732366549935	-1.6696137147711418	-1.0693560811700695	-1.7111282305430977	-1.8293759776658156	-1.7085525946395665	-0.9462525820683394	-0.40095758336878295	-0.8209406712786119	-1.7493824914633607	-0.6885912997026667	-0.785092530652567	0.3622984877022276	-0.34293994220933993	-1.210709926409499	-0.665092108954654	-0.2581567161717948	0.787395058074427	-0.4408458162144707	-0.7878072837966529	-0.6615030152785654	0.8646721818073911	0.6767053587040809	-0.41129183665384866	-0.12065614729459279	0.7917642573393663	-0.04171885166960098	0.08760698117548875	0.4772114145628267
-160	-1.148647424658843	-1.511750217435639	-1.0008009646897122	-1.630058642086585	-1.7348551706382223	-1.7870136454287149	-1.608679409733946	-1.0258835528221855	-1.3877112830411655	-1.7536224082541085	-1.6258321959455222	-0.7911038378769224	-0.4893643843693321	-0.6432453377695774	-1.5576095541728827	-0.39284673233983763	-0.6213436111021566	-0.0986238194002183	-0.16014289815524835	-0.9707663034725126	-0.3561572125502676	0.005885810110758931	0.5182446824340812	-0.29642563983463555	-0.5759604558708213	-0.34686064632579916	1.2154501645872282	0.6324087961442576	-0.15474608501465342	0.30029037518979196	1.1515781850350495	0.2611273818575777	0.41422310366953446	0.7093329411717529
-156	-1.1764956683019119	-1.0908718081588993	-0.677092908103432	-1.2856135335888546	-1.374862667427243	-1.3927063906793111	-1.1728067368460766	-0.7125590425620758	-0.6699280721916508	-1.3615409101442877	-1.2610429493537092	-0.4898106145413164	-0.42849892269667816	-0.2310815745718333	-1.1044752569923517	-0.033198896711692086	-0.3443503073104544	-0.5546900615992676	0.05612806216612489	-0.5896849021328623	0.0030088450218021955	0.23749810397267107	0.09838161592678502	-0.12440854279579243	-0.31884193339910305	0.010750825489736333	1.3551746572611911	0.4586278784616743	0.028833728210845556	0.6387897713745766	1.298064943850997	0.3784249713403299	0.5774368629181802	0.798853037724606
-152	-0.8982712603778045	-0.3261352471223732	-0.2421248847093569	-0.7123175841467003	-0.7291009407708914	-0.7713406066493539	-0.5231304751539845	-0.27189633181589284	0.19618280182421272	-0.7335460167484382	-0.7089391928893608	-0.14341236614735614	-0.30060267372530414	0.20623415656472752	-0.4905896174442416	0.32662418402223126	-0.045218277608431945	-0.9004663802300504	0.16102920431965953	-0.168641224077739	0.3472191682632179	0.3584280899058318	-0.38635143540112804	-0.021579135154839897	-0.11193837197175442	0.3408112815358508	1.2269742457882962	0.14426939153009533	0.060685019786922915	0.8076747039430257	1.1755497425917145	0.2726961665421144	0.5329336510554423	0.6963555199207959
-148	-0.46724888564396416	0.40142461556174136	0.09820962672471985	-0.10466321531335317	-0.004446394730309119	-0.17237979130138564	0.07608440499169745	0.08586832859294147	0.888115582608035	-0.04744578513445094	-0.1596504743836797	0.11180664570713339	-0.2310684615500158	0.43286526093867544	0.11987856745255804	0.5902373775838905	0.1572496738039944	-1.0860880585905939	0.06522046758159193	0.1709752078507998	0.5881680831364478	0.3109853259818053	-0.8364162423950879	-0.052694357798573455	-0.035661891012753216	0.559200821895191	0.8476340153274287	-0.27096611192955433	-0.07590024899154824	0.7749847750170759	0.8068825582159607	0.002058035456036026	0.31778180518980453	0.41234674945674255
-144	-0.10906860949874093	0.7434552889173284	0.17912991299702785	0.3409278980230594	0.5536893592206601	0.1630208786186395	0.37828701639034557	0.1906489576056251	1.1566132277850936	0.4891351449061047	0.18995921265802573	0.1669216449814717	-0.30744150203330933	0.32303449429969644	0.5594856128872088	0.6690650565421269	0.17115381316841832	-1.124683138868822	-0.20566776342917936	0.3378951540998997	0.6505419595506241	0.08651103057477065	-1.1657693356645034	-0.21033009833638394	-0.11225306959421276	0.602419255643039	0.3067254118327858	-0.6987503153325353	-0.31991347589784724	0.5764873609293055	0.2933627657636179	-0.3015912465587305	0.038199588559980784	0.02852221757422951
-140	-0.005911620784526658	0.5601229653521829	-0.0352194978897666	0.5092175590056396	0.7646722178226536	0.11505920410908915	0.26769527725344044	0.00014335551495791614	0.9343627667678529	0.7216660362143148	0.22867983521899513	-0.0073068695889707035	-0.5184338675761206	-0.06486453099563375	0.721666334237538	0.5253890143481114	-0.02328198397241905	-1.0658820840627516	-0.5152267204627884	0.3086104087190483	0.5073565827911608	-0.2642498009685756	-1.3186247315493327	-0.4120199669925865	-0.2901927523438871	0.45623025182931526	-0.2632433169394395	-1.0268161270919867	-0.5549371228512378	0.29800122901065024	-0.21913810019002325	-0.4897028493438346	-0.17528264180274652	-0.3252199283971908
-136	-0.20275482484171573	-0.024022782160784805	-0.4344579566476975	0.40824630753441693	0.5868607744658898	-0.2620259218752981	-0.19025671434050978	-0.38037410282420886	0.3508049538815298	0.6090547427059064	-0.019179871257398805	-0.344626783454547	-0.7514243702990333	-0.519722996830068	0.5992097243439218	0.19545210848575603	-0.3609712412780426	-0.9546057557800072	-0.6847915036078291	0.13404826786052765	0.19651614079927748	-0.6460779889007313	-1.2754696575387208	-0.5381328449967834	-0.46596819044723115	0.16436855453476973	-0.7340861540380291	-1.1590085000339898	-0.6606179459105302	0.035469453692291424	-0.5959536418173527	-0.463850407621386	-0.22637554946011867	-0.522621570698177
-132	-0.5858574494829187	-0.7063014489461303	-0.8235623815724382	0.14963662586579515	0.12729598549651777	-0.7738887052070685	-0.7859303335374147	-0.7574359159419672	-0.34532439621523686	0.23214057029288396	-0.4122914661488529	-0.7141526323407673	-0.8544700720194588	-0.7965787032996536	0.2773208909185607	-0.2231982195702601	-0.7204090934684649	-0.8046705702492859	-0.5929182156851849	-0.09039794630830811	-0.19338031064323902	-0.9560250615778154	-1.0553415987072838	-0.4951567637339802	-0.5364728556439798	-0.19000408005426714	-1.028440234448726	-1.056427833750928	-0.5714859351988298	-0.1500863578106512	-0.7690594176902696	-0.22272962275538027	-0.10036946062734785	-0.5017170297353309
-128	-0.942089793687736	-1.174667593851266	-1.0266638968296147	-0.11859690368034989	-0.41344734921974136	-1.1846823662411423	-1.2682063547540194	-0.9539598202462071	-0.9089553333221738	-0.25005641516494814	-0.7656505684595268	-0.9814456080453119	-0.7272509318110236	-0.7530873994887127	-0.1125820276278976	-0.6136752351525843	-0.9787886118018676	-0.5989553913253074	-0.24765111443459364	-0.27488753130174903	-0.5607705698160325	-1.1243492336496335	-0.7128232103470534	-0.26909524134406787	-0.4549987304643978	-0.5200014697297556	-1.1435540885663558	-0.7589393238933412	-0.31371343056628714	-0.25938489967661327	-0.7639725785040465	0.13396812941582945	0.12449151991169087	-0.3015498809353608
-124	-1.0685363980971878	-1.2615265814401957	-0.9736513470862918	-0.2876442067513378	-0.8312095382685241	-1.3271409239640495	-1.459059950005803	-0.8995591379342148	-1.203691717923495	-0.6712340099553825	-0.9369855499452825	-1.066661474395867	-0.3866261532082042	-0.4259642351840041	-0.4519860733064767	-0.8868774153252419	-1.063919064696675	-0.3142245999985903	0.21036055630978726	-0.3769799759406884	-0.8304751494421007	-1.13716065596531	-0.32663392938162744	0.06132382884040003	-0.25899738007958445	-0.7667584995938145	-1.1384382219182003	-0.37302833701366883	0.0017717491092131463	-0.34642654569899595	-0.6800571662899176	0.4487372327442294	0.3114283375029799	-0.04937569039514809
-120	-0.8775511361854279	-1.0026034091431693	-0.7229250651227267	-0.3352140775800269	-1.0019189094042968	-1.170906183147567	-1.3248002495696296	-0.6575725061980654	-1.233613011106618	-0.9225584841324032	-0.8833226539244573	-0.97107738011281	0.03379270053318711	-0.0023345756285554835	-0.6785813552890051	-1.0098537181153424	-0.9772427057388761	0.04428909335279375	0.575977025962027	-0.4141013909852104	-0.9748921369734485	-1.0298328373657424	0.020031185770124856	0.35774481206217423	-0.053993414951141204	-0.911879477582827	-1.0904033156521475	-0.027569008921517188	0.22833901586102992	-0.47828152655009987	-0.6307625158597178	0.5773874506677862	0.33262762343349617	0.10263894472434394
-116	-0.44176277406738024	-0.5815795645335449	-0.41246577993205846	-0.32066789188486466	-0.9203863716729824	-0.8178288319920349	-0.97163593523759	-0.3750716438360551	-1.0954841347692637	-0.9813644265193328	-0.6614450199593453	-0.7599635701065754	0.353447346987041	0.2963472597269538	-0.7931413630487801	-1.001712319706027	-0.7775803188719119	0.4242094446439247	0.6835962516691659	-0.4403551507799185	-1.007353422482617	-0.8557220675798048	0.2647715502252997	0.4861990797165266	0.04036844511568888	-0.9658573841504948	-1.0435788605091376	0.18327256990890906	0.2521173053574988	-0.685154138265727	-0.6747342331063353	0.45406037454406795	0.13607752288794364	0.05877770096124832
-112	0.04643092665274503	-0.20469103701887223	-0.17274472073810163	-0.3292395166190828	-0.6778146607451949	-0.4314687837197586	-0.5716533050409366	-0.18647909117347267	-0.8990721083829847	-0.8932032562592829	-0.377230702878303	-0.5139657842057486	0.44562518484139624	0.3414503923378413	-0.8304632285131757	-0.9026204324821498	-0.5368947969232796	0.7371574621662611	0.49056890483023446	-0.5015064465258712	-0.9543053483710977	-0.6488099677871138	0.3874907781831331	0.3795368959858075	-0.04452618200266017	-0.9419806575834279	-0.9783591603373452	0.24168117283360793	0.04761959972875774	-0.92832404140697	-0.775615451761852	0.11988455026876225	-0.22181367818142939	-0.16359606343926983
-108	0.38161677025767116	0.015944413800514947	-0.05459389076754392	-0.4025565375654906	-0.39595720071958823	-0.14366196059672293	-0.2636146538754526	-0.13128294017547756	-0.7039666158068837	-0.7247495036900503	-0.11794582724595092	-0.28022622991383467	0.30971425693517923	0.16121438104934793	-0.8172708729137013	-0.7386626582569737	-0.2967206530232065	0.8932626224853293	0.09296365058792881	-0.5961363300531279	-0.8270626643280358	-0.4052255441448268	0.41387212171966076	0.06670002622453533	-0.2851917736482461	-0.8356983640552256	-0.8220263698804545	0.20902734942113974	-0.30754589956836986	-1.1075299950293782	-0.8171601870886328	-0.2974648170113484	-0.5970053061671144	-0.4370262015752953
-104	0.4557506728586633	0.10412360701498334	-0.013481166179714166	-0.5022305237487745	-0.15798097809005848	0.00992500406978087	-0.08448542633183793	-0.13673858310031728	-0.5032789694477265	-0.5191397057777687	0.09259570366607871	-0.05282065258995305	0.06959182751489887	-0.09117525047886148	-0.7458839993718593	-0.5053400980588557	-0.051862273234319516	0.8400927760848412	-0.3333826354669598	-0.6674551946954529	-0.6120424851223744	-0.09570476388610002	0.39615067739604065	-0.34491020353973845	-0.5720443711143206	-0.6240488871077471	-0.4967512773846633	0.18711242032493458	-0.6662396771776172	-1.1062236996377788	-0.6682726723964834	-0.6422834976192653	-0.8231391289909569	-0.5874924048849799
-100	0.3125702134823815	0.1722439821186078	0.04715960460915534	-0.5260678516457443	0.028262790221144765	0.09481307840251146	0.03494064873575986	-0.0729918329064955	-0.25827833944915196	-0.2780667536390744	0.2941744618141199	0.2082889074788818	-0.10003379707114271	-0.24261863468426842	-0.5794334993038252	-0.17923514499711313	0.23095421434743102	0.5884838089390259	-0.6282224639290275	-0.6310027821822007	-0.2854441695159103	0.2996169619148198	0.3812130679996267	-0.7205066066670712	-0.759202180376137	-0.2855675511302838	0.021452536752301746	0.25833973223311557	-0.875186917956381	-0.8505128004535222	-0.2622945302063002	-0.7957013825354197	-0.7868416289490848	-0.4839721011817287
-96	0.11894728958377739	0.3260931364409457	0.2051548207586986	-0.37030532862630244	0.21724636797891805	0.22480031791197172	0.210967257086263	0.15346524080630888	0.048516921576553636	0.020709700830147875	0.548441051052148	0.5319730626026674	-0.07552149127727929	-0.20874334819066323	-0.2865385107912235	0.2482412302187025	0.5712108597638859	0.21249264425034237	-0.7245279532259796	-0.4254580129372048	0.15471199115792797	0.754178402903927	0.382644592749583	-0.9555646753027326	-0.7352818828138493	0.16937139587555522	0.6641751511017444	0.4346039284223839	-0.8405637719866672	-0.35477989822459766	0.3492397061113575	-0.7187647801371977	-0.4795480656437344	-0.11163563253112396
-92	0.06691194308791859	0.5860082492338198	0.46354123832971666	-0.006589010806882385	0.4708001303707159	0.4817135023829572	0.5182579742698326	0.5233820067543016	0.3820783188233241	0.3827801039091377	0.8814326502480462	0.8928226209987082	0.1421949412808925	-0.03896886845525152	0.11649804532917317	0.7370750289427449	0.9360049939365582	-0.17710694625961979	-0.6673414094288639	-0.05864413440322449	0.6598131043941601	1.18076097667127	0.37388667369858974	-1.0121601794437478	-0.4800539004603437	0.6772705895490588	1.2769658533280952	0.6427808387740155	-0.5667814002032309	0.27007052234174284	1.0002160047073634	-0.4583836782326461	-0.0019498222923969419	0.4115692664722553
-88	0.25966280633217687	0.8706922509145063	0.7443521004003547	0.47699305294724337	0.7976617196924881	0.8554015734056568	0.9263911223864291	0.8964887238756521	0.6639424545691288	0.7642692904249893	1.2484420506428477	1.2016843527018175	0.42849725376662867	0.12663519350504493	0.5479642138951488	1.1918462484786094	1.2336755959834742	-0.47175121188267316	-0.5665619955063665	0.38176295064861376	1.1287268371694648	1.4557735883197642	0.30905121486837184	-0.9175514555653328	-0.07480059545228282	1.1285072536586667	1.674262757842595	0.7585418205183376	-0.14884243867965177	0.8545234777810427	1.475118871779223	-0.11554735869798653	0.48238146183294617	0.8870280362622089
-84	0.6456170661838468	1.048302409386372	0.9337570047645299	0.90225094329012	1.1267504663629921	1.2383166520325475	1.3012195792724146	1.0816297503819403	0.8119456151489785	1.071986195718788	1.5439602097630691	1.3408868278981556	0.6110615118811377	0.15631869395843687	0.8839479662512171	1.4915670118820434	1.349379893710758	-0.5999234303586605	-0.5148706423157993	0.7618085722762947	1.4394689762012005	1.4737296067223056	0.15914346237533913	-0.7311941366808288	0.3387040189297819	1.4042021000695377	1.7176706747557056	0.6709401590573817	0.274549304745825	1.2355154721537556	1.6023039777355772	0.20260342904436845	0.816778300130521	1.12632178975885
-80	1.041318056338515	1.0177000735337647	0.9478827690988304	1.0850899192117052	1.3323457207419853	1.4771277867216606	1.4725494347587325	0.9455420947044105	0.7846018056133702	1.2009674280362692	1.651411290767721	1.2268450229187495	0.572894750579184	0.015384954361517308	1.0143216822764252	1.5432336291450914	1.205523726280686	-0.5451921210829338	-0.5228218423041168	0.9638575291140401	1.5011697969682725	1.2040326564907493	-0.05960900693983185	-0.503028153103145	0.6294524057708624	1.4266051017982537	1.3796488011813335	0.34445217164811837	0.5837125763460916	1.3188103404126945	1.3293300833518331	0.42269635093779917	0.9107075310602121	1.0344591114629489
-76	1.2301688163216125	0.7666441778854239	0.7805283645950597	0.9335942244800594	1.2990449634179195	1.4525923692268439	1.330224391439785	0.497730253870305	0.6039713605890715	1.0903890105374376	1.5053807459017325	0.8646019079313784	0.32089400210424923	-0.2078968281265392	0.902148780929233	1.331828710054509	0.8132399896116529	-0.3461973360380909	-0.5111696111171051	0.945804533954694	1.3007003036084424	0.7183891516667715	-0.2854105226940195	-0.24872991379882092	0.7415052037591354	1.198412892176935	0.7609598617414808	-0.15382155737187655	0.7272490840670403	1.11228573041471	0.7445320468224773	0.522366701237761	0.7647153119807174	0.6456209404857475
-72	1.0822188826894128	0.3781029870500662	0.5051520454050641	0.5054525124186182	0.9923939679839481	1.14678394504929	0.8965357519402612	-0.09794571225948194	0.3469459703745797	0.7671950440110473	1.1341936559651717	0.36304166821373324	-0.01741391415967789	-0.35567518978918605	0.6132310017361949	0.9396067237973073	0.28556299137497004	-0.07977347800856371	-0.3632910540468438	0.7657105903366641	0.9193918085727713	0.17220461325083306	-0.439216910683839	0.04769806551811614	0.7188394051522681	0.8108196238073694	0.0538473463189073	-0.675890801630637	0.7370251994598385	0.718059359168062	0.03675819924133906	0.5238981233721086	0.4557064164100293	0.09802524720715329
-68	0.6306761487296563	-0.013078143787147448	0.23406755865128476	-0.009620835980324554	0.49406474703980735	0.6616179330334022	0.3322158745484273	-0.5953755959737803	0.10892413529075075	0.3491554251438579	0.6579250080663771	-0.10263196353034225	-0.26671183041945185	-0.29653075262543155	0.29459068104753555	0.5196810947648967	-0.2002703840444605	0.1672109212229975	-0.0063585019509890105	0.5560579285887645	0.5067899214347118	-0.25458627874947387	-0.466344265952492	0.40683326022429434	0.6770988089632498	0.4122734059415316	-0.5314192758494574	-1.052007434096256	0.7037592512482336	0.289972125751808	-0.5822427854142861	0.47368889927478414	0.09789089088758818	-0.4304266561131368
-64	0.06344887598230882	-0.2854751639311152	0.06018323436085788	-0.37766355180756905	-0.021932562757788404	0.17793574884312907	-0.1320712861064477	-0.7853235582551331	-0.03791693215929863	0.0007394033581908082	0.24100807248302006	-0.3660784354504051	-0.3034705810037537	-0.00518431140663629	0.10851375731250829	0.23297429025957478	-0.47666332005317835	0.32574665464174113	0.5281555043237316	0.4583576012006227	0.22031660322354685	-0.4309540380087779	-0.3662363877586611	0.8204660990981084	0.7365181427480144	0.14951270780961998	-0.8435948469797774	-1.1591963738738476	0.7265447359815078	-0.023861268475012475	-0.9552017426216116	0.4209715117316437	-0.19923061082130136	-0.7925048450488308
-60	-0.3671164205342255	-0.3783756186945805	0.01564621921403713	-0.4340458203324386	-0.36229956058583085	-0.12259782819789364	-0.304091929621646	-0.5975950345210332	-0.06840021145955781	-0.13761861587588167	0.024030297933942978	-0.344536452615618	-0.12248676239321571	0.4216845620952914	0.15537430306783875	0.1787120099324015	-0.45905670407742816	0.3635220220447653	1.1025234432994648	0.5517853484527622	0.15903834958454313	-0.32648244417731326	-0.19122327815890838	1.233616945013163	0.9519995426937833	0.10808408233056851	-0.8370969274367043	-0.9673631166830091	0.8616036154928118	-0.1296570297782383	-1.0224593851977741	0.4044393588822244	-0.35823675899658586	-0.9142581797405176
-56	-0.47042459130725667	-0.3013220123789598	0.07056214642590883	-0.16139814216872653	-0.400037913504543	-0.13445736433891067	-0.12212458967131364	-0.1314180341025199	-0.003952355579738888	-0.011215677456553094	0.06764724088517256	-0.07424284499020528	0.1679504211476975	0.8204358795432836	0.42532473695182355	0.352290361230227	-0.18148200168089348	0.29012933300200616	1.5311360320534426	0.8123995641224417	0.3230904034563546	-0.016630940097304585	-0.01621420491118385	1.554280277142714	1.2768657175251252	0.2797947816937173	-0.5719385132654667	-0.5443053231802045	1.092848178965372	-0.012283330752235519	-0.8187308886837882	0.44517716653007317	-0.34350341471730145	-0.7973041514293834
-52	-0.20927353150460173	-0.10976401688757968	0.16529621142138942	0.30892276685920517	-0.12948939171523074	0.13200204041055472	0.3181050113752831	0.40057894486380324	0.1069514748734061	0.3270242503969536	0.33367785727178695	0.3116669050930911	0.41506987705339815	1.047527429796959	0.8040013292994375	0.6507208926937881	0.22388468626240512	0.14812649749073975	1.6677235322807968	1.123827931427744	0.617628036370174	0.3586737206463311	0.10202872727383533	1.6875461297344116	1.5797982175995278	0.5712087139966794	-0.1741064633503633	-0.022633990215734267	1.336694356404529	0.2682248645209327	-0.4374572325629003	0.5416457639370413	-0.16145274002320292	-0.4948499786280958
-48	0.29089087174405626	0.13293682005220706	0.255553662131736	0.7723996619750492	0.33910861525749575	0.5671268091188322	0.8173781612740261	0.7834916095025868	0.21333584135552855	0.7473753671850191	0.711198804967091	0.6525205357289479	0.5110427128286987	1.049757001133798	1.1313008041429466	0.9243242121247712	0.5940268024705634	-0.0044695748834714865	1.4764077626145917	1.33589648863158	0.9004543996964809	0.6624450070822173	0.15249758920314588	1.5780841072294047	1.708742256618763	0.8497919418814286	0.2218452239395971	0.4533816564557242	1.4802607260524347	0.6038005932822212	0.01327135876195708	0.6679546220127649	0.14309571647278635	-0.08317297676068103
-44	0.8127924183351645	0.38143172763843314	0.34019538674294164	1.05836617679413	0.8391882756026583	1.0208922598812962	1.1758064001914694	0.903681573970407	0.2836197011462643	1.108632800164228	1.0706607076316195	0.8385763147162945	0.448803006469573	0.880134103460248	1.281472441298895	1.0481994125604601	0.8127390125735806	-0.11438898713318502	1.0485080454103277	1.3401546444435832	1.0492217514250664	0.8192487338362894	0.16711099403628385	1.2408791749142614	1.5687962730853737	1.004826662387678	0.5205671178072458	0.7762740830849572	1.4345766269703883	0.8776138402715733	0.442034213619002	0.7776463608181563	0.493466286605451	0.35716703443950276
-40	1.1586747140240905	0.6126403197079621	0.4548103499850608	1.1087105246208189	1.2257246940183797	1.3702191079830952	1.288278457250034	0.7918398360287507	0.3183367244312624	1.3207970824273318	1.3163797822141803	0.8566516020127303	0.31365945856057925	0.6568521840677735	1.220624920624273	0.9765526627680536	0.857832608441328	-0.14856238625688167	0.5558786378177327	1.12210285380301	1.0137629483377113	0.8361393788208052	0.19131377291061014	0.761549351676821	1.1726378172832095	0.9923962925650884	0.6848820430630144	0.8996896721059433	1.1767508953901957	1.000613329268433	0.7834890465028679	0.8147472122602828	0.7932773808478141	0.7469844799255689
-36	1.2407242028382366	0.8137726763206656	0.6367695315496601	0.9881469582404898	1.4304052555209592	1.5611673554105432	1.1828304499326465	0.5882225617816349	0.3478902569570497	1.3733512128488445	1.413665291078055	0.7806865553218941	0.22104316894036324	0.49345460409510455	1.0127490733326419	0.7546212654134901	0.7953179458565477	-0.09754215901304902	0.16747635560667334	0.7642227988021818	0.8292804339452391	0.7791529278156953	0.24984168943268692	0.26611658863590526	0.6376796348684377	0.844262955441378	0.7248076182185597	0.835761544978528	0.7616814355693099	0.9346783137564971	0.9924852822995134	0.7328580599401776	0.9477743482502577	1.0086866591735868
-32	1.102333662110979	0.9677532886867237	0.8846732951716576	0.8244612196133818	1.4662897549802252	1.6076016385498386	0.9843299960080002	0.45238232498394304	0.4155709136961151	1.3166152205604487	1.381618496267608	0.7147502881124211	0.24001970826584992	0.4409615982366546	0.7728620748080492	0.48446231958144614	0.7261831742072131	0.027631161664699807	-0.027823159400907488	0.3991349627431203	0.5861204847796485	0.7213822585012557	0.32842820799877087	-0.12647645143524766	0.13097858395886164	0.6389099343381404	0.6699838621390197	0.6346878393361354	0.2977938644520002	0.6975945812732584	1.0381444666401065	0.5158329593032683	0.8935908652632786	1.077197787426211
-28	0.8693933464988405	1.0511283847973278	1.1410515279571345	0.7234944682928284	1.3903721535865106	1.5573751887102176	0.8312813618652971	0.47422748684361477	0.5522317276363581	1.2150160043557803	1.264885303164809	0.7251137476733531	0.35338345080800315	0.47156736135632765	0.5986900910520819	0.26756852797664554	0.7202860694819591	0.20306785353412454	-0.052027672397863337	0.14172621035556227	0.3769805421848123	0.6955348831736002	0.38465905092397085	-0.34721201570586296	-0.20738676138016157	0.4545970547642706	0.5452025518957432	0.3608367433974465	-0.09900730078257378	0.35147491008711373	0.9071344114288831	0.1920926715054072	0.6267445071609083	0.9218923426240753
-24	0.6686390621469926	1.0439012024272691	1.3113344874652606	0.7119884472990816	1.254915591886269	1.4528287612474262	0.7965433577453911	0.6346324070166341	0.7532028536853512	1.1046525212054663	1.1055104704601972	0.8010118583482755	0.4759732770823559	0.505796908055261	0.5212945328902482	0.15635155101878634	0.7755653838603671	0.39617010851018836	-0.00868965776305914	0.03756789108566548	0.25140011247104965	0.6769406182364154	0.3775692870620948	-0.3944533755357019	-0.32273435511168774	0.3307510308021257	0.36125811843262223	0.07537144403501668	-0.35136148244839255	-0.02108709881346132	0.6138154848813867	-0.16808831649303724	0.2118508214370214	0.5672348723395371
-20	0.5672425017340491	0.9460662579492419	1.3128322329753952	0.7398148756422178	1.081956026206617	1.312689897084031	0.8588873722326104	0.8325998762090446	0.9723221635111564	0.9825416778553193	0.932188448936581	0.86701065082996	0.5170121179878828	0.4679713833437849	0.5022296892837498	0.13960884476222948	0.8260510542994619	0.565870700838007	-0.0110546359513249	0.05425650612722524	0.20147474059259013	0.6058400258027069	0.2963011853366587	-0.3194919220487376	-0.25687655741686344	0.2580034726304642	0.12347891150531953	-0.171634316011062	-0.44492912180146665	-0.34452497872152765	0.2081411028613732	-0.47535663723138893	-0.23701445698502344	0.09720294152990812
-16	0.5655565247561891	0.789646742734422	1.1281733484394778	0.7367354612823168	0.8749567248188397	1.1447098226256327	0.9385855174209488	0.9599691605172899	1.1392009229508204	0.8317029455167291	0.7697311024305477	0.8392747023373645	0.4469653952757872	0.33766677890401936	0.47587334989564223	0.16699702995576102	0.7933353761670342	0.6673620326359041	-0.10845129164494138	0.11738395661281369	0.18415118707416359	0.43546348700251963	0.170982762739506	-0.18974576842562396	-0.10882656993808036	0.20016743192203212	-0.15020069442020292	-0.34221294435884997	-0.42042273176858225	-0.5706580266849899	-0.2287113660760017	-0.6538908465088743	-0.5982084855235128	-0.36674570944698087
-12	0.6346742494771609	0.6348580702011841	0.8314771631228899	0.6810126287432549	0.6532020552355889	0.9740751957142195	0.9683330630649902	0.9747678016847608	1.1962202757197633	0.6605669243347313	0.6542093141251052	0.6889035684358565	0.3233505777301423	0.1690028752590006	0.4064006795159291	0.1919208760184371	0.6471135003917997	0.6610184891224096	-0.25334042246752414	0.1650633807783234	0.1609425689686972	0.17403703884053645	0.05648497477813881	-0.05153335617882786	0.027962354872558083	0.12971620228918965	-0.41871067775869886	-0.41280591383661047	-0.34207156214179973	-0.6872611624532173	-0.605853198429169	-0.6707514507524993	-0.7907993773521784	-0.7101632338713779
-8	0.7622985224551114	0.5511104450616744	0.5691373929913194	0.6276148541817212	0.47623944162292836	0.8602092840411015	0.9493415331713804	0.9259167290198594	1.1356458635268127	0.5236922489295742	0.6347762926287587	0.470491676334782	0.25728815729032073	0.06941567343829055	0.3198769382506922	0.20277996310058627	0.43467593083309075	0.5273885117566983	-0.32682138598897276	0.18538314057275457	0.12693385747809918	-0.10756747397444331	0.0007507239333026431	0.08612268396329767	0.11390748591274388	0.05170110600054407	-0.6256089194715148	-0.38077172540850157	-0.2620526843607347	-0.7140100580308245	-0.8540180899992681	-0.5485659823872818	-0.8062168339401451	-0.8718737937849058
-4	0.966884670200605	0.5907406195984586	0.49803492301130525	0.6734826547785016	0.43009340654503897	0.8806984402355567	0.9530622339028006	0.9153821445242094	1.0137389872705722	0.5023193346692656	0.7530551533759707	0.29549279734393347	0.34051516566135426	0.1493549790187813	0.2889091961242121	0.2230142647357865	0.2584828131825377	0.2838620536313092	-0.20842289871999858	0.21439427083245527	0.11025091977893994	-0.3093180350600352	0.01790298144469609	0.24017946361460582	0.1709836121056919	0.0001346594214066367	-0.7231460195403512	-0.2704734497394072	-0.1999275530297392	-0.6886700970428609	-0.9511119103260293	-0.35410660415891476	-0.7062494140913729	-0.8679553844472646
0	1.2684930530946652	0.7657242994049278	0.7078940850505078	0.8824688769948501	0.5767957553605947	1.0854536267532064	1.0667568418272668	1.023157951632778	0.9279363727983296	0.6524684412695456	1.0096349690695692	0.264674007224371	0.5779606685351438	0.462393252874241	0.3793111433942907	0.28250884938438997	0.21390974467629945	-0.009599914750061214	0.14530292116673	0.2985552243801164	0.1439934965312878	-0.35821497349897546	0.08164246359716391	0.42330661309179124	0.2494302087685189	0.01027206049501252	-0.6990712863438403	-0.13191199269368764	-0.1458398398055111	-0.6491776092351601	-0.9269012785397736	-0.16936761098062153	-0.5874875769087653	-0.7773808221263524
4	1.6389052826511024	1.0389479372496504	1.16806447211043	1.222617742312662	0.9004876590881815	1.4498606883636846	1.3204245533984262	1.2439914910379954	0.9616529917279434	0.9548828577728684	1.3418725695109621	0.40145116943092174	0.8710886814059066	0.9636962985503297	0.5949558004616872	0.38350731037588387	0.32599511660286	-0.2642300718312047	0.6595723016298756	0.44972184186878816	0.2331691378428536	-0.2530490451622753	0.14283096754252367	0.6172183736476671	0.37977778815705904	0.08826011397012729	-0.5876440987055502	-0.026961518383500173	-0.07980908433314651	-0.6177196487089625	-0.8427602627457396	-0.05742482081458429	-0.5304478989560054	-0.6966266614491946
8	1.974309916279995	1.3331531252580744	1.7271119312550012	1.5611263474150412	1.289401289545478	1.8606299114934621	1.6445856052838557	1.4761909209174464	1.1285903425332737	1.3038322892649026	1.634590621635995	0.6283238514295344	1.0647352907001686	1.5128254852246723	0.8600826837759182	0.48887848730634986	0.5256053792080997	-0.3953210105451843	1.1640106410202011	0.6259443744114637	0.34328398021811485	-0.06865992379734967	0.15844234784177755	0.7708272318451996	0.5447671995714028	0.20211458155147732	-0.4539676595193539	-0.00540348606682521	0.009796017756167435	-0.5907217845307572	-0.7551204543122236	-0.03735243519650761	-0.5587319121559269	-0.6870630366144842
12	2.1237137264038854	1.5532582959059755	2.168543333300589	1.728374119209578	1.5751440485286368	2.1525542681706695	1.8921323966891945	1.573130365214629	1.349076863697485	1.5499168595283035	1.7667999222970714	0.8048920015040674	1.032281634585512	1.920554990687869	1.0551602813783347	0.5445962534506187	0.6837010366344165	-0.3595309844476487	1.4698132239425818	0.7537955026668566	0.42211088431597105	0.08615713544789086	0.1159790080837795	0.8269882181268993	0.6906240565029544	0.3034998170819422	-0.3557552388269173	-0.07908873240053224	0.12201176552961927	-0.5365720377726357	-0.679374931527541	-0.07877402732749333	-0.6267007573517537	-0.7385688405463342
16	1.9675567100439935	1.6168341595836577	2.301404231936705	1.6164132315833166	1.6157814223502927	2.1844034139795405	1.9168906163456192	1.4289381467981617	1.4811797104632616	1.5784923990450852	1.673529263085841	0.8083057383156695	0.7511979322541034	2.0265421816205333	1.0878684493255397	0.5231308923864969	0.6864806396318542	-0.17871591403662443	1.4650304280485902	0.7793828825346583	0.4419903446005581	0.13379315998153304	0.0381651706030002	0.7629501204301509	0.7698621134394332	0.3673151126170826	-0.30419191641300425	-0.2098799789613378	0.2543507807985609	-0.403976916246902	-0.5765654430137641	-0.11718254506804555	-0.6433061345070947	-0.7734790424845616
20	1.4990481100382043	1.4798979721852477	2.04395389040836	1.2504404751678315	1.3757505382135755	1.9132505606983763	1.661535616494418	1.0479557487732334	1.3973478043562522	1.377967473365754	1.3872240746760016	0.608542023552843	0.3250900200742309	1.7755337908739586	0.9551006531443278	0.45685854438830636	0.5065570460881623	0.06658103300212229	1.1763488024575561	0.7132149320715283	0.4322830129676571	0.07653421889293986	-0.03198363996417667	0.6168661698025785	0.784079192089299	0.42023983491655076	-0.2498687648425078	-0.32111421146381597	0.41677245392478623	-0.1408581432124063	-0.3734415164102087	-0.08320000746701842	-0.5195386992688878	-0.6895774585479857
24	0.8531653263486196	1.1492199868751098	1.4593809806217526	0.7863574008161521	0.951695916634064	1.4228903019266512	1.1997247904051291	0.5554793463033906	1.0626559230677841	1.0531536314123928	1.0292897198439201	0.2914811365397767	-0.06367626770155282	1.2518907753808446	0.7533403616005009	0.4318089474266329	0.22498770001351126	0.2740037136312509	0.7611841540192043	0.6345402582360441	0.4730433213688518	-0.003418164551941277	-0.054385386270065436	0.478082476839375	0.7925700525300504	0.5324539528755011	-0.1086372208832682	-0.331075071452629	0.6315274818688338	0.27920570899088937	-0.008954305179161428	0.06528063847034077	-0.21602643971738017	-0.41916230215102174
28	0.252174645025628	0.6782724840205588	0.7277892809612758	0.42820000540388425	0.5228695260198166	0.8851239658896665	0.702784000052881	0.13914947176610537	0.570242641916599	0.7698881010644897	0.7496925573494568	0.012408145672047783	-0.2471214228589733	0.6512662155874613	0.6257712825234729	0.5370838628560297	-0.012860656683459471	0.36619472411206827	0.4299162019365691	0.6461268647093237	0.6454015357888833	0.0031687375078068587	-0.01138430924074524	0.43952381499901266	0.8749430753552205	0.769912836992009	0.18016140117458412	-0.19526255081468769	0.9117504335272141	0.8294271805803056	0.5125005232269346	0.31890445867131456	0.22821846546727606	0.021891888175767343
32	-0.10631479296068404	0.15056176445617941	0.06900074315531486	0.31272551338395166	0.2521093779397637	0.47308322667842817	0.3487581899897553	-0.046463463338129646	0.1070465517321634	0.6601405723117293	0.6461488588231903	-0.09338188892868118	-0.15858063061730734	0.19507482598644155	0.6753291470643364	0.7983718494285492	-0.08234452435445892	0.3265424362521282	0.3360238364795785	0.8047428706832159	0.966741499844216	0.15841746290264666	0.08878067113395888	0.5374109135410866	1.0691289874740486	1.1349350185350162	0.5971558078947924	0.06645797176271359	1.231296655407205	1.4173086845853968	1.094393846609785	0.6132166966214849	0.7035589200376493	0.5270903097196399
36	-0.15547779163206873	-0.3430009475631135	-0.34833931834965376	0.4305422593213868	0.19377727757644087	0.2734185748349683	0.22609597387450556	0.040463786470056703	-0.1387705501390637	0.7415729146354293	0.707355676295611	0.008657714330153053	0.13387791778618965	0.029181022123333133	0.8943579174349565	1.1367924184708174	0.04381451372170969	0.20389321394940674	0.49343243116730406	1.0699727508233587	1.3512521948077154	0.42638140809173386	0.22152754608490752	0.716433761695207	1.3247199025086753	1.5332610568436096	1.023640987672818	0.37285250331202535	1.5076236686789677	1.897517914749633	1.5669946630969414	0.8476227500495945	1.0694845887838809	0.93903583051109
40	0.0041499412513801535	-0.7246046644036118	-0.4672180998450154	0.631305931404763	0.2642826729300862	0.2480802529747318	0.2911925606528252	0.30973824780464077	-0.07544770817781424	0.9013670660149774	0.8159090259933114	0.230353876366769	0.46618240954001305	0.15716971417323009	1.1561113566773518	1.386687394455799	0.27565359999679057	0.082932516723103	0.7683882693917932	1.3082905974735561	1.6289309222102817	0.6804772002205893	0.35954636244596194	0.8471781590053373	1.5084065160814712	1.7970088674951543	1.2804483142949499	0.6161054357232308	1.6181217391168448	2.1125180667947006	1.749954338423892	0.9211183167089763	1.2073873250995282	1.116405484241894
44	0.1689003403690846	-0.9422618722967682	-0.3455063095906321	0.7133616191019502	0.2960301928198716	0.2685298614874783	0.40459823506247206	0.5912973269792552	0.24396029053129153	0.9582048630363927	0.8135250190222492	0.41233575239980924	0.6665202958445112	0.4448141444419852	1.2781150308764633	1.3721437419580333	0.45696103457473886	0.03900011619019613	0.951505718213066	1.3572607006137736	1.6226099688571	0.7701522092448226	0.48326939222392334	0.7928716520318524	1.4670863114509924	1.7606892541301264	1.214296695504447	0.7139166575526973	1.451448556096492	1.9509963939999888	1.535398121771991	0.7731803636103461	1.0666286918413233	1.0002541516799233
48	0.16079503257208944	-0.974330303593214	-0.10695342692551757	0.5466225133446423	0.14374576472706554	0.2014070744197797	0.42264351142033924	0.7287477236468443	0.6512319429168021	0.7692855577119765	0.5938752874639269	0.41904073847830925	0.6437545402486079	0.6989108902451547	1.1244604559165035	1.0044913266570183	0.4578860986593174	0.10184791658436569	0.8748704172934229	1.117494461099191	1.2451739279780643	0.610150454888046	0.5825715646340371	0.49328330034645257	1.1177358599099219	1.3526461090269135	0.7883152345781463	0.6511294229280472	0.9716351007725652	1.4001040423329971	0.950493333324112	0.4135006059697137	0.6842230541120414	0.6448653920104822
52	-0.05529529959903834	-0.8297735431702209	0.12949845162121373	0.15642186959828258	-0.21948556546586412	-0.004878593130758441	0.28914409802867885	0.6621911509007599	0.9552170014106356	0.32167714752997584	0.17098653273327852	0.22231987062590636	0.4291895319116246	0.7778363208205759	0.6896086317771246	0.34653451951273395	0.25553542311048083	0.24596179959663464	0.5120527135318677	0.6205098613331435	0.5630049095244416	0.24066092013156348	0.6510213597073422	0.017400102645931215	0.5129822479647931	0.6510659439815217	0.12597276238584493	0.48850116010355193	0.260384767590196	0.5673168287258964	0.16575235086554263	-0.07159557920499598	0.17238135592330706	0.197973057127844
56	-0.3424107125697154	-0.549451528592474	0.30315452737563015	-0.2819744043383608	-0.6748793108113523	-0.2849421791988793	0.06936512124906806	0.45395165567227214	1.0408555242962256	-0.24660570857251746	-0.31758871594354215	-0.07764638940757652	0.150619715071916	0.6691135151182069	0.11337093980299166	-0.39804243940946815	-0.0471955983639282	0.4106602360370809	0.0032035619870902448	0.029006265030583206	-0.21566468422799048	-0.18087838544477708	0.6804010254847588	-0.45149674897642855	-0.161855354496483	-0.13290342655005596	-0.5239915238502358	0.3320561042985103	-0.4933308648528632	-0.34444382699787085	-0.562253712188234	-0.5424331412925363	-0.3208292714601866	-0.1618972863639766
60	-0.47267290830483033	-0.20479860850125903	0.4225264777006182	-0.53606444461901	-1.0179548237848917	-0.49447744959919016	-0.09500370895718306	0.24557693240629164	0.9191882587113772	-0.7108105403120043	-0.67794734068413	-0.3093266181288612	-0.043957013525846675	0.4897387611422211	-0.3836400797217858	-0.971755740573286	-0.2789269380679787	0.5355119095633372	-0.4084136773765237	-0.4352351416089616	-0.8288004973467193	-0.45726385597175573	0.6618660671689757	-0.6961914283341435	-0.6659235341425267	-0.7434214930838261	-0.8937941171014495	0.277372329726872	-1.0606913539809473	-1.1049779625651182	-0.9942089294127764	-0.8538501241107151	-0.6642626507200537	-0.30486228985110053
64	-0.2702968709797059	0.11268547893922469	0.5339933620322285	-0.44236484058273634	-1.0718283626198213	-0.49877714984849686	-0.08000614473885702	0.17327429310443274	0.7007371169518172	-0.8740021564351719	-0.7614351491777197	-0.33113413965545224	-0.06860274059141265	0.41009265080864027	-0.6088088139421841	-1.1838476627978152	-0.3000542215877881	0.5859308228004521	-0.49871262782069037	-0.5983400329741999	-1.0816891166079867	-0.45699036005989435	0.5909737333635866	-0.5728058204494036	-0.8160824755091699	-0.9962453220963862	-0.8237785080138481	0.358753263044583	-1.268618580476245	-1.5407726725778184	-1.0100361083278946	-0.909737763492165	-0.7887375334853137	-0.20684860594500448
68	0.2649621360764878	0.31262475173221327	0.6696233136436838	0.0033420431343279128	-0.7886590937729874	-0.2600723796477169	0.13524854149050047	0.2897020571070126	0.5142164217363963	-0.6689679605760329	-0.5452818260730943	-0.11802712798121928	0.057446811203160586	0.5430603013632795	-0.49104544396401056	-1.0005606387625845	-0.08770145453721921	0.5569325075393456	-0.17920303299482146	-0.41802519454319015	-0.9371016001883672	-0.18853259039008982	0.4737668323476312	-0.08672972001589942	-0.5748296365529977	-0.86184227248989	-0.34466808947327204	0.5316568003582877	-1.0742318603096759	-1.5955250222930977	-0.6588965637737629	-0.6986031514649563	-0.7044230085707766	0.0451404413931324
72	0.9331614947600826	0.334004550328976	0.8062889555601412	0.6391726716116469	-0.2843079261754257	0.1263347562938131	0.44354674108100356	0.5350084887348352	0.4247840930227534	-0.194775178536751	-0.1501208390975667	0.21613027100831675	0.22507952096855594	0.8650761820886587	-0.11130595924170363	-0.5582632408352413	0.24352797804382711	0.45595133189479303	0.4549672890143582	0.0001794128033925063	-0.5277330266026302	0.1988129461752535	0.32744935072241843	0.6061872228576469	-0.06491041912141433	-0.4725635039796213	0.32998579657210886	0.6983007771027743	-0.5790546521825893	-1.3402739729421222	-0.13237206604438612	-0.29398482963724576	-0.4857350277557994	0.30100268049538187
76	1.4262580835572476	0.1658338900193895	0.8619587995701317	1.2126886814017563	0.21103775447969308	0.4671823370582404	0.6599238498238732	0.7690500001564189	0.4032199074578435	0.32935371911818406	0.21389989500877518	0.4741215693901163	0.2970961920866657	1.2209626405407177	0.34336581739518485	-0.0926848275109541	0.4978780733889748	0.28240546512828807	1.1697331637413488	0.4619130778571428	-0.08472047724791623	0.4903606760042374	0.17464166835561148	1.2753792968974695	0.49787342422669406	-0.050658605864893354	0.9022810436356556	0.7633594851294347	0.026041829892808784	-0.9280748343877934	0.32890945589947235	0.18096139981357842	-0.23087379278067088	0.42609199773975764
80	1.4823808632617426	-0.15276499054009435	0.7306313496262804	1.4954760036858339	0.45756268385758264	0.5580524192072029	0.6171213968908623	0.8443518259665137	0.36197805313272413	0.6656935794235639	0.3430993250290669	0.4778676020955022	0.1809043879709947	1.4102511370339406	0.6739770753056652	0.17789955392268061	0.5005331026791465	0.023032544122599263	1.7075152354045147	0.7844644765121545	0.17921535625509766	0.5175604211137873	0.03526681280172791	1.728870864317882	0.9170441008302855	0.2041178936573203	1.1319104404481701	0.6893478614568906	0.5578600750189984	-0.5148210512514714	0.5508139119546654	0.6102393254131817	-0.013252896223284516	0.37190946842709244
84	1.01870035867986	-0.5531830773692161	0.33974933538489116	1.378165003158041	0.3114261917357734	0.27774369646520747	0.2529691451361556	0.6804122311579482	0.22869490029292405	0.6619434339976988	0.13014906611961685	0.1620853986224128	-0.12490523575003232	1.3047409024675647	0.7600820641400898	0.15471886059322099	0.1900785411565648	-0.32718485511189543	1.9091528605897035	0.8831460453624337	0.17047737495773144	0.24602006313675548	-0.07664118687829984	1.9014173698102834	1.1104049654582158	0.2082100356328819	0.9505573487124391	0.5213757144162273	0.9271446443037771	-0.18701265705099365	0.5058311807259203	0.9343517995132419	0.15091282091185895	0.2011247421193527
88	0.16742388861824228	-0.9741017793857222	-0.3007192008055458	0.9006395913273304	-0.2197163993533352	-0.3572640409986298	-0.3592051556578067	0.29995694680776025	0.008672280215183265	0.30784022730352767	-0.3939972509927098	-0.39095038076877403	-0.5310301171247014	0.9284439659519553	0.6024081691791389	-0.10391834352005633	-0.34830155880728386	-0.7311581354754754	1.7787172749433746	0.7999225834677554	-0.05023550229502347	-0.20596182294343632	-0.14868640862118493	1.8702682209478876	1.137413141239941	0.02385189191935492	0.49223711962399624	0.3683736911056209	1.169310447601669	0.06952667963832386	0.32053667225972293	1.1685152024330836	0.30528834385087933	0.056781049674442155
92	-0.7979958037256107	-1.3933657372581516	-1.0857527228599342	0.21489845162017618	-0.9902675722869546	-1.200268742391976	-1.0497481796463934	-0.18595486832399663	-0.20723479933869038	-0.2753078036509992	-1.0794942351743193	-0.9907631849070107	-0.8998972750831719	0.44980466252249446	0.30302375478532306	-0.42229318512155634	-0.9234636998703215	-1.0916192504024957	1.462660070541147	0.6642123443999903	-0.31022190969344954	-0.6258327349120812	-0.16356728929707715	1.7920280649717188	1.147326943361823	-0.1845566476692245	0.025666383961606806	0.34925511391199304	1.4042078221154217	0.3459395459500882	0.20729871041888945	1.3803579772430805	0.5240511880995053	0.0896754635096485
96	-1.595132942940755	-1.8291751100134297	-1.8429216099939818	-0.4863927054045906	-1.7797040894397846	-2.0315809198585444	-1.631185765916442	-0.62779539665029	-0.29619446322045784	-0.8951271153738408	-1.7201988653621156	-1.4257292711501355	-1.104182836605822	0.0909719837395294	0.003957232916049836	-0.5968592747877834	-1.32602691315601	-1.269446846617953	1.1594158381753565	0.6141628607502606	-0.4156509627338464	-0.8083329180336185	-0.0978289989147258	1.799194808232128	1.2819542852460426	-0.2378240072683189	-0.17490927830881614	0.5319706188122377	1.7500199035329795	0.7471975665301029	0.35570803194837436	1.6397186476316539	0.8653556086626603	0.38034772776896236
100	-2.0479717202932357	-2.30616902722802	-2.388114446332651	-1.0367315981439178	-2.369214767196408	-2.6343891554124053	-1.97067176798138	-0.8947411752998946	-0.1812144960358169	-1.3624695505075437	-2.1260473674502394	-1.550427790542028	-1.0730973455038855	0.009585664583383	-0.17710995629417337	-0.48650982853127855	-1.415273424390035	-1.1398280830215637	1.0125657294457755	0.7255403977195782	-0.24045005380004172	-0.6462675912752831	0.06870123726665531	1.9177482079724824	1.5906871517074728	-0.024590218377613885	0.045120905970856585	0.896861550927781	2.241483205858133	1.325032826892956	0.8393439629344186	1.967623228827395	1.3318427767506404	0.8975933171498409
104	-2.126784319276382	-2.805788986751513	-2.588293784282447	-1.331124421573621	-2.6008148127695114	-2.8578295635549376	-2.0222067781890964	-0.9129372216063405	0.11793853312756494	-1.5468891819999369	-2.176518911588558	-1.3321239914639806	-0.8077585080733682	0.22100338284007612	-0.182953416839265	-0.062134504161362764	-1.164305564801805	-0.6618711335637688	1.0455963585204013	0.9843283866825954	0.22835127951666148	-0.16792610245269055	0.3348076037060074	2.052696699681941	2.0039107748936145	0.45901164296609176	0.6577493531786675	1.3410414423463126	2.797839872925757	2.041338200183641	1.58060347634841	2.3132634104498546	1.8586261225504621	1.5123274288141866
108	-1.9050803136410623	-3.233763686598715	-2.4055879055323093	-1.3288807835406504	-2.4067842899592202	-2.6499490671010255	-1.8132097675320709	-0.6759194714647015	0.49415907138992626	-1.399434086127413	-1.8434492303082015	-0.8429655411418276	-0.3693864932270872	0.6027305110972703	-0.0164779200733913	0.5977925047086755	-0.6505302770402777	0.07577400635423269	1.1671315402127609	1.3092874255502631	0.9008328891898489	0.48851805802030307	0.6588531119878315	2.046257729132402	2.37402295466901	1.1222363682069698	1.4737135134682569	1.7180231766240173	3.256014815692927	2.777714007040291	2.384564393698792	2.57110618895841	2.3341441095548507	2.0552079625692774
112	-1.4839000664439421	-3.435528746514112	-1.9072201203830963	-1.0423673365024917	-1.815229888147698	-2.06061505751107	-1.4077050650341432	-0.23479832649554722	0.8126924017414839	-0.9484226083651982	-1.18674850164242	-0.21328593736681636	0.14745803140127145	0.9715719794539074	0.28265839743775384	1.3519467081268848	-0.007465161364304288	0.8675446488411545	1.2352445094392908	1.6033543307831573	1.6336603123426894	1.1426452369451152	0.9560478901567068	1.772487516696469	2.5556011135428447	1.8281677915192687	2.2303130570368475	1.8940280628068449	3.448907128209461	3.383449307482392	3.0214826984414356	2.630236380612099	2.6446595125184333	2.387836211851542
116	-0.9381822920000613	-3.2626516736626208	-1.2392944066229745	-0.5268518911411403	-0.9401643848524178	-1.222414848102359	-0.875313577826209	0.3211749187943664	0.9854032372391163	-0.2815958850426703	-0.3331281534367338	0.4228437830262789	0.6440184100103623	1.1862049072834409	0.6631054861493059	2.051718468254357	0.6302943809808337	1.4645233117321217	1.141401049593215	1.800647850258794	2.2868876399475995	1.6424766737477374	1.1206662626582606	1.2136543958539692	2.477056973879089	2.4467174945092776	2.697449438914082	1.7947211220251613	3.2846136010211127	3.734946003067116	3.314592353081654	2.4302818713818284	2.720150225447344	2.4504134593131788
120	-0.3157459787503186	-2.661772959664557	-0.5757793173558062	0.12354551224510729	0.0406403577791774	-0.31777372876045784	-0.2841962866760433	0.8838756658172872	1.015496489821982	0.4750312852787039	0.5539324865660851	0.9626066064372972	1.0385193798547974	1.2119444578089698	1.072828528556627	2.5810859138172466	1.1616276473280973	1.6771390395736143	0.864778516493402	1.8827758979945557	2.7603902747079307	1.9047416400503037	1.0663974258201785	0.4724197673791084	2.1635904257508383	2.8867487834526266	2.7518668105265696	1.423336263877735	2.782590143807765	3.77580141067881	3.193155757471504	1.9909057566921962	2.5576081211366546	2.2657251300828167
124	0.32675108231063765	-1.7343236164174574	-0.061153083885291414	0.7851906995022643	0.9247782207028792	0.4648123669809873	0.29008451030924826	1.3452892269501509	0.9853482221521275	1.1821141213135444	1.3114172187120001	1.343788501207785	1.2786744800709127	1.1142783136845205	1.4582184516329886	2.8734083103112593	1.5270901879855934	1.4588947259309026	0.4728918063622153	1.86414682394491	3.003779880569261	1.9169690560579455	0.7691516260755044	-0.28316357660327224	1.7064669089148519	3.1031088750694558	2.396055930763895	0.8496371486193377	2.0534245916021003	3.5238239676199234	2.6957845619804193	1.402905699048946	2.2143671456696365	1.9065816354298744
128	0.8954138137144867	-0.7226950507991192	0.2348191285165213	1.3311384882697526	1.54187523929409	0.982273337745218	0.7628328780941738	1.6219253499089383	1.0000380252385135	1.7194231705169671	1.8197864248106934	1.5402889212820428	1.3490871156963604	0.9975597833242992	1.7647732451705356	2.912759058274042	1.7031712489042516	0.9261272526246747	0.076220996485436	1.7659367278336136	3.010460130720242	1.7154107050501077	0.28804242538207675	-0.9057096816084139	1.2054492204749048	3.089693300075861	1.7278276638276568	0.18046180858349364	1.239866849629952	3.0486893576897622	1.933289284593401	0.7864702920130716	1.7762658551192416	1.4487194978376963
132	1.2742528883233482	0.08127753416044795	0.3322641543105735	1.6715247588871054	1.812987561416909	1.1830928295782854	1.0595298978757866	1.6814085202680962	1.1249685259072861	2.0215372988206695	2.041204685779681	1.5578706225163397	1.2731293407721687	0.932392952472289	1.9482198904440715	2.7297639777881844	1.6972711043421218	0.3010290257483061	-0.23080831707855043	1.599867816700468	2.8094913888570336	1.3596714700702723	-0.2506754690040224	-1.3353087868355786	0.721669672097637	2.872103445431131	0.8871803261292256	-0.4733715939491235	0.45494186763342565	2.4383003650139274	1.03908622002518	0.23844948350785147	1.3203290667577372	0.9425209736869526
136	1.3837738002172446	0.46717470766372843	0.32386046566258603	1.789402003538835	1.7848448708293931	1.1284251184583736	1.1511894435428058	1.5607393940621364	1.3540564741280279	2.102277512010985	2.0355026670562846	1.4357987606037774	1.1071684332550835	0.9213131046876104	1.9933824488856502	2.395937198311802	1.549454804323171	-0.19041991185749277	-0.407613455220112	1.3720146382977758	2.4614994463762536	0.9184877253231007	-0.700392006059439	-1.6104930598605927	0.26746439866248584	2.5054886277837465	0.010118924987100276	-1.0211048100440285	-0.2485858195704402	1.7735247567222316	0.13255548443705809	-0.20139095136340868	0.8919954277406038	0.4152173389442002
140	1.241077896799441	0.40834835068601477	0.33097687280060945	1.7491252378171596	1.6134917695316715	0.9703730320272775	1.0811140509966457	1.3607675994849242	1.6217526156488153	2.0502655454369805	1.9377632092189463	1.245922085477396	0.9241989827664143	0.9187731719662094	1.927014942072316	2.0108139464154924	1.3325059380267372	-0.4144777645136944	-0.47059893489278454	1.098631975261194	2.0524864144957045	0.4652443814452286	-0.9525962447911231	-1.823919887706141	-0.1686976994785211	2.0707416482142627	-0.795671937840975	-1.403889294894546	-0.8678202011132554	1.118774768865734	-0.6955428701959799	-0.5507336841030004	0.5035235273046225	-0.1085753289104058
144	0.9723774170167238	0.07471540551395267	0.4482126522668856	1.6649640756532424	1.4938278160526661	0.8863219596419823	0.9579889154089167	1.2093253105148623	1.8453214121958696	1.98930656407691	1.8985227298487197	1.0781604024369031	0.7889552096474839	0.8818562008527507	1.8110111906104365	1.6772783952327475	1.1384272546635892	-0.37384042049436084	-0.4671211826928553	0.8171282389991138	1.6777117209991705	0.07341304402889853	-0.9784964894385609	-2.054451460419698	-0.5854637012005267	1.6608945089368325	-1.4546126090517604	-1.5969427783701455	-1.4130189383117426	0.5262512551372551	-1.3790503705492994	-0.8554517009117864	0.1510406579734182	-0.5851281270512885
148	0.7564583997701189	-0.2577361756016438	0.6999559980840078	1.6403899151394195	1.5621082743305919	0.9928570364680389	0.9075239277815068	1.2038254707460332	1.9671659419938325	2.016489023839519	2.0092520663077416	1.0087370847029395	0.735367892316043	0.8131719211074913	1.7135324434886878	1.4679906331192414	1.0470466587334144	-0.1810100521047535	-0.44115248211106584	0.5791556820552285	1.41397595048584	-0.19671995888157234	-0.8317878821353195	-2.3175282419820555	-0.9483202075857327	1.3554717268100016	-1.9187527846529904	-1.6064573485823297	-1.872104282420913	0.043589614221669064	-1.8682862473048203	-1.147851941071679	-0.16271160501884205	-0.9501823162884592
152	0.7241746764972877	-0.35821252970854583	1.0263043616132372	1.7092739300488171	1.8200449897590762	1.2789764372005825	1.0012314294331932	1.3585060800585662	1.9733480165250383	2.147482628168826	2.2488377037491105	1.0610129806433433	0.7556521277422777	0.7615716438139107	1.6706832605142912	1.3948698008606164	1.0862292023890656	0.015538268683363428	-0.4154748608113021	0.425576298354463	1.288951751315717	-0.31976461329789657	-0.6154206379611353	-2.5644118721112976	-1.2022899358912065	1.190621492240857	-2.1672146265626107	-1.4656577073286228	-2.202682966393106	-0.28736644910738574	-2.1307415908423186	-1.4210227692012638	-0.4173353899909461	-1.1417536706708158
156	0.8782082177877728	-0.16899950759657928	1.307716485536529	1.8167700721648055	2.127958292356914	1.6009477336517821	1.2077589004541198	1.5909059007532462	1.885166878709039	2.303995365047839	2.4870955881268153	1.1859450310328763	0.8095900395934023	0.7819982747361544	1.6645023780759778	1.4029462302072908	1.2106244533491066	0.10930205108941436	-0.3954107751399894	0.3617058387207222	1.2683085171149064	-0.3196622423207533	-0.4307446170898883	-2.724889986787917	-1.3059747186113002	1.1447023124404099	-2.2099745217793596	-1.2291874854525082	-2.353866809624074	-0.44124087579904453	-2.160764211921304	-1.63265275542995	-0.5817947373006407	-1.132864353180747
160	1.0902935238967486	0.16343055624230762	1.4192298614909467	1.8533434821066461	2.278650039641859	1.7508009627961443	1.4019267523656265	1.760388965930506	1.738450761220575	2.3569531381227518	2.5519065792504145	1.2812079158860494	0.849893269777291	0.8855808354907163	1.6349222618786878	1.3987413609475825	1.3185536828129398	0.07713907192543223	-0.38324978850878194	0.3531642249250727	1.273962256076157	-0.26247882776748044	-0.3357729903326746	-2.7596077849332947	-1.259725329079631	1.1521537274835476	-2.089450592487706	-0.9637780165181105	-2.2983732165482396	-0.4207375933038133	-1.9896737286877995	-1.7302811102097073	-0.6320024712818496	-0.95280253646617
164	1.1817227572169373	0.3725155284536385	1.2900872197958213	1.7251182751015874	2.116591209789788	1.5687551458805826	1.4330296480237936	1.7436898902738147	1.5691078861674728	2.2053737584700523	2.3299837053600325	1.245901581479645	0.8491216876526215	1.0174818013251483	1.5214095077249723	1.3035601344575454	1.30543446211242	-0.03158328674210206	-0.3879614760617359	0.34811335714188074	1.2287141053648971	-0.22508479597960523	-0.33228370463401047	-2.685577862634851	-1.1070005865758197	1.1422507734069876	-1.8722376776155836	-0.7350333314457634	-2.0522248693150904	-0.25949662858296263	-1.6846603112602525	-1.6813278155792741	-0.5657448158285592	-0.6788071376828442
168	1.0451167795497494	0.23142237902863733	0.9447038745870505	1.4233851396863273	1.6413786369844574	1.046108720045597	1.22204124618985	1.511377569197444	1.4113792145381114	1.85097836980793	1.850994105434111	1.047612902857351	0.8144733289182313	1.084685084465413	1.3131753173098561	1.1067093582821825	1.1311485738805747	-0.1410897370590964	-0.4199257482416998	0.31652033249096306	1.1069091530509652	-0.25148114498541724	-0.38257104061811587	-2.5579721863060234	-0.9044453478866306	1.0848972770002776	-1.6282497603315085	-0.5925222024262969	-1.6675895410396802	-0.011458306544401912	-1.3319104876269343	-1.4899245462947597	-0.4062856127494807	-0.4028679718336557
172	0.7293998580636853	-0.2996074549740021	0.5035907017391148	1.0494292947976502	1.0344328854193139	0.3602618566000393	0.8315785506233969	1.159326431208419	1.302687164832369	1.4237331116016474	1.3048688140349296	0.7627912144475809	0.7818447927762453	1.0191509697932242	1.07650196280486	0.8872364737044622	0.862623748985567	-0.19843725810018276	-0.47439518451126694	0.28195613551478327	0.9616463160077454	-0.32145026245021113	-0.44259092099979863	-2.421681397999612	-0.6794280392659018	1.0169484589650448	-1.4055086338797156	-0.5578719363432788	-1.202353236023798	0.2697367661341657	-1.0093120311049915	-1.189194676257826	-0.1909550572580963	-0.19211202811374917
176	0.428483455291398	-1.026529428751341	0.1398217674539908	0.776047347016804	0.5867843613114807	-0.18598811281453617	0.4616026568679363	0.8720365144647318	1.282011744123461	1.1363940210261445	0.9728379821057404	0.5600382671521709	0.79331934251763	0.8327224829630381	0.9374672150784964	0.7868247608346559	0.6606991870411539	-0.19475622425976027	-0.5189123140585247	0.322369544884261	0.908575055689467	-0.35273227006547603	-0.487179546318284	-2.2670597972852575	-0.405065893104199	1.0307835314475096	-1.2134965627550023	-0.619961558207239	-0.6878247243681458	0.5502293096001845	-0.7616206388317924	-0.817019996964475	0.04681747394900839	-0.06656575186135658
180	0.37676909470800546	-1.6063965518448122	0.007669958266622594	0.7628656010440727	0.5612530098096264	-0.29789498373160633	0.36338186172292986	0.8317165949803482	1.375634309156557	1.186073777065266	1.0994534464734145	0.6259501560619922	0.8707720019290145	0.6239601953965452	1.024571535384702	0.9428293681182419	0.7092465740416914	-0.15240320524838236	-0.49875259273491135	0.5345717058990239	1.0702984306015892	-0.2402183407440624	-0.5135830031779675	-2.0238664099140324	-0.012575328318317487	1.227866050481174	-1.0242673132785367	-0.7395647745533717	-0.11760707169880585	0.8229540565693965	-0.5902444705366009	-0.3953241099867048	0.2883945696225207	-0.006220035239251212
184	0.7082262617350024	-1.7246637300816778	0.17331911579719064	1.0690450641344167	1.0587836477250827	0.16769234793763285	0.7107871752913113	1.1182807655710827	1.577980752775625	1.6518533188122593	1.767429585762889	1.067919013188163	1.0009318564893084	0.529594002817109	1.4003561699797604	1.4149256908932932	1.1195367546426187	-0.09592047309499754	-0.35821396022001684	0.9800717209867079	1.5094156227149709	0.0869372410367416	-0.5265626894054203	-1.5994862277655795	0.5641883001388244	1.6616080957422819	-0.7897247056095914	-0.8606387355056239	0.5362869487573948	1.1014471026268282	-0.45907795313323696	0.07519634794085045	0.5310232625905695	0.025239918317251055
188	1.3660504783473186	-1.2677602735936466	0.5829697832647761	1.6132919747628889	1.960450405893234	1.1229354114791306	1.4982560835204286	1.6580796199897767	1.8435075236506446	2.4444189009939628	2.8415076660894325	1.8465502215494567	1.1435950965618575	0.6499695761482912	2.0209355303285363	2.145559067077491	1.861509318420258	-0.028138071227557442	-0.06697327626723762	1.6438311296921937	2.1875541154944127	0.622370062687242	-0.5168465362851148	-0.9388242936273161	1.3393305506269992	2.3018076361715267	-0.46560820819601906	-0.9239251590290075	1.2917680707742436	1.405682560232731	-0.31257605473755473	0.6029071792639386	0.7797440270764405	0.056316647536427795
192	2.1163117832157865	-0.39880850810450974	1.0801895829585135	2.2025814000786648	2.9744610711340065	2.2742164077560805	2.5209622319469496	2.2509484234245676	2.102417225297986	3.3349172984801676	4.012231816652315	2.775689118053094	1.2542228667064386	0.9879358981938731	2.74609851143835	2.9754192754009963	2.760240071003476	0.07027158868452359	0.36073613075731964	2.428642982073222	2.9722216054261597	1.2767974106023852	-0.4527603376401542	-0.07200445961654224	2.249082082792073	3.0392920894182	-0.032600972719137374	-0.8811041690515183	2.1272995418245197	1.7450089410593639	-0.10088277582685752	1.180725690721652	1.0320005390814608	0.09378061419889946
196	2.6632249288076197	0.5097127543931832	1.4682275019769808	2.618187182491886	3.7657358551317133	3.2445959962942665	3.455794087268001	2.6666884354974836	2.2938301505349297	4.052393426200575	4.924562441790308	3.598278274988097	1.3107451167392097	1.44371974103727	3.3982534322771683	3.711009254622912	3.567419043117156	0.22400800827213405	0.8708109833665991	3.1926669993855796	3.692803373550103	1.9175814341768218	-0.290136753780262	0.884773967416429	3.1698529640275304	3.732317438239158	0.49858811371806894	-0.7024608832743694	2.9776594563645786	2.1121616310198434	0.20446105249758703	1.771017189322862	1.2722859350507263	0.13376130129898103
200	2.796659939380763	1.0516160699996489	1.5916331966269592	2.714804404080226	4.101120461600012	3.73433994304057	4.0048727888083455	2.760090820973335	2.392598146119915	4.400955665921126	5.329278932467716	4.102128495349908	1.3276413645603202	1.868049974493527	3.840065469583331	4.209946621756161	4.0739431278368405	0.44391342885473595	1.3929092848896143	3.81094955435838	4.216880310856086	2.4329090056983156	0.004680158558592557	1.7778209402975054	3.9719729323240274	4.269868363090469	1.0973651381443363	-0.37828048968175915	3.759155502365124	2.490097516448704	0.6075949653543979	2.3130133093610086	1.4807343445586243	0.18478794349269143
204	2.4857876238051664	0.9785553788274504	1.39772951250043	2.4796726641038083	3.937480916572488	3.6411051658254037	4.028302182517503	2.5401811535598036	2.4139347015470025	4.337015617864785	5.18235968235037	4.215144623604609	1.3467398847910317	2.13837670740019	4.028501977286286	4.438899029015025	4.204680432194261	0.7184386831264549	1.866953368241718	4.226061810314106	4.505247581551369	2.7842123438158763	0.430868296727485	2.4853668150141144	4.577348220712594	4.616669643190221	1.728634114669432	0.08237080255215792	4.408778179481698	2.8650209831382214	1.0948492260947191	2.7505247523481953	1.650832887296281	0.2835608713620195
208	1.874248857534517	0.31157094161524496	0.9533858871231139	2.026076788555302	3.4167761716408034	3.086883060291086	3.600971451250828	2.157484525955463	2.393253797210789	3.972335805400504	4.647810447402369	4.031325806930035	1.4107574188853844	2.21767019665617	4.020236005169704	4.476748932026153	4.046717156683656	1.0218559477755915	2.259465211885731	4.463024128136244	4.618955123683718	3.0187201423723606	0.9452675557112682	2.9697587415102586	4.9899453990837275	4.818099486584248	2.3642718732269543	0.6546053869886377	4.9146857137573825	3.2370483793547042	1.6452883440439832	3.0643269938349733	1.8043818428259655	0.489443926767584
212	1.1874475449145807	-0.6824350935872282	0.4081610132879587	1.5293165406716227	2.7779962946372345	2.3430943429917264	2.9642636701129996	1.8169575883767954	2.3525919854848367	3.5047576338973094	4.005167474171372	3.7519919777555244	1.53482305616065	2.159627670557596	3.9275736709615154	4.461738098323817	3.7942819499540503	1.3278291191908886	2.5626230175168154	4.6011834028423575	4.674659240364368	3.232807151261775	1.474226471039899	3.2824387467480394	5.281183229464146	4.962135779250376	2.9827301426921085	1.2988244262328075	5.317474351809043	3.6182584671220996	2.235176557619661	3.2854747689266532	1.9877242991806974	0.8530555345932206
216	0.6131743773238012	-1.6290318924782763	-0.07648568581105404	1.1418632240076365	2.239166969368009	1.6968008236960312	2.4002213417488614	1.6656781392958486	2.2804582061412004	3.117040864704081	3.5117993266132954	3.574126711404664	1.6924852090066098	2.0618231244483276	3.851790180018207	4.512229431204151	3.6402399448040286	1.6130778748793961	2.7810645033239463	4.7207732081434495	4.773710715639189	3.506426802365385	1.9368278931354923	3.5215620905656975	5.539771542867669	5.12083338398276	3.5589852243213107	1.9603731582738002	5.681780800779394	4.019768704755845	2.8362464833176815	3.481517067702324	2.2513163032911923	1.3809887135925012
220	0.22893278242962206	-2.223988050567831	-0.3960282792583034	0.9313734746306247	1.9112013530161722	1.3264342512973768	2.0948078579465923	1.7185647444250791	2.143386358571624	2.897470228509176	3.2902221596617376	3.5860426335394964	1.8243663264943817	2.0039193579624404	3.831732025009034	4.662971961646317	3.672574272420146	1.8492044163746038	2.9182028696769238	4.8548202392076005	4.9435558194279015	3.8454143903919698	2.268585676187655	3.767238369013418	5.814665779691938	5.303806291540817	4.052816380758833	2.570218079753499	6.051758750895094	4.431907165781945	3.4078004274160283	3.716979732665699	2.616487973282919	2.0130500742632402
224	0.00893245169500325	-2.3577799737529883	-0.5374577627917617	0.8718773104589387	1.7814302399481219	1.2463723389628925	2.062576765574965	1.8636394692098628	1.9228283118338627	2.8211080956758487	3.2948529637119357	3.727851381426703	1.8662464571564668	2.0084662386730066	3.8353044889892725	4.85080956188008	3.8331677816887586	1.9926944920773895	2.974489919782005	4.974214064437167	5.123738275943199	4.166702736825058	2.4358851848137264	4.034241189307928	6.085226520433399	5.450421796389154	4.407720554667474	3.0532975119750025	6.417493803987815	4.8107294914856675	3.8913962742785624	4.010853757268587	3.0487189215934962	2.629491799391445
228	-0.10948818149341678	-2.131462091786544	-0.5675265774703314	0.8843254424656266	1.7602336362266136	1.336407538854594	2.164986604946532	1.939594621529691	1.6467927652743157	2.7912907529929516	3.365398636904186	3.8355336092432104	1.7816621020157126	2.0417292066523802	3.7924408816908763	4.95344303787828	3.9591843981918866	1.989678854687237	2.9552788659822418	5.010355936751923	5.20111845610672	4.336295593757717	2.4384636817401995	4.267713059140831	6.272980674164688	5.463188157593494	4.564467895427731	3.345547906058308	6.71044347976186	5.0794620385671925	4.214716423837624	4.315433014464687	3.4540369423444583	3.0876347940690954
232	-0.1558648492931017	-1.7692683890495673	-0.5818153009030363	0.8956318475045245	1.7541021064340498	1.4305815660597596	2.207058662564309	1.8393580867104373	1.394502636249727	2.711779587574801	3.3318560039322325	3.744243373954287	1.583107229050524	2.053463215411817	3.6475827601846595	4.859000193725856	3.884401311603962	1.8029291584271674	2.8796584533466265	4.9008107061630195	5.074577318730893	4.242660034912093	2.3049747885683156	4.3815264591220355	6.286942942958782	5.26424645048469	4.485883701442787	3.4162173184928	6.8308553523216196	5.147737966892127	4.307365406605417	4.529822814948795	3.7043940927438617	3.270923367825086
236	-0.10753944489030846	-1.4895924292149096	-0.6463274343384865	0.8790066220025233	1.719063277672722	1.4118396008131942	2.0548515267944203	1.576061840846571	1.261530992183898	2.5455067093477495	3.111174098742941	3.392421713847068	1.330159422377144	2.019676918652637	3.3994779500963426	4.529311645516492	3.5436825662788918	1.4484738074925523	2.780056946411207	4.631138789882206	4.714437472838401	3.8671708009357952	2.0873053021183665	4.314768780304987	6.07680128470638	4.844924914525553	4.182866562773017	3.2884833729687397	6.695656759523314	4.946072565942543	4.128349770613296	4.545972812619202	3.6883470918993666	3.134775392247196
240	0.06993776542172124	-1.4072442019219034	-0.7661702017513667	0.8542987682708068	1.6668089586136723	1.2619922129240055	1.7067476467910352	1.2733606067933132	1.2999860015472575	2.3268394411467797	2.7437939574585726	2.866303198253392	1.1040278645297974	1.9564622591213818	3.1036927621682016	4.0228109258175	3.0199053211260822	1.0163905594913556	2.6878774098244795	4.247436035876596	4.183726300167087	3.3102552807201677	1.8530321074431257	4.070703496192189	5.66280983448818	4.28000306002533	3.724500885143048	3.0439059657493246	6.280931456920492	4.459476936525327	3.690718641499702	4.303187359435789	3.3620645915024476	2.7236585548299663
244	0.3616978815006648	-1.5084421596589568	-0.8941025115327388	0.854773698079178	1.6316091973118572	1.0495657894338413	1.2850043741207882	1.0886605950526047	1.475350376218946	2.1278991645494463	2.358285659557986	2.3618018567536985	0.9730104779472848	1.8976877879868141	2.840585463027796	3.468890181366406	2.5086407598100897	0.654234288471203	2.613307946282891	3.8358132742357904	3.612951984820434	2.757932894419335	1.6747726159727165	3.717305174025351	5.129052626057955	3.7008082773232274	3.2257773794747138	2.804265253616322	5.639699444837055	3.74710320480339	3.0730504912036958	3.8242304228551225	2.7791232992578023	2.157788271224472
248	0.6713843328691265	-1.6986778931645587	-0.9706771349241538	0.8863161779914538	1.625736590095544	0.8711852409301989	0.9576877927442717	1.1167339058337773	1.671093578887889	2.0037293383553765	2.090033764330716	2.084236616594498	0.9656435822902253	1.8565067005968898	2.6691656045280947	3.008930913957745	2.219210619091856	0.5129927979868917	2.534540408411081	3.481422177108081	3.1425206581883347	2.4027066170111415	1.6165595013812262	3.3514616404794126	4.585842597827378	3.2405426420411945	2.8146498132214512	2.693895571582967	4.886413561881742	2.9359824583313756	2.408621781943717	3.2127432742067183	2.081545347680394	1.5960131843325756
252	0.851894674534506	-1.88314544679123	-0.971955475737424	0.908753810018697	1.6167077977370528	0.7854047993857569	0.838449416427888	1.331522819018294	1.7429256395204342	1.9520188520738844	2.0023293444624266	2.140036339125126	1.06393575399717	1.8010803415601921	2.593968623287895	2.734281056176438	2.2649736347233858	0.6766518933378524	2.405701631194254	3.2295057692052906	2.862035744116828	2.3564042985550455	1.7162450508655671	3.050109855580463	4.122249592863804	2.9783484860564426	2.5887193614450688	2.794450514413807	4.155496109961262	2.1864008848302103	1.8488217545561119	2.6125001841389346	1.4509408437335771	1.1843746870655885
256	0.7857944945523145	-2.0237028547691813	-0.9328669882109909	0.8538200833698242	1.5422968825501664	0.7788061479932677	0.9231506562767515	1.6013151366812501	1.5964541394935108	1.9131128739692929	2.0545704312903696	2.4806415972068305	1.219400402805099	1.6651779371181565	2.5650775367824687	2.6529581479802693	2.603743785006379	1.1142371864797291	2.1833436433981097	3.070335380431742	2.777812950750368	2.600197070232619	1.9705350349266106	2.837370626915307	3.7747976684633264	2.9109358714042557	2.5817091399814447	3.1125583570097097	3.554585447873679	1.6417856174979562	1.514533754339622	2.148878568945941	1.0407252285430757	1.0114833090993873
260	0.46058231475892486	-2.1432602351435976	-0.9302687621471467	0.6700741035709818	1.352747556132065	0.7805768827757843	1.0982785197185683	1.7681350663366693	1.2419365613099071	1.8097925140464357	2.1323697513148923	2.9293250963639306	1.3818842137733458	1.3936766350845151	2.510648482659635	2.699725621083018	3.061216585059867	1.6858955579154589	1.8590394211562913	2.9547223970200234	2.823252909208031	2.9985580368629625	2.3337891042914647	2.6851940087234665	3.5269369989993926	2.964822284842424	2.756747477247035	3.578828564191255	3.1348667065627613	1.384328600249413	1.4576325379763257	1.884271616946773	0.922074792441272	1.0879553528974029
264	-0.011899074509499922	-2.2891526164433458	-1.0379916403312883	0.3644381454326501	1.0508886549166465	0.7110718470740399	1.2112854688579968	1.7416405633823213	0.7937809804902499	1.6002594192156538	2.1179592555932185	3.274168244678466	1.525321956598151	0.9930152271948735	2.3810834824526976	2.779362194673459	3.4226639184368515	2.2061283532710037	1.477622862899915	2.8284664082640822	2.9022278712431357	3.369360676841693	2.7354972293453645	2.5446686680443236	3.334384432957221	3.03988479800435	3.0294570846365123	4.08096836967091	2.8883917258770677	1.4135419094636814	1.6492172437990784	1.8069814397966362	1.0664254400031523	1.3542876209398833
268	-0.45338615660639336	-2.4879441198476955	-1.2794363466385081	0.01034532857309511	0.7007940393874339	0.5313004241880753	1.1587964267084145	1.5503730734782624	0.4151748408325826	1.3096879687621423	1.9573950718097615	3.3750827227256837	1.6556888776938719	0.5521687255269895	2.177999490961041	2.81681107763555	3.5416977316128824	2.5320222313849685	1.1275799245975924	2.6645047597370057	2.939579002588042	3.5728032498754128	3.108454934855153	2.3841152130968988	3.1581702152624707	3.059961311244067	3.3090627109905126	4.514831531569897	2.767861597702373	1.654716368312172	1.999601716715102	1.8517630053497722	1.3686268295065855	1.7127180056245332
272	-0.7214412074947897	-2.7219188144626543	-1.6064447123976693	-0.28400340604603713	0.39914527434664043	0.2656868987528043	0.9425740814253134	1.3230668272946482	0.23962211548387952	1.0222829554496844	1.6884425835895702	3.2285180010345664	1.7989950134633452	0.21603345816428474	1.953274602726842	2.7894587446357604	3.408708325362955	2.6291570597072313	0.9064207650187891	2.476808303301714	2.913774006162715	3.5749108701093495	3.4145986947633666	2.2111742440663695	2.9876139088540947	3.0059845371646468	3.538474074012989	4.829051005569049	2.7183234622988803	1.9946311661905418	2.4012341438703277	1.9412865589720136	1.7006587939240227	2.069213861963237
276	-0.7899067977989205	-2.9444770738647383	-1.9206091117051884	-0.43051534782433865	0.22529636266570133	-0.014426318892176404	0.6610945446489509	1.210159775539611	0.3087566189123132	0.8370818474616142	1.414960380796465	2.955969564604155	1.9755779454897453	0.1163796407026258	1.7789802506354597	2.725578301224045	3.1428737561030924	2.5788114005783607	0.8752667881801784	2.3087060393218346	2.8552679943475376	3.4524156960106613	3.6542773154503503	2.0653219170878097	2.8405513691710707	2.914845936091649	3.7113749887223304	5.0393586031520865	2.701801531646014	2.3249235094499565	2.771511309302045	2.0220553823917493	1.9660402486754467	2.36669587491456
280	-0.7578016500413857	-3.119818202725023	-2.126772875184614	-0.4094343771134028	0.1972418869522303	-0.23562313556786665	0.44354301579071453	1.2919646468922166	0.5585520253384489	0.8115410784259093	1.2437022893022753	2.7251474788526964	2.1760852281942675	0.2998909942684828	1.704960937963759	2.6721930436378827	2.914338581356602	2.5238702233489096	1.026553747446348	2.2028474752122706	2.8135669160379058	3.336895934263136	3.852555265236612	1.9875148484594853	2.742532484759731	2.8456749844230274	3.8562099836264325	5.20324610350125	2.7021901539289686	2.5715799266738886	3.0712315958683223	2.075234169488931	2.126293892260408	2.591774457109963
284	-0.779545484005195	-3.2516407884517733	-2.184758657661505	-0.27944251824398414	0.2607764297100263	-0.3655461361715824	0.3694511940688276	1.5310866794076932	0.8588924982320482	0.9270452237565427	1.2221651046413806	2.6513125829514648	2.3549730718283124	0.6972748023548457	1.7295618013583738	2.6546685628624256	2.8434667515489638	2.5843398505766095	1.2842946020125947	2.1720318739411955	2.8152682710140793	3.331129542523544	4.030788411454097	1.9893095443091413	2.700865261888246	2.835001461500757	3.9978036779558326	5.370341287405547	2.7130985191510613	2.7010850838176226	3.291958800587529	2.104207748822518	2.191957945057879	2.7535390784361655
288	-0.9587315296762984	-3.3809227858060313	-2.1319360679206016	-0.14473780953104126	0.31743740955316185	-0.43158063183539724	0.41974016918066015	1.79268574262051	1.0779828998052103	1.094774243451781	1.3098821606943303	2.7321906020801534	2.44576525070675	1.1489269704421337	1.7983128979102578	2.6510970525565014	2.9320363924386283	2.789213650337063	1.5354920586919198	2.1863994543187393	2.836971991052056	3.442965498814672	4.181609620027167	2.039994949912374	2.689191811447748	2.865325205244387	4.119714249700039	5.538036332453349	2.7193372180946604	2.7063627174712903	3.4254107388797452	2.111087793742281	2.1903092805875546	2.8534617351968246
292	-1.2755318847877093	-3.5566098600237193	-2.063308233773802	-0.0996163559425122	0.2739775173899383	-0.506266771468839	0.48642176266884524	1.9179669570182556	1.1373177738085414	1.1979548900876373	1.39672684316855	2.850222580389329	2.390942567510814	1.4777277670744549	1.8300427152205898	2.5963139468445955	3.0624873560832704	3.0622203272753508	1.6773878293602786	2.184051984994832	2.8086707521098377	3.5730349927337146	4.263419617379211	2.080195898526086	2.6526076726698746	2.864710085311858	4.151468743333246	5.63915537364092	2.687331192861137	2.5870714122304794	3.4375355156893432	2.082196707236855	2.1331806129003694	2.863140098972438
296	-1.5941865403934008	-3.797852268167082	-2.077460045337803	-0.17926587119141726	0.08819050319578597	-0.6670411212292436	0.4371300328662319	1.8102489664149732	1.0331437561653665	1.1490341395931694	1.3587002719907542	2.8409502434529004	2.17287969040634	1.5714778860470482	1.75744068178878	2.415579551320071	3.065830938228149	3.2650031961023624	1.65905952034741	2.100875849187986	2.6480534009833754	3.5655805974583457	4.220242966487245	2.0537350125913068	2.5322565968476334	2.7402737071470256	3.994248141694668	5.573501572842324	2.572910540760495	2.3403570592919722	3.269911519377934	1.9917806336660004	2.0058262297532803	2.728627674843055
300	-1.7468537048105046	-4.074278344358212	-2.2208318654256534	-0.34610989602442616	-0.2141649270610998	-0.9540498232595908	0.19547836433171328	1.4840264282905469	0.82112610132804	0.9309272146563181	1.1203919620836968	2.5881321364862244	1.8289575530605486	1.4296200239326706	1.5604441126526645	2.0701198525615356	2.8192396092761474	3.270373574583066	1.4970531425826088	1.9042531203829578	2.308278316392006	3.2957768357036215	4.015708913201153	1.937310213919797	2.296809429091861	2.4292683540046265	3.575395098242282	5.267159925513956	2.344525092881302	1.9699120471809912	2.873121254342746	1.8212938262732572	1.7839846565981667	2.404091352115067
304	-1.6393076140023204	-4.317230690546573	-2.4603164133897386	-0.5169495927156712	-0.5556502924241747	-1.3454548086529188	-0.20622947760012444	1.0542563173379536	0.5842034205945777	0.604281483555055	0.6949763876534648	2.0958955235017074	1.4427761995128578	1.153916713662263	1.2783569065243512	1.5920054872372864	2.322193616726136	3.0281238479455426	1.261135932599324	1.6160366494385765	1.815953846161312	2.7488341262080542	3.662593832305574	1.7529828504172833	1.96646558741949	1.9432995270302857	2.904624693212792	4.727691161617194	2.0107819983259736	1.5072147808168408	2.254468912154693	1.5815134008532539	1.4664568864037535	1.8952643823456548
308	-1.3095920052842962	-4.455559242443421	-2.6976959637242506	-0.6108273252324065	-0.8425595739072874	-1.7593245461867946	-0.6297674163177049	0.6780130846071513	0.4017049660077346	0.28128409314663744	0.1858196700888262	1.5022315941076205	1.1171164484429799	0.891268727913337	0.997512934073624	1.0906639071584476	1.7129100517895146	2.5913829738040666	1.0413756344252225	1.3138951029983466	1.280346271143352	2.050251478740849	3.2322094358854763	1.5582976301904325	1.6169768531028896	1.383804079376714	2.101779217181921	4.064713467825964	1.6346057612157296	1.028766629482692	1.511956330296752	1.3199140992218585	1.1003559800023248	1.2890210119127712
312	-0.9060175395979015	-4.452276695454638	-2.817978851833041	-0.5902228936552467	-1.0010645364282436	-2.0814795441527285	-0.8901796318467508	0.4827427851886623	0.32915422237262454	0.07930020222908082	-0.2509450906139831	1.0263564560726395	0.9403254366021944	0.7601593713641683	0.8190155604665168	0.7227088194720275	1.2159113853273356	2.0936989731379905	0.9104957557578598	1.1065127821642096	0.8641909339066897	1.428170438975393	2.8351292538588324	1.4180349075755068	1.3569931949686969	0.9161299443956734	1.374617811547124	3.4597401531607477	1.3200939860393366	0.6500732286252939	0.8259282687315346	1.1050850125068645	0.7775794844068872	0.7423123698566458
316	-0.600387035284553	-4.318792332235746	-2.7454576422993426	-0.4728153336031616	-0.9965630148522369	-2.205999607238614	-0.8408895113695423	0.518766223074549	0.38918113610237304	0.07723409663012548	-0.4653987276724848	0.8757332541290129	0.9598144268598436	0.7983148673882878	0.8209089616076715	0.6345990284156443	1.0464497778221407	1.6952043728943977	0.897656378863854	1.0911703082191808	0.7246329170051641	1.1226978273656558	2.582282298244158	1.3740315402625933	1.28550302657772	0.7090490442494045	0.9484497880831472	3.096205226710421	1.1727457016899807	0.48988708730037017	0.4010194827922259	0.9953730081223007	0.5990715607776813	0.42571398508354646
320	-0.49133005614209446	-4.101209153311213	-2.4793794092522536	-0.3112688950786083	-0.8332954028071726	-2.073217148314824	-0.4426497805863657	0.7535080294658307	0.5668145999902869	0.2913236014640331	-0.3706297269046735	1.1562629908932776	1.1714017361629783	0.9548141336176158	1.0291842196229342	0.9008043385650737	1.3168412413728663	1.5245348176612346	0.9823698376648656	1.3102546897232359	0.9474997496524709	1.2830003467592097	2.543906920686017	1.4276925289347906	1.4462066852295996	0.8636335708748022	0.9755328272985215	3.081998817291943	1.2490614621097897	0.6178054197925777	0.3810427179252887	1.0075274680449218	0.623967705581768	0.44625127202853626
324	-0.5594664797962842	-3.853139867591093	-2.0942466206128043	-0.15913951356763273	-0.5441343174547757	-1.6944433407918271	0.21429341977374994	1.099367734994444	0.809536693436463	0.6742900592945905	0.022172218132663984	1.8240007116042525	1.5233142337486059	1.124962327024245	1.4063444102066458	1.4827282391306165	1.9852414081042022	1.6359770256699702	1.1078335018798082	1.7248231129014049	1.5016879997486414	1.898048515296084	2.7228159835735486	1.5418744048290651	1.7990143253682038	1.361112471958724	1.4646781645988571	3.4012091073948283	1.5210224351627781	1.011371490786071	0.7777997831734208	1.1044733496437238	0.8329081514310446	0.7889344672311545
328	-0.7007171493958678	-3.6145257858571096	-1.7078381733690924	-0.045721869800287175	-0.18197151972603665	-1.1558265656853342	0.943471965791943	1.4540500604157907	1.0388481590745482	1.1325552434937223	0.6018888935151666	2.697698586328614	1.9297544907485658	1.2084737985617509	1.8606105995886038	2.2278659287471276	2.867557041557722	1.9928123900644577	1.2081637352004122	2.2184736672657137	2.2351696434808845	2.7923872400354712	3.0522706431574047	1.6595371919694342	2.224470848189293	2.0545442052467346	2.2655858936329727	3.918973435997877	1.8767692995371257	1.548870678805847	1.452789422181974	1.2109831541004594	1.1293770046330331	1.3124276366476815
332	-0.8079305270777557	-3.4096109781011545	-1.43308901424984	0.027934662927194383	0.18483231915061468	-0.5982711896096582	1.5346147975323305	1.732670898831298	1.173913118259604	1.5538375338424402	1.1906472414473348	3.5250053316763887	2.290688985763197	1.1594974965384925	2.2735216560183327	2.9144337103694236	3.7055232431316356	2.4805343088465057	1.238554951401758	2.6345529489758346	2.9195108339985727	3.689570417625648	3.42018364996472	1.7297824577527752	2.5646264488319477	2.7132182052774683	3.1182758729407087	4.436779964689321	2.1634020750738236	2.0484607167977384	2.165223354594982	1.2510197131042962	1.3817558253688238	1.8059048607054211
336	-0.839008925226982	-3.259007207271676	-1.3369972672085129	0.07497762869739936	0.4802759873662161	-0.17592571631360462	1.8324055625428102	1.882667655959917	1.167113420400795	1.8388825608556199	1.6030417640267443	4.073643674102246	2.5152790482912546	1.0085031960774313	2.5397007401241267	3.3288791095610866	4.260681618423721	2.9437084123676556	1.1971020668323442	2.8366258072760746	3.3305809413744165	4.316009033750341	3.710234394242788	1.7313944057620112	2.6882781914549376	3.106681815886851	3.7492277527563997	4.772824752201485	2.257166141533259	2.3414773881923416	2.668221943794393	1.1904500692829156	1.4883955679508416	2.0845131821455576
340	-0.831075904655275	-3.190609447053128	-1.4219927751878896	0.103895850217291	0.6350439174831245	-0.006098834782341905	1.7879283383051288	1.88523506642249	1.0333757374422465	1.9277383040394838	1.7102791027757713	4.210014332632454	2.5447812016133753	0.8467146136840895	2.60317634878955	3.3451044475022993	4.395288933147347	3.2324232973503904	1.1275817127369312	2.76537203090568	3.332697383095758	4.499332416618794	3.8401234052979065	1.6812515216341541	2.5502088005529187	3.093238822756729	3.9709560770867265	4.828750121322982	2.1237008518006464	2.34229921703243	2.8052632737859216	1.0566562387491305	1.4257659876112245	2.07035588695425
344	-0.8526493885447465	-3.235412827906197	-1.632802601506537	0.11311467708400746	0.6103837474671079	-0.12563396958579698	1.466484900586727	1.754218573909647	0.8508903362725764	1.8171609594242557	1.488056059895058	3.938630332539435	2.372131341667194	0.78088742297428	2.477878802719177	2.974499456525145	4.11271761809539	3.2496170915574685	1.102023002703194	2.4671308932004146	2.9328854009966654	4.22365855104283	3.784518232327334	1.6258732039410242	2.2170195523554446	2.6770400933387797	3.744444360815962	4.615890014438527	1.8389271451297993	2.0827894158230054	2.564147465907742	0.9265621281118579	1.256092306780454	1.8195003225164939
348	-0.927949187796924	-3.4016711625999605	-1.879399294876555	0.10361022476024848	0.42596518885831813	-0.4687758672322872	1.0158883307557462	1.5370364150341511	0.7295324783979757	1.5663739403278176	1.0304896805495087	3.3922526750749116	2.052280182425302	0.8835021831140675	2.244600528772015	2.3648788869278143	3.547058573350446	2.987073890773793	1.1885874241383874	2.0790433831176194	2.2811703624351787	3.623278370292409	3.577198496370053	1.6205631453606808	1.843850727194395	2.008443827326628	3.1811466136724786	4.235108841693853	1.5569601019650496	1.6940040545609416	2.066621059922054	0.889951405662482	1.0919260951130247	1.483861323424936
352	-0.9959445570596089	-3.6452252772804554	-2.066785807159797	0.09430924779207774	0.16929499762230724	-0.8836258627516641	0.6079447850137014	1.3080354895945616	0.7532006483135001	1.281930562597482	0.5177921639720889	2.7760102678783327	1.6906263785593374	1.1560457915682645	2.018909210829868	1.7420391992455726	2.9063150809343545	2.5312032635678223	1.413755532510017	1.7697346165798233	1.610138173806496	2.9183511660327506	3.2912328160159974	1.7001897053708248	1.603742118601087	1.321387526036986	2.4841408666834695	3.822139253503102	1.4319645130243466	1.3382337059566118	1.4985116682365802	0.9991808508441626	1.030326125404658	1.224072214850799
356	-0.9375156140499318	-3.862877120755596	-2.1225590652282116	0.12426609514571949	-0.027890222076691083	-1.1857501238449528	0.3776780655385352	1.1485753030388468	0.9292398071669871	1.0821933719015135	0.1479168232521105	2.289348596514872	1.40794551017056	1.5197231731192447	1.9022333573951984	1.317946311484212	2.393735879576515	2.0311758466936736	1.7367320016881713	1.6618318515782038	1.139200684532242	2.3242616594760417	3.005506507914755	1.8557259989615928	1.6025953252385037	0.8352206924332016	1.859335656240077	3.4876921088854638	1.5343123635655036	1.1278389663831323	1.0204964850409868	1.2348133294400743	1.0962197752932241	1.1237013311625605
360	-0.6550263745936233	-3.921881904236994	-2.015822643912612	0.2353968465345482	-0.041085008428079176	-1.2291022508106946	0.3839574148497688	1.1172170610831067	1.1764452427725591	1.0533372137178374	0.05973245933472089	2.0574099965603	1.2939687934630844	1.8412485076193608	1.9380615900699385	1.2057404487685421	2.1389598792432003	1.6408040482102733	2.0525700994167577	1.7739251807248217	0.9860724781889647	1.9745680043912208	2.77431201234368	2.0297546335472374	1.8224813892127638	0.6656135899904773	1.4386289083398571	3.2813632405404274	1.8057471468157436	1.0732408734881422	0.7053030711486632	1.5065954885591881	1.227415081739942	1.1525897950636232
364	-0.15203858873605067	-3.717754593045823	-1.7631591513940932	0.44175922759102504	0.1871929909033063	-0.9666057800684051	0.6011165961347618	1.221361276403969	1.3620603050175493	1.212423679151754	0.2779892079964174	2.0952742046861372	1.3676016296190372	1.9856299111778675	2.0921199268925874	1.3773171866928964	2.1619775240672885	1.458431955470035	2.228668922519514	2.0102660605221003	1.1234998674637284	1.8857883167338982	2.613001101572362	2.134305233335152	2.123085016612382	0.7830918411510875	1.245299812987512	3.1904768863234825	2.0780301041589957	1.0847735377580363	0.5274030552899868	1.6878113704029927	1.3069580760383217	1.1961791485149722
368	0.44187322147387015	-3.2370824732114296	-1.4223625624031424	0.7049210649812623	0.609830735574278	-0.4725080418577979	0.9392889118321672	1.4074321949710504	1.3756771052913976	1.4957914314651888	0.7052181345300728	2.3165776671095775	1.5643160303674983	1.8766037178343578	2.2684302272744734	1.684345598736633	2.3808252751321826	1.4898942671352902	2.1640410368642025	2.2069921437809077	1.4024207556602777	1.9739284465543956	2.5030393537268196	2.087851995918866	2.3063094557707564	1.0391789648522165	1.2117963998717216	3.1677522579323703	2.1515572016753843	1.0289754841574577	0.4048609723359786	1.6704239803101728	1.2275712459088592	1.1320878238705738
372	0.9256852841847809	-2.5844347411708526	-1.0729974481194942	0.9383747553975551	1.0863889428366604	0.08843718446814672	1.2852709260915507	1.5839198787753397	1.1970764368351554	1.7843066408884303	1.1679797143057733	2.5834550792317974	1.764987225844739	1.5404396018236546	2.3573257863609465	1.9356268595463004	2.6600272588327827	1.6566765266553065	1.8447916461144436	2.2157473508205707	1.632671352079073	2.1122469848709464	2.415456050496408	1.8573346091107297	2.2162823621107237	1.2489378420768376	1.2362046210549087	3.1695983329856925	1.8976473760377583	0.8103398660227836	0.265242486522481	1.4157583677787031	0.9532018875851568	0.9074728466010632
376	1.1318180532490014	-1.9506657074316098	-0.7887218574637774	1.044476625666478	1.4433901273524943	0.5328336940664063	1.547595497038742	1.6694265561870196	0.9171182490081989	1.9572280595955225	1.4968725405093954	2.775359861996186	1.8580856276330036	1.1090788813246009	2.293533557823276	1.9945007512281026	2.878032200222681	1.849515194991678	1.3665592635938368	1.9844745347464583	1.6823064046347258	2.2014775220602116	2.3411464632053844	1.4850106201825934	1.8263609363221094	1.2893155780665073	1.2467610804551361	3.184841386383487	1.3350434269577085	0.4371088434150678	0.09964054797764933	0.9791244839743289	0.5478034601685955	0.5776783213335557
380	1.016795394237648	-1.5376660784999685	-0.6133291705858921	0.9647946333368328	1.5547537764396142	0.7364617567541992	1.6854603248004079	1.6375807482382478	0.6962137800758779	1.9488159368903206	1.6006058414102138	2.8428256439913784	1.8006094648676554	0.774734793137519	2.093498939950629	1.847427959546203	2.9807081147278534	1.9936101386281173	0.9080317593537109	1.5921046693659422	1.5448315104581958	2.217329973344651	2.306641334432028	1.0837229462918778	1.2658232418526265	1.1624187201715592	1.2404630152854903	3.238472691942661	0.6392835958552939	0.03515817588631844	-0.024051422192527074	0.4965934740880189	0.1565413173061109	0.28525787519913515
384	0.681640444465089	-1.4721276722933667	-0.5494032488303279	0.7168388944647224	1.4025472367161718	0.6824783665592259	1.7132658915179253	1.5329650601784024	0.6782635433238651	1.7802157357092447	1.4999376497545864	2.8229496407761796	1.6453002649729083	0.7086586338271115	1.8522933674776447	1.609687681902421	2.998226635038848	2.0879356808399194	0.6596042497193945	1.2174226014871554	1.3408071960929366	2.2151145879132326	2.365401262033307	0.7977175692445017	0.7690907101286977	0.9920554136024786	1.279073592771321	3.3712003145933958	0.07594678531783913	-0.2006563390195679	0.00508665711266025	0.13777533138776168	-0.05302369208657749	0.19044624220925582
388	0.3089016072103633	-1.7510377124445944	-0.56589960909065	0.39309143920834516	1.0853153439776766	0.45828691009209754	1.6817101197698983	1.4445946180110745	0.9075788236592063	1.5492347439752159	1.3068901267434494	2.8101603913883033	1.515301104534523	0.979953167348549	1.6999416308398958	1.4652261697015385	3.0184521598901273	2.1957528535718573	0.7389727216183125	1.0556981536914298	1.2530970541787634	2.2918894233059426	2.5667347843216195	0.7445340733803946	0.5696402773780197	0.9558282470412639	1.4475663863827828	3.6086387543167975	-0.11301109166222996	-0.09583155786637834	0.2799962751948718	0.04407616321045186	0.03896473710832096	0.39238598843688716
392	0.05557157085216506	-2.247134441424309	-0.6214475616023825	0.11785460978793308	0.7671225051585387	0.20389571734448098	1.6457480150633306	1.4496716224309345	1.2982041803008408	1.380400654168632	1.160948392797952	2.8965392039601348	1.5348979195942987	1.512483712192393	1.7362252429995704	1.569290753217182	3.1296198289057204	2.3911359249779767	1.1338356704695545	1.2223334281578013	1.4275641405302686	2.525074475588911	2.917686216617315	0.9626396870150641	0.7884078601958934	1.1865670651041818	1.7969031288555897	3.9371094604271857	0.18139810814358392	0.41466319456312245	0.8178103545522012	0.2751103632656792	0.45295822506030886	0.8795189239230744
396	-0.028889076711315215	-2.769449703853759	-0.6899976712925913	-0.015396171210577658	0.593258558205993	0.039857659388285484	1.635602827711015	1.560855146281998	1.6720144706473437	1.3599842752452638	1.1558015317345915	3.1122152726752486	1.7530929998005502	2.1059861129995467	1.9765725085899564	1.96238648395994	3.361482134915173	2.695286267151355	1.7007311539625973	1.69166838695667	1.8893713903408798	2.9180834219690954	3.361874810313962	1.3893142903537077	1.3720263208081223	1.6933908419770405	2.3004527033899134	4.299688805214886	0.8819069840099711	1.2408215968275538	1.5336271485708959	0.7845281938772585	1.0988198491010517	1.531487461038151
400	-0.011578177072678027	-3.1489143292079587	-0.7760455588774653	0.008532499872957287	0.6170369967140735	0.011275500030659906	1.6427288013945007	1.7094196038002802	1.8485562754689524	1.4901372156667814	1.2937847343204827	3.396644583709453	2.101976866183497	2.5175368722296456	2.3376152456392267	2.5392632420325802	3.6553845313289024	3.042191497751334	2.2235038224348984	2.302040809541299	2.51773166020828	3.380482188272964	3.7882389926633993	1.8827797126918118	2.111820215615432	2.3432266653027933	2.845982067552135	4.6140851857992855	1.7523419812782763	2.158511871610218	2.258604520817347	1.432850476462051	1.8067923738638858	2.1682429258916796
404	-0.010020525169405138	-3.303872338536576	-0.9095070935174665	0.11993894695756306	0.7768516520913725	0.07567666451897966	1.626742120450366	1.777512903494084	1.7410685972125006	1.686469193015329	1.4899731836847736	3.6175925640323503	2.416866534806812	2.5683085853582956	2.6704268388083574	3.0894477289400064	3.880793561674106	3.2962968266233292	2.5065834458962164	2.824563257715465	3.0925986688734577	3.7540349865546876	4.0684351818363425	2.278539413421435	2.7339315345403574	2.9128332064519555	3.268266431186287	4.801691520011904	2.492285006906438	2.8886532710576818	2.7935249734920715	2.0319461771208056	2.384319060981516	2.6170012884824287
408	-0.09613329147863077	-3.255209676153334	-1.1204099626863735	0.20389293082734478	0.9361223554818247	0.13782480324280036	1.5392421445131401	1.6645176368650019	1.4039483034927247	1.8216345264219331	1.62104475088925	3.630717029941597	2.5128414567446744	2.2276441994691227	2.8267252373852996	3.3900015268567185	3.8928913971843335	3.31685899850745	2.457595580571901	3.0622801703385543	3.3903818044894254	3.87436841940212	4.107182015539786	2.4538659987484315	3.016251079573419	3.1854514995258674	3.4084756288303395	4.8134369728631095	2.8550116943756505	3.200708142782636	2.9751524850116553	2.4044504104942876	2.675497763554466	2.7654247214115286
412	-0.24002703963713878	-3.093082181750655	-1.4091657364553212	0.1633787598061286	0.9619911884815451	0.10842750939173605	1.3509448732600295	1.3478211130445275	1.0056179736497184	1.7918034746707723	1.5908054073224085	3.350811234597266	2.2787203731225167	1.629900212941172	2.7257842948758686	3.3051071083546253	3.6037824062913386	3.031895868275985	2.120016331088513	2.931693069685589	3.282086125670438	3.6414563563915334	3.8796887299813387	2.3719592034535175	2.876191131959507	3.0452723426227055	3.1761393466868295	4.642383086881404	2.737019770387663	2.9975774212495936	2.731518500107363	2.4394156871241486	2.605481618025063	2.586923831130388
416	-0.33060923135256304	-2.917958967471119	-1.7300521091650582	-0.027489231829977045	0.800488648777758	-0.04485961783527246	1.0704265805875328	0.9030760503856626	0.7419833522183163	1.572532888256909	1.379484411571458	2.801159136375629	1.7401256517345347	1.0147278283248993	2.3913576542559816	2.846100561585649	3.0340754909206282	2.482665770938292	1.6458634096553244	2.4911444124268955	2.7886197496580203	3.068811170459394	3.4402959259912116	2.0884849972447825	2.392441266695262	2.526324742614563	2.5893728667687363	4.320535172044578	2.205274337922818	2.3484625757052235	2.107332939549491	2.12812733112907	2.199149364641163	2.1358458941894165
420	-0.259925782024262	-2.7936601568260806	-2.0007269331963307	-0.3103317014488486	0.5071490394185769	-0.28090572286255855	0.7448824625282271	0.4696635592046859	0.7359524350658795	1.2344826428716953	1.0526895496493434	2.1152477210999425	1.0547955009532304	0.6197680219261419	1.9413146923642766	2.1647665445985766	2.3178112448347346	1.8144308282818564	1.2240848510354594	1.9064240407494861	2.0693290181366524	2.2883968295495016	2.8994429038276817	1.7211112932620336	1.7559694007408588	1.7950050785521543	1.7761212542513816	3.904826154386867	1.4555040561167705	1.4575674497043953	1.2506899802102314	1.5668071468849516	1.5696035583921735	1.5208995303855617
424	-0.012323891712902765	-2.733152621044399	-2.1336610263360463	-0.5753918275610997	0.2173041546818819	-0.5092055784720699	0.44458874947833615	0.1804776187154804	0.9770779585011329	0.9108099318396777	0.7280423026777085	1.4889897070484626	0.44230380542664044	0.5792856797851554	1.5358946284617163	1.485664602343418	1.6567147928371557	1.2161819904139328	1.0004233096613688	1.3743189538589746	1.3525618280594138	1.5086122713147163	2.381984227842269	1.3985342944121555	1.1797563999907619	1.0783983441782459	0.9363889670572318	3.46257304271048	0.7262547593854076	0.5857006296629107	0.36923310067414505	0.9256489849562044	0.8847638942314874	0.8762576557924229
428	0.3057576112180112	-2.716868155295719	-2.076325172904145	-0.7184132915478446	0.07337071728063428	-0.6388375146949211	0.2394810163888912	0.09876690034964039	1.3321921791774316	0.7338533382961242	0.5196389542811469	1.1064211102207764	0.08839067049359756	0.875371096308272	1.310901757745284	1.0134522889299264	1.2451927630457658	0.8455839135755551	1.0260115835988397	1.04355144237261	0.8447325208317329	0.9439000463496391	1.9900823781313477	1.2123879163649791	0.8142405727809712	0.5758405909304807	0.281401365284937	3.063297502413012	0.21057592279197818	-0.03976578255388648	-0.32807919300216976	0.3946992446947796	0.32262810983264384	0.3383859387437411
432	0.5170213567077996	-2.7273466518207767	-1.8416095925564984	-0.6912337524128226	0.14873035214543465	-0.6260220392634099	0.175876155051599	0.19530169616504509	1.6193076331263019	0.7732503394631358	0.4877884077631273	1.070814606824041	0.06995679420451774	1.3594113554011293	1.3260595765012646	0.8580909349711324	1.1976859539310898	0.7739668468961718	1.2524328200190635	0.9677399968509723	0.6588849408680612	0.7428403477987333	1.783186550406639	1.1912733286344748	0.7046378237100047	0.3929594745251456	-0.03038023590821873	2.774097912460187	-0.00019226700484638675	-0.29282858893848956	-0.6877648217002978	0.12249360202618642	0.02329132141252857	0.023442152828397032
436	0.48113658902763273	-2.7704493929534078	-1.5101675949115585	-0.5197467790832734	0.4107916046738342	-0.4945664691359375	0.2625897520111274	0.37612017894197414	1.7013808445890088	1.0071456406914545	0.6181178673397014	1.3709919418053018	0.336999355895832	1.8284380389779982	1.550795670408653	1.0094233725811508	1.509904857638052	0.9737448071690636	1.5676771362778965	1.1064723702151538	0.7912331799557585	0.9428138709106394	1.7779419377260939	1.3034423556797665	0.8023312071570476	0.5235046731129396	0.0619108414576981	2.653215640045049	0.077008567556026	-0.17136053697713866	-0.6498035176083662	0.17042238967306497	0.052098102736068234	0.004727369628087055
440	0.18984003317109824	-2.870054476167505	-1.201971408670331	-0.2844895415275978	0.7395708542271234	-0.32093524851832966	0.46969550729420484	0.5412157164260727	1.5520107706939763	1.3380840982986033	0.8366422632075056	1.89520155905022	0.7546490411778852	2.114673370744337	1.8890929174411921	1.3653573955396203	2.0688824601391227	1.347782131606943	1.8483105851238086	1.364512559306707	1.1478210658657633	1.4668546878019801	1.9586062381885396	1.4796882830454572	1.0132043336082868	0.8780077673678992	0.5100850450035104	2.737069361451991	0.3514911225504517	0.2266939872740272	-0.25645089084727474	0.49803808205747035	0.38417333267492254	0.2928421191928194
444	-0.21594330613928958	-3.0418414992780964	-1.0302625868534878	-0.07809531668973013	0.9905973051810196	-0.19390176187673996	0.7382956128553736	0.6380469782932611	1.26508855500298	1.6438519913178122	1.0504801246823874	2.481999867848543	1.1762391299114463	2.1465265696690423	2.228577608203949	1.7930737688570182	2.7034737995556104	1.7771457388831944	2.0038855025242936	1.6445997911892765	1.601182933579472	2.160002226144419	2.285290712308809	1.6443365770786127	1.252110478100932	1.3379540409640318	1.1794518202567286	3.0219120903013135	0.7109690290620619	0.7558032255164019	0.3677124669804745	0.9843553875866105	0.9147267914565586	0.8238793590725535
448	-0.5229609595446713	-3.266621104576061	-1.056587216570655	0.036056153385205215	1.0669051381830934	-0.17125225023901636	0.996430156099368	0.6783180219690522	0.9994896029033197	1.8351727677741658	1.192182537883583	2.9822156353997062	1.50590872384382	1.9577414940043214	2.4881837305190873	2.1891548578304594	3.2497794546094267	2.162480348849344	1.9998396584564444	1.8867424678850537	2.0460772462684775	2.846548073257493	2.696671002255281	1.7419217780956615	1.4758474789551177	1.8058731510344808	1.8947557163084259	3.449618092410547	1.065981981447143	1.2788275447983093	1.0563514205965188	1.4775888882524788	1.4938231668903854	1.4659782611074155
452	-0.568897663110638	-3.4845976741551175	-1.2657127348414918	0.044277537502317096	0.9645479297127303	-0.2530992918776941	1.1788634032049914	0.7129550558209637	0.896377501608782	1.8932625007512827	1.2483488289786544	3.3064494049515782	1.7214233831812895	1.6526652532813397	2.6451382570240605	2.5127384599187628	3.6045186428617457	2.4453639922391353	1.8553484631425388	2.080610508434097	2.431495421946391	3.3863973532055396	3.1130249421678333	1.751612658846646	1.6849685864822523	2.2317440453450024	2.494041198155666	3.911661138195294	1.371471163148086	1.7059724287830436	1.6510102707186847	1.853213663190653	1.97574722268048	2.051853890006945
456	-0.3390178075814097	-3.619323244493679	-1.5746184547723343	-0.02555098378167756	0.7686863522195624	-0.38525375626571584	1.2435908286168267	0.7829937319060349	1.0130728457622442	1.8693711710462828	1.2594870297104208	3.439285269636952	1.8495531035456594	1.3531302179505569	2.731660120742992	2.7809028555277235	3.7447991276607695	2.6048960619962678	1.6271175105022138	2.2514991703409017	2.7593347956609127	3.708826055699591	3.4454843910965205	1.6881425338085285	1.9015043925914359	2.6095049315372436	2.8713793682082276	4.27567767017419	1.6228212077176507	2.0062580057989434	2.043124909010917	2.055451626356504	2.2647352161448864	2.429806941573457
460	0.024304771734505223	-3.6179771331994703	-1.8691793632998797	-0.12862850693175212	0.6062486156416106	-0.4891302871275678	1.1812741726614904	0.8809192754438919	1.300960656696164	1.8500003767989246	1.2930191722649205	3.4210991773061585	1.9187849711610878	1.1542829245988384	2.806789629525476	3.035755626643315	3.7124512101856775	2.640717261322942	1.3907294238263923	2.432424300728226	3.057707063584353	3.8151597880361043	3.615092745236782	1.5908484418758277	2.1401591246930534	2.9530665799923437	2.9958851261794033	4.42770336940584	1.83479392065293	2.1939213220518234	2.1953535024528708	2.1036260074909787	2.338639015015304	2.5145015653067673
464	0.30309024376640215	-3.4853510768631764	-2.052068705146173	-0.22768899740907303	0.5816157445528322	-0.502118884249392	1.015579578696589	0.9479964947607747	1.6363726813009902	1.9086466979475487	1.4047170841990968	3.3135957634235256	1.9255781125089881	1.103026029662942	2.920924894587654	3.3070483124207692	3.5780436902308344	2.5596458847270904	1.2208968370130517	2.6398484640228896	3.348999253400669	3.7573759460952028	3.578109732177079	1.505456443800406	2.391166442556025	3.270518533078794	2.9058844969815842	4.3146648298047605	2.019116158156006	2.3036656321537743	2.1393008178104544	2.0646591134395806	2.243644470272232	2.316242927425364
468	0.3326481274312471	-3.2876806176149316	-2.082769388662411	-0.30260285658730435	0.7280858736729293	-0.4094224561844778	0.7934439162248961	0.909351942627508	1.8816572380242356	2.0683846421472154	1.6059262711987219	3.1675553241865293	1.835003848211299	1.196580406982587	3.0897185724451823	3.588827362536372	3.4041178140525234	2.3709213673813085	1.1704757184040857	2.8623518871519185	3.6281824020335676	3.60514401479315	3.3428177749159094	1.4631010257020822	2.6199517183913614	3.5490229040187047	2.6830682686775638	3.965312232496484	2.1703026239913377	2.3674042165112823	1.9529201935099023	2.0071051070083525	2.064378733191265	1.9355319689520576
472	0.09744253730013908	-3.1218185345986345	-1.9908620068830414	-0.34495198639562047	0.9969549153906456	-0.25291690166514186	0.5680428132974277	0.7234599572035906	1.9437084148924126	2.292443031245219	1.851746196839988	3.007373802221564	1.6117596585588718	1.3935718501192647	3.28735517625528	3.8390011690489088	3.2245895781166287	2.0878927654957895	1.253435250932365	3.0637211722270057	3.859649648458446	3.4165880593823674	2.965130560064424	1.464121695636639	2.779331200258254	3.7552642727454315	2.4175772605893195	3.476831904216228	2.2628750743954322	2.3990144669044966	1.7255911783520412	1.9589054535045565	1.8804931593147112	1.51954912755694
476	-0.26738923720561386	-3.067537538413049	-1.8572351885634955	-0.3495503357168202	1.2840108839041802	-0.11471319914704159	0.3787117292856203	0.41479706659494997	1.8058477594558704	2.5040962632853088	2.056083435589528	2.835496895306879	1.2589224545165336	1.6275942284499236	3.460045567359806	3.999537219440103	3.045787326752265	1.7342407659614287	1.4357774221410018	3.1969106116642942	3.992672194890785	3.224457971061297	2.5272662575810583	1.474894162268987	2.8270084786565572	3.849498739060247	2.1798241083422982	2.97540282451908	2.261546129238875	2.393166536011058	1.5276423654133986	1.8947575044477645	1.7340831712810405	1.2022891014261818
480	-0.5612172470228515	-3.148470632233371	-1.7750815108305449	-0.3107919983169644	1.4774105511557611	-0.08361984768259509	0.23604813158520335	0.06991028768054916	1.5219439229686793	2.6230907373958874	2.126478905077324	2.6477522783187304	0.8378628471201344	1.8239017678941751	3.5506338983536265	4.02361344275273	2.8616528438797575	1.350322362351567	1.6418027836356082	3.220975152466574	3.9852065939422268	3.038465015369385	2.1099252647535174	1.4422072135752686	2.73977088236497	3.8041753672874705	2.006815190016897	2.5690529281603713	2.1388082450272745	2.335860246482891	1.3951055968347525	1.760313506450411	1.623831148816175	1.0569001409549357
484	-0.6411327703501369	-3.3243007575981585	-1.806274171083517	-0.22926226200394736	1.5031268558698865	-0.2183369243592976	0.12025662481225263	-0.20201550373094956	1.1860376566506234	2.6000778609433692	2.0041451403562798	2.447660678405822	0.45363673453239645	1.922033901130302	3.5224020392177517	3.896223773656023	2.6705694131183004	0.994566199652658	1.7822942688766044	3.1154606263657856	3.8245270155667757	2.8573195862155267	1.771971221264728	1.3225202527034379	2.5214874680753843	3.6184720901684355	1.903524513207063	2.315075868483609	1.892409439077411	2.2185430470720573	1.3304926123405971	1.5178723296943522	1.5230845174482215	1.0769242021073828
488	-0.5067989813406948	-3.521778097797818	-1.9569308708374227	-0.12537196246918705	1.3468190397590936	-0.5243239985579535	-0.008054038489392032	-0.32298639335148416	0.8978580213766201	2.4324378905872	1.6905689196819191	2.24917625813058	0.20951656944305977	1.8970590781953105	3.371421805452822	3.6396281627315985	2.481555694036798	0.7351450305497905	1.7924483969256138	2.888115637163165	3.5355908781431933	2.6803588799514944	1.5455361565669514	1.1112613649921863	2.2045357171666264	3.32249688263323	1.8545976830388433	2.21562194264828	1.5565378626625268	2.050311083385474	1.3164341416500782	1.187613722663795	1.4113334381710396	1.1953889101365351
492	-0.2934828989248594	-3.681575289014242	-2.181972736571737	-0.04528227064501736	1.0490624878146286	-0.9518904661941197	-0.18820309591460338	-0.2844617955655249	0.7359420042530701	2.1583895628794476	1.2492399184157965	2.0673577733296176	0.15668934544103683	1.7718034937947535	3.124713889815934	3.3036599075831328	2.307379239932484	0.6320345981853024	1.6627662139873436	2.574689620193259	3.1740739265412876	2.51177596411736	1.4438892566465833	0.8568718411746192	1.845089669337568	2.970109216820653	1.8379796696988417	2.2379069271806387	1.2003316848966998	1.8620289517120978	1.3333327736569738	0.8574005343724421	1.298711535035888	1.3290340866866257
496	-0.1821013386420297	-3.7916321658726058	-2.412724965679695	-0.04844394313979102	0.6835121495156002	-1.4134236538487457	-0.4374497521799999	-0.14959670565505762	0.7440029959967867	1.8378268433900236	0.7828077654148052	1.9061198186433206	0.2670170956068983	1.6111444194170537	2.8288865017993987	2.9479861185030956	2.15243815832294	0.7123678308621192	1.4462230169022268	2.231378072827005	2.8080508638057387	2.3569009244540604	1.4696843587009027	0.6493391378220936	1.5128403863858284	2.623809330991485	1.8332990361657375	2.342411273764325	0.9116126871934859	1.6994670586593925	1.3709192241388592	0.6517028196093387	1.228112813709921	1.4234321081462917
500	-0.2858215563233529	-3.8910584351528286	-2.593951457150243	-0.17961612298439436	0.33007547175994706	-1.8138132049542532	-0.7392591219357352	-0.02229006582831314	0.9210321283928486	1.5302221736420536	0.39455670018715916	1.7515580609921697	0.4421049941344941	1.4912502728005068	2.53380488709641	2.622665398651844	2.0042970129907838	0.9461165046646607	1.2313386170770209	1.9191846799079424	2.4944178995096955	2.213547224178176	1.6108078915935014	0.5821810350024548	1.273111340169492	2.335295194451847	1.8209631397048782	2.498413318048192	0.7681265453972452	1.6061214168052238	1.4268910848831642	0.6729096157250778	1.2524584500162521	1.4744906388248764
504	-0.5825420007303032	-4.037830819425818	-2.707202904541923	-0.43755903729591966	0.05537508414115906	-2.080120319836702	-1.0464903089804856	0.002101728920175083	1.2166434495726186	1.280494209871311	0.15243646464008304	1.5776816566688974	0.5562597499154643	1.4576113187228392	2.2791309299146927	2.354795926824487	1.837242002616964	1.2379687993265167	1.096049306009597	1.6851658778559608	2.2601187172093984	2.066538090256736	1.826614613689633	0.7054080349278476	1.165310022273024	2.129000896800693	1.776256079957523	2.678679459484543	0.8055906275437159	1.6010347564329346	1.4943938217580242	0.9439132189761011	1.3976043427467177	1.5144635400682538
508	-0.9323256588285076	-4.259901989672027	-2.7685544420914927	-0.7613324503750311	-0.09810208504465537	-2.1818571035611645	-1.2997701135244262	-0.12219804494523326	1.536016579564619	1.1141972513678307	0.06892646086695108	1.3612581457101873	0.5109298812364238	1.498356457741977	2.0865387863884903	2.1438775008433333	1.626057739920783	1.445649977848803	1.0668580505138399	1.5461918076578254	2.094587797598637	1.8895505619026223	2.0366370626527854	0.993048188563351	1.1850166290881987	1.9938880154813585	1.6651003318708548	2.841481916882955	0.9954637859960644	1.6613354640977676	1.5477178057695122	1.3816366160795739	1.6318235356139283	1.5740220506982177
512	-1.1689012021116745	-4.523113716149815	-2.8043572831876227	-1.0468176576887656	-0.11644726962253334	-2.137053722708096	-1.453730579520601	-0.3773870458611541	1.7618139937741983	1.0388501856324655	0.10308362517556803	1.0968273850405306	0.2755536728100769	1.5514200886657434	1.958563918890856	1.9666627595839092	1.361926552195011	1.42708718416398	1.1067571612071716	1.482907887529516	1.957392926042555	1.6548634725751061	2.129533523905061	1.3436800207545678	1.2800133195984773	1.8884022188192788	1.448693629421929	2.9196019098955595	1.246175524426341	1.7217798189561464	1.5384119710228046	1.8194862558203624	1.8628392172511288	1.645708199160721
516	-1.2023328512353364	-4.737629401643372	-2.8251848149496137	-1.1898263662815607	-0.016633789944375713	-2.004498476689616	-1.4994742832472725	-0.6954792124355206	1.7971916153355743	1.0453684303593556	0.18100587977962976	0.8021873215449231	-0.10153622154588034	1.5439161023260466	1.8819225979021057	1.7896405413266236	1.0603307458809665	1.1014765473212729	1.1407136888314007	1.4481446706449337	1.7984882547747443	1.3471245731674408	2.000213141159664	1.6179619986692502	1.3666002715893388	1.7583757594536553	1.0988489361676288	2.8324606347096863	1.4327743017262204	1.6962722497074976	1.4085555041036513	2.0718953557156223	1.9683985660446757	1.672728057452793
520	-1.067694661305795	-4.80122326592373	-2.8154678273642832	-1.1360601158069559	0.15428391060023192	-1.8647458506233903	-1.471875306228025	-0.9892373656092578	1.6151157576791217	1.1085636587764631	0.22514747026342832	0.5113707171880696	-0.5137627111815115	1.4432253801147512	1.834300990241882	1.5863839347841333	0.7563467006660918	0.49842676394506935	1.1038863631034577	1.3890014851787162	1.5841375549375099	0.9757505630653363	1.6030570228157681	1.6980448918386422	1.3640593255889792	1.5630766113871681	0.6198937281216559	2.5233285363385582	1.447673793952397	1.5175579747986003	1.120300528558842	2.013830179852091	1.851030464267332	1.5751703937815609
