time	FP1	FPZ	FP2	F7	F3	FZ	F4	F8	FT7	FC3	FCZ	FC4	FT8	T7	C3	CZ	C4	T8	TP7	CP3	CPZ	CP4	TP8	P7	P3	PZ	P4	P8	PO3	POZ	PO4	O1	OZ	O2
-200	2.086669439769508	1.6869333939876678	2.1053175873054335	1.5769803484202407	1.824632282418698	2.402470582618427	1.8136420204148906	0.9949918960245691	0.9173901057923332	1.4741460047696553	1.757390613887295	0.6747897250304811	0.5870273098429718	0.368901073001262	1.0268212530914245	0.09677904074791639	0.5727686867558024	-0.153285741419021	0.19481746803211236	0.5555630908290885	0.0993543041224188	-0.1127212864294831	-0.32912275112026257	-0.21600645726026965	0.04234481219687113	-0.0021082570257453686	-0.4972028123700193	-0.2997079484048397	-0.43927004822452215	-0.749564764991381	-0.7341064196172016	-0.568108080383292	-0.49103680129053995	-0.21694047694270305
-196	2.7126839092430504	2.3437831342650117	2.4450361666936984	2.0651152081802504	2.438786500495488	2.815992586655561	2.018808359771163	1.1943708628063419	1.1289010019410588	2.0215148874742903	2.0091319033441777	0.7548853139891784	0.6960411054203995	0.9917107795472574	1.530362244556922	0.3350896528843724	0.6274629219425724	-0.0259295738578835	0.45225226764937154	0.8542354681382152	0.34376996668806403	-0.10440249714718326	-0.41180443659762284	-0.016974354119956108	0.24322830079181426	0.270439862522161	-0.5748373851567989	-0.6921523791957815	-0.34583011182255685	-0.6512746198423535	-0.8263645151255442	-0.5153174387319075	-0.51446610559273	-0.29842320009227224
-192	3.1494724671002263	2.845336430041558	2.780501835478687	2.4121468006268336	2.9910938664258753	3.1614754120162107	2.2103924695474695	1.3408266272070843	1.390247818297823	2.4782278475181005	2.2294382992723323	0.8589352347622442	0.836802361282968	1.5500079354252903	1.9328274678068473	0.5795663580566941	0.7027006727596954	0.10290402148015204	0.6938344222670964	1.115651008650232	0.586541353175345	-0.06048099308837187	-0.5439808950995112	0.19956810722032872	0.49795356267139224	0.5402828441330483	-0.6824908239299525	-1.1689975232173881	-0.14109942281384794	-0.5121371733133012	-0.9226170754980694	-0.365300773651984	-0.49054443712361595	-0.438662259663282
-188	3.276174298597962	3.056339971455236	3.036329261743185	2.5004413064769095	3.3247818862895704	3.366698971831323	2.32368349442318	1.362109300035431	1.6114193160380637	2.7177011898089964	2.38200473184002	0.9445896124833045	0.9219377017586348	1.869117016841602	2.1214227622830824	0.776746867126122	0.7700785379040662	0.1321881112099125	0.8721078612243478	1.2636945215744926	0.7794703821529676	8.942314139109054e-05	-0.7189995628323752	0.3570290198848738	0.7109500747850712	0.7552874665264626	-0.785273371144359	-1.6057802398193908	0.08330252745577325	-0.3784108450395538	-1.0000739072345777	-0.17122471289319965	-0.4357889283621716	-0.6114246829808372
-184	3.0680081766870075	2.9180967734094914	3.120189897288904	2.284363025619867	3.3254504119836836	3.3670489703045607	2.2889826239968754	1.233577725157	1.7116259293257157	2.661633961633292	2.422211164081038	0.9650298332645226	0.8729823805702844	1.864246602120012	2.0384986349137106	0.8743770696498625	0.7914046625183443	0.017147004561047573	0.9595080589864716	1.2480787007292142	0.8765929319184379	0.05162948356944667	-0.8896427132079696	0.4083620597542785	0.7955899814546158	0.8695180990200404	-0.8390710928713258	-1.871206636472862	0.22895245196234826	-0.2915032200606102	-1.0282175514964074	0.0060684378105670626	-0.3651829352695606	-0.7583769540713052
-180	2.612446063121615	2.485819810313264	2.9737992211600917	1.8269616319306392	2.9809887333947476	3.139901153266359	2.08236598442759	1.002891537995286	1.6630066591237604	2.3205418528142907	2.3206951559602658	0.8974718428840953	0.6793104393020569	1.5770806034324998	1.710802908392735	0.8492900707736869	0.7435306291881343	-0.20069172927731393	0.9492082571859991	1.0714256736407355	0.857578692655226	0.07905431071826136	-0.9864885782130911	0.3551088264559602	0.7166394573238075	0.8638984539155152	-0.8074569085715663	-1.8803214979381915	0.2357152992496179	-0.27301365068170896	-0.9860525702376599	0.1177816537029122	-0.29326760694847426	-0.8234807828139468
-176	2.073677534589907	1.9136137914027205	2.6102220946213706	1.2877088752659984	2.4003710686161592	2.7257938316190087	1.7535480216576167	0.7735039572260148	1.5027201137749662	1.7998951628064705	2.084444279176371	0.7590198497682294	0.4203762699480971	1.1419582338111685	1.2450785605466643	0.7227795105805527	0.6355569942640557	-0.41451236500989913	0.8440279939322666	0.7923931459448037	0.7406929116621872	0.08767832793510476	-0.9530240869302408	0.23569416940309837	0.5040901290564268	0.7557553033821235	-0.6775647384702828	-1.6304775435290089	0.10086709980532117	-0.32249158539413053	-0.878527102636516	0.13078550961376043	-0.2438705408376476	-0.7905002812454506
-172	1.6205787617775727	1.3906311953720505	2.1169254726368445	0.8594052173851116	1.7753375723838534	2.2221758309526556	1.4120168650263087	0.6532494409280658	1.3041814532731153	1.2630891768036823	1.7619224742274158	0.6017901882236678	0.23212148190544282	0.7072142940785607	0.7879106978550771	0.5530534968718016	0.509050010349599	-0.5088718520668151	0.6468180997730387	0.5014380799984864	0.5762785658591845	0.1000211012818376	-0.7757111768211196	0.09496767049892674	0.23295153618648923	0.5911149963713477	-0.4674737441658116	-1.200473543950907	-0.13274817135196926	-0.42557364594777713	-0.741207657373168	0.023272383899344152	-0.25575137073795684	-0.7004283052880155
-168	1.3542983497759158	1.0562237474477323	1.619469400131814	0.6797642690662309	1.296823259894171	1.747794027684107	1.1752259701621122	0.6941632014868473	1.1267940969628576	0.8629419781832194	1.4256879055267657	0.4883245515415284	0.23115436674408146	0.36129295734740546	0.46488633634496684	0.4063736190072694	0.4190595735460107	-0.42023387445208826	0.3636165252088181	0.2797925465195439	0.4219024766760401	0.14049485290341754	-0.49332848066707824	-0.042048964543275426	-0.017832290336170956	0.4223275173968603	-0.2223500156749254	-0.7149093133042804	-0.4071365584584682	-0.564866720203945	-0.6282165034645649	-0.21459867006003522	-0.37246835137741785	-0.635015068835126
-164	1.2685359684387951	0.9361355877129314	1.2266819446110557	0.7613329868168327	1.0665162774815606	1.393748160658065	1.1060819597928606	0.8583392479206398	0.9807072257076986	0.6749438030368364	1.1410964698591817	0.46021380904353143	0.44219684489186106	0.1072929722342039	0.3289882830419888	0.3239367000030613	0.4058168222195059	-0.16649550157472592	0.018774837208075996	0.16420087176827872	0.3142193845921856	0.2181729519819345	-0.17916333630150127	-0.17506588951256807	-0.20120365866883608	0.2845015220611674	0.0006289574651000421	-0.2918176643633289	-0.6742070896292727	-0.7226002198095209	-0.5852508530145711	-0.5666388854979327	-0.6129046067022289	-0.6686797721192715
-160	1.266594645163362	0.9372433400332852	0.987533864865878	0.9829156373956959	1.053431389056345	1.1872676580971029	1.1772410839875909	1.0333585713045945	0.8320781567546428	0.6691857559474923	0.9392399764189302	0.5178854452409268	0.7750295381051892	-0.09944876258298813	0.3460061243381342	0.304516195482086	0.4735961544477478	0.17051838295323338	-0.3289717725554277	0.13755533064445116	0.25480046803993345	0.3194229296725843	0.09453888958665634	-0.30982658188797485	-0.31234508673963324	0.1849555070498932	0.1533395793142784	0.00046358542632614157	-0.9006881691126998	-0.873554823577262	-0.6208714231074381	-0.9700422858542539	-0.9372813081919112	-0.8142054060406424
-156	1.2240751950830302	0.9059936977400517	0.8818251468329011	1.1521046132563766	1.1199164362288794	1.0867340537290386	1.2848806348785469	1.0920925112808173	0.6457005722909663	0.73578232341012	0.8087458590115798	0.622466681816179	1.067620274709303	-0.2811382405812403	0.42350160968668166	0.3126259438251058	0.588789997998464	0.49207410092094717	-0.5863160476186627	0.1490201946310844	0.21782715563614313	0.4152174581534894	0.28720351981130354	-0.43252035866255345	-0.3719738414432874	0.11063572736463831	0.21475282257219638	0.15679180582514704	-1.0574718687061777	-0.9780761574846661	-0.6939927322032201	-1.3108752932830705	-1.2369581429722567	-0.9984633897368127
-152	1.0612988445189644	0.7217296343701296	0.8466243722521274	1.1092104883799327	1.1043556900752343	1.0107208464853457	1.3053038087314022	0.9654326414528978	0.43336230407020254	0.7513457517727731	0.7108057123357897	0.7176392656327456	1.1739741534157	-0.3902923454921151	0.467760025273945	0.30632111352829505	0.6977371555832012	0.7289977651310457	-0.6544430835413241	0.15058098695407096	0.174128084935201	0.47806101916731003	0.3987751593058421	-0.501486598179211	-0.39848139781480824	0.04706230747738576	0.1973069007183549	0.2162986541293821	-1.1100487681019373	-0.9867851709247446	-0.7291055899331722	-1.4534292184373776	-1.3668717111409607	-1.0898029776714857
-148	0.7869244794051135	0.37250152136215164	0.818305371125811	0.8182534554803428	0.9157250500447365	0.885456142574161	1.163457509918082	0.6865831596206091	0.2677878730688652	0.6508676393288546	0.6087298377880561	0.7600437979582406	1.0470926735190649	-0.3251736751929619	0.43743073829836454	0.26779138974289807	0.7552187423712101	0.8623712041062913	-0.47812494514867027	0.12790422109259258	0.1165643480457378	0.49894758932980177	0.4562920618457913	-0.4666619587083427	-0.39034366509113716	-0.003943059117822547	0.13989411259140427	0.22768208327029654	-1.0251142952786565	-0.8599138834223404	-0.652904568454266	-1.298713442384516	-1.21152174166929	-0.9652388071485776
-144	0.4929000126791921	-0.029802754446125214	0.7663443665229607	0.3957251896403858	0.589308200778833	0.6880038959298883	0.8791221358038064	0.381804375876628	0.24745075342168704	0.46589723111780523	0.4964997159820239	0.7442911248489034	0.7683089356097975	-0.004220549006535072	0.3640007963527149	0.21875077430808948	0.7504956703311327	0.9100996828943273	-0.08794043935984276	0.10704719248209311	0.07110574823546853	0.4952700721634121	0.48744004841761707	-0.3090592912977185	-0.3314065626837104	-0.018999444272828934	0.09104587859770312	0.22070144061156752	-0.7956193069397712	-0.5939785823130619	-0.43482810149081813	-0.8480792024181321	-0.7549608926785627	-0.5837939366860047
-140	0.3005954019586599	-0.3061536840815437	0.7031477075943822	0.055430501559499065	0.27121373942564847	0.4609501648232275	0.5624154195891012	0.20812728948498138	0.4268185485554129	0.30648982447490586	0.40802502529124696	0.707036433819	0.5025700914092026	0.5466096983460479	0.3272438041054294	0.2091259802068328	0.7146034222680654	0.8950753189376618	0.38951432606582626	0.1328336593135225	0.08428587743221433	0.5021622168260343	0.49874254935229206	-0.07341857981026807	-0.21455906277368197	0.034309402021569534	0.08710990824163936	0.19642433474539397	-0.46762370945168785	-0.24095405577382875	-0.11300389440139151	-0.23300871194184566	-0.11575669766048978	-0.02795772247408364
-136	0.2887606613498068	-0.3110401026502156	0.6640557629985607	-0.006620946789207893	0.13782447541725493	0.2887993745664907	0.357514440110699	0.26821944049827184	0.7579461913046011	0.2958638660590458	0.39971139926128774	0.7056233269042329	0.4019711305483071	1.1564396590599457	0.40054577487906945	0.2856343083322637	0.702263889923884	0.8210543373359116	0.7685814480450225	0.23332716465691536	0.19394734452871687	0.5512775764852026	0.47403091072564185	0.13327482309071373	-0.06419463439469446	0.17463998452440083	0.13575194741784125	0.13875994051232046	-0.14438860081934513	0.09779823546751877	0.21214677339874521	0.3173152498340031	0.4825819718574643	0.5165686594318735
-132	0.44905027633779937	-0.020327955433067105	0.6757766587361802	0.2757569544505702	0.29601234122880643	0.2513999038547935	0.3674364676735389	0.5500805364072007	1.0917013856027888	0.49591225260460087	0.5178412185946152	0.784436104701313	0.5164476023986403	1.567165251589858	0.6006407126520765	0.46171080949560817	0.7600197772864568	0.6759545786003855	0.8835200645074549	0.3958891322154266	0.4033118774244997	0.6515501125098098	0.39434200425722027	0.1891161347621288	0.06506115181709014	0.3909644474649055	0.21545451825104306	0.03815574934385917	0.04913681360594292	0.31050479333683934	0.42082148684112286	0.5706786498920301	0.8051983097727948	0.8433191158937426
-128	0.6899091583953233	0.44348999745932066	0.7311623674052437	0.7894525508022341	0.7164276224168106	0.37606161737863014	0.5966560825542572	0.9223505831319515	1.242386934004693	0.8628854133754704	0.7653259615648995	0.9438881850253587	0.7612376789900774	1.5601645668693738	0.8694021083816004	0.7038101536147433	0.8946458674731393	0.45609924082042974	0.6717934591498318	0.5685613141010197	0.6713862402177545	0.7799882273054688	0.2616322033952283	0.02909646175906184	0.11538899660779875	0.6409211738617185	0.28787496613300306	-0.09240932739291721	0.027509815921469227	0.327339618571664	0.4304554153541683	0.40551578896182777	0.7182181459413427	0.8257234671726034
-124	0.8857206083823618	0.8661712386197075	0.7837828974008686	1.2852890459035167	1.2349164454752752	0.6128886922621141	0.9407713985532778	1.1915729015783596	1.0868141623714145	1.257137414619307	1.085608956457099	1.1285392017481854	0.9602470373705312	1.0846039029394339	1.0978077622353208	0.9414316988064325	1.058860656925938	0.1900322432488524	0.21421927159583656	0.6853850466590039	0.9250650978574588	0.8875122047904971	0.10770483287798141	-0.3022854022500321	0.0622476784803443	0.8639902450682376	0.31616941014573396	-0.21971233133633955	-0.20234027453834952	0.15793028433980502	0.23678071737112688	-0.11745350778251037	0.2604634755234232	0.4817834484334245
-120	0.9449020004257837	1.049725053044279	0.7678998093290922	1.4976575336791054	1.6239572722442013	0.8492189624326494	1.2310559718522096	1.1959248751010023	0.643037854001638	1.5045018158120937	1.3754519189440046	1.2444632021955568	0.944493887424037	0.3116605870007608	1.1802043884997626	1.095977184389601	1.1658087939392452	-0.056623827523082815	-0.29407522008081943	0.7011866551815782	1.0873938771450362	0.9188331938433467	-0.017009267540545145	-0.6536126120277653	-0.06369626505982448	1.0029853557059256	0.2812269918970868	-0.3072873942246317	-0.5311874733865112	-0.10958663346517597	-0.08232045897919162	-0.7705317120171493	-0.3678828766594571	-0.032994441604757806
-116	0.8544990398767465	0.9122666097496657	0.6299922450372301	1.2786873546741517	1.6968530373647226	0.9565262174298216	1.3104850020700665	0.8854061938819654	0.0747673807640656	1.476726170626178	1.5213628968928756	1.1984833448668817	0.6483591182551709	-0.4331108022722077	1.066986081290494	1.1115473480770965	1.1259552211944068	-0.20562840946256578	-0.6315734370498395	0.6131283029335062	1.1059257956239434	0.8355448820953164	-0.07156334054283449	-0.8333164432467252	-0.18834778618943032	1.021570799155706	0.1868646289160677	-0.3368331185419731	-0.795320270437688	-0.3527994444999683	-0.4052136828205465	-1.2626105515073442	-0.9005956030995973	-0.5057917224511785
-112	0.6765192133989173	0.5253056870549258	0.3551777890297912	0.6761362535572023	1.3899971211625306	0.8463207461924082	1.1025596829233968	0.3483140757826551	-0.38736629388283395	1.1481242150883255	1.4428114854624758	0.9410735941015261	0.14903072975202183	-0.8300988653205836	0.7847838978026993	0.9718370413085544	0.8889927245583351	-0.20788811094726278	-0.6563835723517324	0.454811512275631	0.967057404460728	0.6310583337109911	-0.05106778429966274	-0.7112985831421931	-0.23763373434151505	0.9096923447529608	0.05239796252730526	-0.32005947747485597	-0.8618647434409136	-0.47991672037073946	-0.6267036183746957	-1.3815016711641432	-1.1361225814745228	-0.7746231536381366
-108	0.5021395670610769	0.0702567769303343	-0.019728068212530054	-0.08460251220562298	0.7857640961835558	0.5103281723489353	0.6427540166839343	-0.22765539529066575	-0.5663559422498983	0.6031401738197772	1.124477860472734	0.4935746776517014	-0.3701902916621764	-0.7314256411205519	0.41679102077158686	0.6986822468283737	0.47141429662893086	-0.07448656093149594	-0.37701818251789293	0.26978236368730374	0.6932813507696218	0.33246964132291784	0.00786246357363216	-0.3010842196492287	-0.18637752485903183	0.6788006407765801	-0.10089876477277815	-0.2925165586238782	-0.7050011140189935	-0.4797815370367302	-0.7081643921138817	-1.1025916310129156	-1.0363935205996055	-0.8059105852760624
-104	0.39018636843397203	-0.26366153292845007	-0.4149147559657619	-0.7090803962924772	0.06865890306781046	0.02589458034355325	0.059691604076120806	-0.6424428804389923	-0.4325768340633355	-0.005252152668090297	0.6244983061282189	-0.05311204479636305	-0.7136145812137382	-0.24236425696217048	0.057882990541945054	0.3392779818551974	-0.043316919247219844	0.12203239618724007	0.05128945769831304	0.0841718835493692	0.33093759333980166	-0.008805858880400533	0.045844193432218634	0.2283014053302716	-0.07970058152818746	0.35579803496175794	-0.2594023042328438	-0.2932236187207411	-0.42515960228389027	-0.42445692312840727	-0.6891323906665716	-0.6015779956888032	-0.7381979208428334	-0.6986681801322421
-100	0.3280608347716253	-0.3808405985753657	-0.7344542127185879	-0.9767937635555614	-0.559810219781836	-0.4756239342602093	-0.48133975145883673	-0.7747379521836841	-0.11726900905565456	-0.5228174315604145	0.055485188820942416	-0.5685780034015147	-0.772779164747376	0.33319586431302767	-0.2287226015515135	-0.04792515176355644	-0.5325999246501875	0.278499274742795	0.4057803739793177	-0.10292624656201654	-0.06217501296796596	-0.3316988936632732	0.014561367184412706	0.6251763089608272	-0.01049340699943996	-0.018515540240151368	-0.4159672547805484	-0.34081223521016474	-0.19522732446971436	-0.41874766244068856	-0.6514529569390711	-0.15885764320320156	-0.46628627063327194	-0.6089196785811863
-96	0.24275267062886868	-0.3208901278023486	-0.8981878734799743	-0.8447872975001433	-0.9620948409585478	-0.8606795050825473	-0.843295691268405	-0.6325982793095202	0.1636760677735176	-0.8512389042343428	-0.4523070741201041	-0.9286544895567705	-0.5765420779930711	0.6591384394216508	-0.4282264400637754	-0.4011507024173676	-0.8781449176551811	0.3103217772755186	0.5106415735703731	-0.3043687037889617	-0.4231865097328721	-0.5788233265568	-0.09275460964864869	0.6790385825179227	-0.06259019657068131	-0.38660874865197375	-0.5585386142934083	-0.41929703845019634	-0.16092817444702032	-0.5252547250837714	-0.6570705158810345	-0.006549224706595262	-0.3975070704914473	-0.6402372701692923
-92	0.05418509603767432	-0.21861730460761314	-0.8688486792562581	-0.46022343519363834	-1.1044325800668005	-1.042344567528245	-0.9622926687740578	-0.3401819160932564	0.23349432588276592	-0.9709548925681057	-0.7923038581871555	-1.0580248805990076	-0.2667016082228987	0.5504475222041562	-0.5601616487665444	-0.6596701724563496	-1.0067505811068809	0.19290091048652092	0.32326760806482446	-0.518146811607607	-0.6883489472176219	-0.7062414270689931	-0.23333458543517116	0.330313920140769	-0.2546771460302045	-0.6761266572094177	-0.6590614302207954	-0.4817448544260299	-0.3535404494419451	-0.7120568138264665	-0.6989043933388907	-0.20324701019470584	-0.5555121288579342	-0.7693150024064213
-88	-0.2640901797302701	-0.20914059824592704	-0.6658028347371613	-0.07745598237032227	-1.0442937586167687	-1.0066535447454315	-0.857999620655567	-0.07011221331537718	0.054562922429371	-0.9264077520822794	-0.9137980318840133	-0.9536046957735319	-0.016598947304302166	0.0691823734086481	-0.6484087689241435	-0.7728203515568118	-0.9131363011193877	-0.02693517126793082	-0.05271198959751156	-0.7111250740216899	-0.8034944514015473	-0.6915712339106888	-0.3347030869616576	-0.2942130260191922	-0.521832464807988	-0.8160002210995875	-0.6751106364371415	-0.4711455690886395	-0.6680290086092568	-0.8590237476595122	-0.6975455266507321	-0.6054810866327757	-0.796849904432697	-0.8538804628748292
-84	-0.6535102708529443	-0.33750855837486254	-0.36086609868492425	0.07709420452919083	-0.881019530456151	-0.8074247220634688	-0.6115635618028132	0.043636664638019844	-0.25536581809420067	-0.7891327718838215	-0.8335970023089746	-0.680075703334396	0.06235481782905756	-0.5193620907068642	-0.6982511860384463	-0.7160398942035255	-0.6565224511737084	-0.25398760969886136	-0.42974033843260334	-0.8281533101153822	-0.742173789057893	-0.5402181730936303	-0.331536530611315	-0.9400498247254487	-0.7479355912398485	-0.7644909600983493	-0.5671796188339698	-0.34785389812382855	-0.9205732918385261	-0.8232426026540257	-0.5480526671877722	-0.9508584117724395	-0.896449504019489	-0.7192376833876517
-80	-0.9928092335430497	-0.5300450311629856	-0.05723905921432049	-0.08096698651137162	-0.7030793410669973	-0.5383507595775321	-0.3282147041617245	-0.033625762824753914	-0.49993702643057514	-0.6242315753435225	-0.6265183671392015	-0.3429492107315791	-0.02710068219018331	-0.9046877003716753	-0.6975792032749452	-0.5101826178067613	-0.3361089519121029	-0.38873910805783474	-0.640407203011118	-0.8254166224620744	-0.5262906538073522	-0.28936600612061736	-0.19895079681710975	-1.348957058361789	-0.8328467586470809	-0.53826051814557	-0.32574242271197273	-0.10976286949817066	-0.954481360886675	-0.5293141590105951	-0.1928631956476345	-1.0066082452155165	-0.6848550421589993	-0.2756280594065688
-76	-1.1653615206859798	-0.6477405412532536	0.13981449568734658	-0.4632790076956894	-0.5621230588072161	-0.2999469928321079	-0.10506577018198861	-0.2342038446712196	-0.526208220583836	-0.478215723022434	-0.401082633913206	-0.05364243300126746	-0.1855010087575003	-0.9114183760520087	-0.640987990668343	-0.2320620560747518	-0.05889568090470274	-0.3728527417306039	-0.6247025712453484	-0.7087607961879985	-0.23640923142350218	-0.0074555026179073365	0.03307046360368658	-1.3826754058260968	-0.7552619557385631	-0.22483685555912677	0.0060871261949634005	0.20247526415726377	-0.7338196616719111	-0.032545600004280834	0.32055699744354005	-0.7007056456994551	-0.15953354497208683	0.40113681453517
-72	-1.1306989164415242	-0.5874976500937069	0.1530126180361885	-0.8715398289610725	-0.4806744444155336	-0.17490255788513467	-0.013762251439216916	-0.4387663293727971	-0.32231965579671	-0.3871539821386801	-0.2679819457917639	0.10068792824357871	-0.2877426438219358	-0.5956930503110526	-0.5566155300392305	-0.0019013629014096446	0.08883435256702418	-0.21354012137381925	-0.45323538665781465	-0.5490292296853067	0.0026588020779119374	0.21654233281776986	0.2920649342315553	-1.080781576288928	-0.5905339702955441	0.036767814215575116	0.33206730997169975	0.5181428180964172	-0.36746364739148785	0.48791423316793053	0.8372395017466471	-0.1606101687667853	0.4976669835400357	1.0816810103763177
-68	-0.9567230915710176	-0.368446378969741	-0.04526173311965379	-1.1152274580455275	-0.4769718336937569	-0.21655891781013673	-0.09653637533848725	-0.5496177659463329	-0.03234645716129875	-0.3887980868536911	-0.3089018158266195	0.07422307859993155	-0.2635922723313959	-0.20231233486118158	-0.5109677301857606	0.056137312061912616	0.05899766072636566	0.023822368993814146	-0.2749828689308266	-0.45752718929170855	0.06366285665651222	0.2955014996220487	0.49724113815651305	-0.623832164619891	-0.4692527937962534	0.10678429129581382	0.5315195308617165	0.7622262220211815	-0.0478435008510009	0.8086734989730051	1.1558048695946905	0.3610464921418815	1.0091065142903246	1.4859780035648555
-64	-0.7891298512562348	-0.14255875313052174	-0.42639300119511336	-1.1187938423520138	-0.5818124398800943	-0.44538715369308673	-0.3652984192685213	-0.545657692962099	0.1259018328587413	-0.5222309218573055	-0.5530945644719482	-0.1335970010960725	-0.14218331837519063	-0.010508839014462376	-0.5822215661607997	-0.1327823993191451	-0.15209165177092798	0.24492983458192136	-0.2225457275255513	-0.5296737538316171	-0.1283117231467319	0.17319720939777158	0.59329241364414	-0.22692787589953534	-0.49843037002606916	-0.09331828332228582	0.5081284629390533	0.8822640158312743	0.06080505609061689	0.774677274655456	1.1247879238340726	0.6285150631294911	1.146640774692901	1.4232679569549946
-60	-0.7751556019285709	-0.11638932645737735	-0.9151280499241734	-0.9585891937849341	-0.8317750671367252	-0.8474215843739854	-0.7984969595776169	-0.4889489996009411	-0.006588027330246074	-0.8102200010824429	-0.9689856147143436	-0.4841088640388205	-0.03482290721088394	-0.1627403493587124	-0.8145261982380136	-0.5533063993789451	-0.5069037067013008	0.3646287312838382	-0.33148762500040024	-0.7870722393191385	-0.5551896081258689	-0.1515834178673726	0.5694907889293004	-0.024610249263498144	-0.6914982182210233	-0.5387346134889164	0.23635220467975732	0.8654558636749193	-0.08048251250927983	0.38380512498275215	0.724118707735985	0.5503485784940788	0.8525890686443861	0.8946102238956537
-56	-0.9829739307381391	-0.42891272794198654	-1.4133833611089792	-0.8099532106931018	-1.2411082951681995	-1.3730229104662506	-1.337685462435352	-0.4803760933668636	-0.4275176812345407	-1.2346329657854394	-1.474569674583649	-0.9115370488994569	-0.06630937738366371	-0.5779694304179037	-1.1814818352433634	-1.0957218380920277	-0.9369900202936293	0.3374438873354445	-0.519265352368638	-1.1534163922752814	-1.103401658133368	-0.6182421430237444	0.4561660278247319	-0.010557915057407833	-0.9502876376955114	-1.1034214468753836	-0.21888497416546243	0.7393595557619281	-0.35971772579925854	-0.2037594462257073	0.08627516009482875	0.22232754472390182	0.2700368457175297	0.10030483429141329
-52	-1.3644354308965623	-1.056881186677945	-1.8293038560458195	-0.8371232130849839	-1.7711043313133035	-1.9393544148118527	-1.8910705995498465	-0.5923769459073461	-0.963726756523733	-1.7233798460364573	-1.9638608644493818	-1.3375509943570782	-0.29629853292997294	-1.0017703746298916	-1.5847194154783382	-1.5955257375488332	-1.3581823076289636	0.16974617497979544	-0.6367921813146176	-1.4827042780634774	-1.6053600270747852	-1.120107171091679	0.3028267614348378	-0.06146701037265991	-1.1123614283133836	-1.6091152388954435	-0.7207899075429733	0.5573551640743809	-0.5738784656340734	-0.7371150832639328	-0.555662332562389	-0.13331392373758766	-0.33094671285042926	-0.6515355689765213
-48	-1.7850813820592648	-1.8099987461168379	-2.1040325111673206	-1.0931801768359326	-2.3222334326287455	-2.444429391411417	-2.3529231488903726	-0.8221283534274078	-1.3632755245121617	-2.164499515790657	-2.3418953359604515	-1.6874166684462863	-0.6786028725657146	-1.164995071330826	-1.8943002176142023	-1.9008529138256856	-1.6898333983672478	-0.08917712397710084	-0.5615345821508345	-1.628833170593097	-1.9079765033233864	-1.5379972419055044	0.1521789874764646	-0.025285186182198525	-1.0387310955525049	-1.8997100543696477	-1.110663768825177	0.3770109703558933	-0.5393035994265057	-0.989483473186914	-0.9671699976344245	-0.29237171933743966	-0.6871330124672739	-1.0847043963702714
-44	-2.1005291885748476	-2.4226510463583697	-2.2262239399970007	-1.487105365813291	-2.7607972552214295	-2.793740027049878	-2.634778969788252	-1.0921299429976419	-1.438886519613926	-2.4460546908610485	-2.555192940936453	-1.9048446368762155	-1.081191537034658	-0.9531279182211774	-2.0111229368932277	-1.9353990505945442	-1.8735766363524373	-0.37118706013423863	-0.27646759082611055	-1.5197033843772292	-1.9352338265196438	-1.7777532294212115	0.022682420852137147	0.18137787236673378	-0.6922700983689157	-1.9046097945763933	-1.2666051355808159	0.24083767770519862	-0.18940709483486526	-0.8562249519665052	-1.0089168523111283	-0.14330643379269653	-0.6614971144187475	-1.0702685090699875
-40	-2.2363178673549386	-2.689743750456975	-2.228825801944167	-1.8350453330439578	-2.9709317609164767	-2.931745521772859	-2.697310440882817	-1.2962779966051423	-1.1847463816294694	-2.503022187589168	-2.604639046768645	-1.9631807754542117	-1.3550429309965701	-0.48473080870315904	-1.9165577840100336	-1.725263114388026	-1.8870004367869904	-0.6136741026643364	0.10875805439908404	-1.1952474087101956	-1.7138662294985874	-1.7964771940651	-0.08974871016731192	0.5214478360362235	-0.16318605799005628	-1.6601934391067543	-1.1446163625428607	0.16826556580499052	0.3924065520392827	-0.38854831359039044	-0.683936296166751	0.2679657631307482	-0.2884118549694619	-0.6617570502739567
-36	-2.220419401284849	-2.5691885883315377	-2.171336406947712	-1.965922946734825	-2.905351869877216	-2.8627161907398655	-2.565888398367946	-1.3636615241907526	-0.7933509925839258	-2.3454060495288584	-2.534681552209553	-1.8686882210281706	-1.4120866024605199	-0.05083455505053578	-1.6793385701695625	-1.3761676515166605	-1.7462686256188666	-0.7744942883964576	0.40791240231522824	-0.7866027931380728	-1.3497228588359298	-1.6074460704273676	-0.19504967282640984	0.8590386488206684	0.3736791005236835	-1.2800636259185407	-0.7851303199972592	0.1599960025085703	1.0198173497201306	0.24798327621792707	-0.11708530009034003	0.7802550772994544	0.26949012211470785	-0.04274386901792515
-32	-2.1529703085901515	-2.192867035097698	-2.1129198020994724	-1.8192471219861273	-2.6070930891971416	-2.647518389693222	-2.3173754156732373	-1.3004964557238252	-0.555742262390831	-2.0503888078420647	-2.4038791595802027	-1.6537228780955642	-1.2691583601379683	0.0518322548451703	-1.413331266649577	-1.0143616173883239	-1.4955475292593838	-0.8369169810145818	0.45607444528826574	-0.44557541496313446	-0.9688076352454936	-1.2644723621868477	-0.29036503956917536	1.0402170393430037	0.7473425846304753	-0.8919269420039297	-0.2856169633806779	0.20908790774007863	1.5014040432216482	0.8614735581582403	0.5156448470448322	1.2142754762509607	0.8184413293202004	0.5750849828505707
-28	-2.136322254509259	-1.7806161597118348	-2.0874476380097304	-1.4787014685490474	-2.1903808061611043	-2.3752424656980353	-2.0433547445205904	-1.1837147444403016	-0.6965169292984401	-1.7229338840853738	-2.2528543415410933	-1.363233682051635	-1.0344530317891971	-0.3038141421753716	-1.2115442722249583	-0.7247011643232596	-1.1883943050898027	-0.8062344769149541	0.20072463104114688	-0.2646330290311914	-0.6565362198466168	-0.836502192292637	-0.3517356506050254	0.9822418068882114	0.8748955704534546	-0.5769412502981242	0.243095218521528	0.3106220058704942	1.732083435453875	1.3179364171132042	1.066577551056235	1.4638189040419445	1.2254310815389575	1.0448800299012992
-24	-2.2050726358054074	-1.509295936588564	-2.091141933883582	-1.1209969492266396	-1.788707251801087	-2.1213517135466895	-1.8069773866808017	-1.1077614994691012	-1.2350455491355328	-1.4450368844741912	-2.085853571393882	-1.0390413973324222	-0.8412917831161157	-0.9915284489393498	-1.094422456839205	-0.5176743851943101	-0.8679570533773142	-0.699932931086538	-0.2622846060329702	-0.23087601305368316	-0.42572832000057875	-0.3841917505101116	-0.340684830282279	0.7221019845851014	0.7976352552302747	-0.341729550690942	0.7168521863004738	0.46570953609188137	1.7325508550770234	1.5830967386330699	1.4673961363937527	1.5347161254281927	1.4613747559844557	1.3284387554961121
-20	-2.30114125624462	-1.4167786800853923	-2.0876409954768937	-0.9128012634119511	-1.4976967535352685	-1.9147365044888751	-1.616852040977045	-1.1187159986861337	-1.9519462536167314	-1.241585728371645	-1.8759852600417297	-0.709589896794731	-0.7701307515727577	-1.6877719121282508	-1.0032092307511367	-0.34083518299834537	-0.5559385404855808	-0.541053591792693	-0.7271561008214255	-0.23931297599453244	-0.22781780304610746	0.05117191733911273	-0.2258220309278095	0.3985696126888531	0.6511579139481779	-0.13456554676890486	1.0967731448139217	0.6757562143430739	1.6194927651525068	1.7059718327365974	1.7293440059869145	1.5144053659351	1.5774264295806135	1.4733983241074804
-16	-2.3114032687004005	-1.4007440770069792	-2.0296344705836735	-0.9193834043178791	-1.3437534536767457	-1.7343852476199995	-1.4341676198989723	-1.1803413599731105	-2.4880754884844487	-1.0826315852487958	-1.5922794301839824	-0.39022910496416807	-0.8054593185116072	-2.0376558252387142	-0.8441871383334151	-0.12506647376432325	-0.2559813254569197	-0.35446727186354005	-0.9738138889521839	-0.15848834772626683	0.0024180449484333686	0.4450856137959293	-0.0050520929380358124	0.1801683153133606	0.5875314459272092	0.10724200281246904	1.3837466204992956	0.9321473217317898	1.5302107295502856	1.7655607417353198	1.9046345901085573	1.5012752971892585	1.6441703993293986	1.5539505442486492
-12	-2.142864698721867	-1.3081744876258268	-1.8872845125232727	-1.0750999423539929	-1.289444204889608	-1.5356459578843413	-1.2082679241192165	-1.194127079809826	-2.5278525288655884	-0.9159476137877659	-1.2303111522129768	-0.09124211198896946	-0.8504297711835597	-1.8379180384962996	-0.5554815516752416	0.1649382110246111	0.033020690000134495	-0.16423161286374402	-0.8700429775206073	0.09039828158443412	0.2985200278374654	0.7812628130261278	0.28580385374389927	0.18256257428329836	0.6945911032306095	0.41030350223900086	1.5992829759274085	1.209908720776451	1.5489122828477953	1.8187935306405316	2.0404336400968135	1.5438145360116058	1.6997022585870822	1.618561382975598
-8	-1.786225314398906	-1.0515818569336342	-1.667320843301711	-1.229698058838365	-1.2653741804600225	-1.2876319852744325	-0.9175456143101595	-1.0622587177160037	-1.9679273317242711	-0.70560550511549	-0.8251532891421216	0.1738580758950502	-0.7901970724182438	-1.1361088724062591	-0.15298275610923143	0.5066596256815618	0.3033936016052206	0.009796992850900594	-0.43017676364054686	0.4873432802770686	0.63950985508629	1.045743701201914	0.5839501604595665	0.4185323704643034	0.9561625098883204	0.7466264348253071	1.7656807854895944	1.4702708684040118	1.6734069543550707	1.8771554184250059	2.151684040359146	1.6225546557468882	1.7347054437709246	1.6703005986957993
-4	-1.324589964383393	-0.676388321599321	-1.4131821358287255	-1.2409499852320758	-1.2076485126522745	-0.9976862643801933	-0.5899343475706176	-0.7571588735537507	-0.9820634697914936	-0.45306271200233633	-0.43791106232707433	0.3859597434789755	-0.5673020467740294	-0.1971615547924371	0.2725762121948068	0.8327910283043567	0.5336086736558193	0.15629348119376055	0.19621139715247152	0.9244656539464662	0.9619607901127863	1.226369020226775	0.8245354273959398	0.8034660199860613	1.2700388399483673	1.0502144071766495	1.8929846238980415	1.6703903632906043	1.8324874593245248	1.9161649894019557	2.221258396262589	1.6778275924283212	1.714428658925268	1.6804871516714845
0	-0.8837940670587956	-0.3331138483220238	-1.1824263304420897	-1.0547643873287362	-1.0794310542510168	-0.7051691395121911	-0.2880952350972144	-0.3508531144343867	0.05852596074467504	-0.1876536304981287	-0.12100727080549752	0.5274016843831604	-0.22336463573805282	0.6401202662518937	0.6081850513361845	1.0718514892219357	0.6964545828401625	0.27714005042676876	0.7989400605057584	1.2677282062948383	1.1978814571654595	1.3172279563071927	0.9683703755725254	1.209252116011263	1.5108053646090451	1.256829616234464	1.9755405137729207	1.7759427979453746	1.937754030103674	1.903777832946719	2.2195744458426465	1.6589494901734325	1.6151341159096662	1.6181343753015054
4	-0.56015360213952	-0.1728163506197796	-1.0128836606202047	-0.7266998272668218	-0.8712529518064929	-0.4503155041292522	-0.06928104889782463	0.016827784436178328	0.7702590207679905	0.06266199781571258	0.1150725331977434	0.5925905689536818	0.11724726826152762	1.1308050127089566	0.7875277976180067	1.1884434193169737	0.7739036063682248	0.38728135726424345	1.2042256563300449	1.431563850603178	1.3121370044004903	1.3217302527435792	1.0165983412825181	1.5300929507725067	1.5987611968683622	1.339672562077857	1.994434113235412	1.7698812440056004	1.9353930901300818	1.8241523458201783	2.124951357244877	1.5602055748648758	1.4464732372003621	1.471098896127141
8	-0.3653568318202537	-0.2352349156162635	-0.8972576237913135	-0.3754479577598945	-0.58866828531414	-0.23985113142968953	0.055547505476897754	0.2153284842299837	0.9463821029611093	0.29695612117179715	0.31043493669333894	0.594383595873288	0.31247553150439483	1.2254583804661956	0.83234953670162	1.197678920583024	0.7688298802038191	0.502906261604887	1.3449497188943675	1.42235183356711	1.3159553971444509	1.2503068415545824	1.0001531814119287	1.7228778557194264	1.5362049302416336	1.3184348311515577	1.9221993636237809	1.6518664318340768	1.8283257438275247	1.681940908953886	1.9309655379180546	1.4211662971855206	1.2449597088852824	1.247133728693331
12	-0.22791334929144116	-0.4064236273041097	-0.7813020924869355	-0.10141549978877316	-0.24319875178924144	-0.03614768004231704	0.13545156981125406	0.20079345950452748	0.6487687809776779	0.5424761162413109	0.5306699858618777	0.5609696493290797	0.2811775200420481	1.0588856908766804	0.8391681888374197	1.147076961482266	0.7061045748049343	0.6238435491070143	1.2727590767197587	1.327142116056942	1.2509882418519342	1.1146570415964672	0.9521138047975293	1.8058446600143498	1.394721146876922	1.2389103142930116	1.7308738187958572	1.4324550592496095	1.6626765686018279	1.4917498789317527	1.6433628756040204	1.2969163623490751	1.0499633524134895	0.9651362871598227
16	-0.050717901310424265	-0.47963109491369693	-0.5919439777687908	0.07365962099313118	0.14122053945172572	0.21584010069712156	0.25150653656402744	0.04490645218478648	0.1551604714052469	0.8259437063344924	0.8180431702941061	0.5210064040381315	0.04957944514750803	0.8452342727301854	0.9160806513545686	1.0784764262627045	0.6190690978632704	0.7206538897439394	1.110822674807747	1.2551747528810981	1.155397531453324	0.921548185406011	0.8802387096115647	1.8224024726632804	1.264308926251286	1.1372487516300658	1.4029809201104626	1.1264486284426116	1.492179509210209	1.264698263789976	1.2740061250946009	1.2202005355545438	0.8806293584524364	0.6464083178412425
20	0.21294888800262368	-0.2872792773146218	-0.2849188141781864	0.20704773016153513	0.512602804797111	0.5378214703332629	0.46025982382918185	-0.1060850990120414	-0.20520667679952226	1.1345478267635327	1.1480480403524949	0.48460483428674433	-0.2632451050787782	0.7464780788648357	1.1080245943704756	0.9964159105893027	0.5285469280249834	0.7356174569630874	0.9757755374114341	1.2683888641758607	1.0358750794006581	0.6718742830479432	0.7574739437052379	1.7976753666313499	1.196568486053662	1.013632414165983	0.9453136897062079	0.7517349701021737	1.345165726126488	1.0057015393614825	0.84271567847156	1.181457754966935	0.7317482810619065	0.3167918018449072
24	0.5116905557111268	0.17871969893155812	0.11240253569119028	0.37834373020970613	0.7836561779263961	0.8769586660178563	0.7421889286376276	-0.1210499328298878	-0.23523525834297007	1.396474357893919	1.4215979540218942	0.4322109807546279	-0.5116971718266802	0.7890022973167375	1.3579727376984625	0.8650931098077321	0.42762124430457643	0.603308497336198	0.9154809690249975	1.343624707644356	0.8653606750574534	0.36757251527489526	0.5383196459530378	1.7192431644901998	1.1765953272677248	0.8342370369829568	0.401373742997554	0.33487713252396234	1.2151985137776218	0.7252304535675287	0.38833174011414584	1.1402465076268307	0.5913071021409737	0.016394840512009907
28	0.7114481311955569	0.7385166268776427	0.4922716903178787	0.6149385555954091	0.8494326450836297	1.1077345581697309	0.9911757086524596	0.03191316119719801	0.03140896550831595	1.5010367594014695	1.504503842370011	0.32043835439841417	-0.6037703737273964	0.8733419753913064	1.530283447216728	0.6365549548290105	0.2827422909750634	0.2842881970380549	0.8969735480550312	1.3887561524614402	0.6079212411790746	0.021981125641996547	0.19294215690060135	1.5526330431838602	1.1387361259320354	0.5602968321005537	-0.14658133648580607	-0.08235229531000189	1.0773618194082188	0.4538505959973106	-0.02262315893421884	1.0566016408946541	0.46242895605637135	-0.1982494289638085
32	0.6690280420578149	1.114197489786409	0.704058406959606	0.8525413849286861	0.6313452108655708	1.086770054934392	1.0584022972087725	0.2591943734300698	0.3697693636618353	1.3543072904726094	1.2980416980395932	0.10457003090206271	-0.5499029145662184	0.8587576725259066	1.4860643110902725	0.2923213832150539	0.05282740654124711	-0.2032540435427716	0.8448529222138752	1.3025436368481123	0.25464829738220607	-0.33353084241581965	-0.2594511204367915	1.2791069713723109	1.0145851348056674	0.18592429114130407	-0.5921540841410936	-0.4417091000848955	0.9159496403456832	0.2441582822595743	-0.3024216286653223	0.9195251441627972	0.3703649630732497	-0.2691810720323277
36	0.3238572768140986	1.0900149317877719	0.6257509573396558	0.9618465280090405	0.1296465393607843	0.7379733305418867	0.8346592762854796	0.39369049568914777	0.5142956959137475	0.9426398253483347	0.8053423741988531	-0.23005440773101232	-0.45063611751268956	0.664212404004635	1.1694002121964742	-0.12612599102601438	-0.2799925499045827	-0.7707148770900817	0.7039725166667016	1.0438665125240973	-0.15085126421512257	-0.6501339061535221	-0.7376738768072912	0.9298381185897319	0.7852408866130384	-0.2376671427448273	-0.8328035452797279	-0.6762891394706652	0.7460994701621784	0.15458686610769914	-0.36740925815326764	0.7559388260829235	0.348342686012075	-0.16523808199171897
40	-0.24514369604683553	0.6471452100627402	0.2345649892130019	0.8274199345679174	-0.5485470877149358	0.11915042966323963	0.32723310507171927	0.29651585146427534	0.3271162203636098	0.36368802098004566	0.153795465438692	-0.6441680176683708	-0.43134587894254206	0.32519671238810943	0.6521792395338256	-0.5191370831734052	-0.6844996792677456	-1.2786709037922352	0.4885807919087708	0.6680113060298032	-0.5156789409015575	-0.8712004401145783	-1.1179069252399954	0.5911575540876098	0.5060819970705018	-0.6091848596451226	-0.8014147857459398	-0.7272514086481806	0.6157371982287382	0.22223821226277024	-0.17222830609707146	0.6172996743829354	0.41332504048897106	0.09491968876000369
44	-0.8364421704154997	-0.009741402206562149	-0.3620402505793902	0.43076631318053177	-1.2112712829525762	-0.5753025994080962	-0.3156783572809917	-0.05089399950767825	-0.11784104228070033	-0.2005653823318703	-0.4461079228582134	-1.043882605778146	-0.5600777850315573	-0.026374187253882388	0.10786735239213179	-0.7667354325963447	-1.075925585891337	-1.5823451240643498	0.2842102043605632	0.306152760209552	-0.7322553973783752	-0.9481390094660729	-1.277799007050662	0.3726581921705482	0.2866964034948349	-0.8162048438445848	-0.48899298782867434	-0.56252765513493	0.5842598661930375	0.43829622754064046	0.2638020806804756	0.5511562214287463	0.5475165830140158	0.4409056592776741
48	-1.2141957252364524	-0.5559818134575785	-0.9594042873001797	-0.11733255505740528	-1.6536180931303135	-1.0891258689085468	-0.8545130469682334	-0.5203366266464814	-0.5824455008106554	-0.5617653713348221	-0.7907769064011548	-1.3080826964731045	-0.7982520440928532	-0.24369680819972714	-0.2735247605093675	-0.7842109779585646	-1.3394441570796545	-1.5851303298983823	0.19977506944762755	0.09858582888985051	-0.7277854066593752	-0.8561291673025929	-1.1462398738531538	0.3537136903415474	0.2361409807203678	-0.7871879319343554	0.0513357332542837	-0.1898259515738056	0.691013453646289	0.7425975184765314	0.8544860460642183	0.5768775925376647	0.701189873832388	0.7762040476275229
52	-1.225181338077979	-0.7264059167641764	-1.3453067507156706	-0.6222417934920093	-1.7517791942237282	-1.227392193556406	-1.0665249797596759	-0.8979687668063331	-0.8153348544516398	-0.6179459079399586	-0.7806655148823416	-1.3367309536563288	-1.016844627674108	-0.2555319660410926	-0.3842115988567717	-0.567717789170288	-1.3760857547349459	-1.2776755062269993	0.2982604198078016	0.11788335412780344	-0.5042391406679891	-0.6053845271084833	-0.7355700712706107	0.5385417328589103	0.40243315595111706	-0.5309922681753646	0.7186791282628717	0.3399839392661348	0.9311912632320064	1.042616007079867	1.471390005211489	0.6796030981071651	0.8171651342741366	1.018617389014542
56	-0.8835839010818483	-0.47070652127633245	-1.4038571083864486	-0.9067683197015969	-1.5324515065603141	-0.965690967982702	-0.8616502859295532	-1.000745055533054	-0.7129976135372259	-0.41177284613597165	-0.47563812016563006	-1.1011483641479682	-1.069785830657815	-0.11051936419716935	-0.25690904194818404	-0.20682683534855523	-1.1528155774574624	-0.7438194732959865	0.5473837838657916	0.32436266459587315	-0.14886824749077435	-0.2452644401556844	-0.1405012306003924	0.8465332963551405	0.738294122739258	-0.14430549704357684	1.388862010310294	0.9406314468476986	1.251162764251396	1.247500178048485	1.9838834950903579	0.8222458937866081	0.8611854889107682	1.133798715589887
60	-0.37883153462131636	0.0076071661704941165	-1.1805322140451995	-0.9104478336235814	-1.1775521010232437	-0.48352074501030656	-0.3445772519948637	-0.7825836519510155	-0.3908055116800132	-0.12014526098435159	-0.0778470633448674	-0.6717450005737517	-0.8830696322080246	0.05027056845251436	-0.04949649410864161	0.14303475582249622	-0.7323689442263857	-0.13117866184970628	0.8244851210758763	0.5795830473571891	0.19090799939116496	0.14020499551660662	0.49327158803378374	1.146299120869911	1.1133773298763703	0.217671766327606	1.938333744877296	1.5064058265799918	1.566021438459506	1.299479958114392	2.294426435399757	0.9653966402475443	0.8370366075363439	1.1390811176151245
64	0.0001562046960010555	0.3546306183921346	-0.868903038692156	-0.729346511906746	-0.9552963351926314	-0.0967757028878174	0.21484962051506723	-0.3700845232202895	-0.1195738759598161	0.023428769723033597	0.15279772839115457	-0.20659764058881133	-0.5105852471812026	0.0777360273425118	0.035844217895370505	0.31655928412622547	-0.26524513892916685	0.39759874243488036	0.9774762963411611	0.7116790991934784	0.3583639553082154	0.4460380066100683	1.0145753596439488	1.3183706965539412	1.3685448135155818	0.39517357845670464	2.2612757625708566	1.9311271857142773	1.7906331970782068	1.1878366440346921	2.3548719823510287	1.081867692123283	0.7766116837921127	1.0774766179537663
68	-0.006610880589185577	0.2553763979186216	-0.7198108416503647	-0.5693918452192231	-1.1038744421745328	-0.11526226223216504	0.4960435318343872	-0.004102481984420147	-0.1616659458370262	-0.16216014284677244	0.012364099702315124	0.09958337967287346	-0.12082813649665794	-0.09363985038003718	-0.14362871610618339	0.19935885021421185	0.058218020798801055	0.7150852066105685	0.9098368860161762	0.5990712627544582	0.24366740820876592	0.5691826925212343	1.3101714816393395	1.31381034519369	1.3862457240391284	0.2808213226857697	2.2824778499196703	2.1292335933333084	1.8704251003725403	0.9425600147291819	2.1636917536467006	1.160191533020505	0.7136306744677869	0.9821761225698348
72	-0.5120727406924617	-0.39544507761297104	-0.9174087620461008	-0.6358813031354598	-1.7219257311261882	-0.6952715498536474	0.2736683182959466	0.08289974906972047	-0.6071715935636273	-0.7198026758140511	-0.5589132890895204	0.08794850088802829	0.08140593746613115	-0.4019107510433021	-0.5997578486558925	-0.23197072685802528	0.07860328237238472	0.7610304336407167	0.6404445751232978	0.22918558062863742	-0.1775665278720001	0.43725579866639047	1.3305954899572197	1.177260634311028	1.1429848642101879	-0.14378555082735267	1.970244998725866	2.0560216851776967	1.7996692612033423	0.6151546224321744	1.7529587701408549	1.199742314170649	0.6592758877321558	0.8537691810033146
76	-1.4300140106336412	-1.4342001640349376	-1.485069151943615	-1.0189304326081121	-2.7187046936059014	-1.7608458951362007	-0.47334647059141405	-0.21183776801984855	-1.3097444739652468	-1.5333319863707133	-1.4538973533162616	-0.2980496279820857	-0.04220660765243743	-0.686566649134048	-1.2092632024751633	-0.9033304430089217	-0.2660641365486353	0.5485711083867196	0.3038433782535601	-0.2952302388843608	-0.8356912114978706	0.03766388809112418	1.0936547490164361	1.0238687966245745	0.7208313327709877	-0.8029876331083018	1.3521928753091856	1.723577733456612	1.6226545531312795	0.26143789225375114	1.1797944277540324	1.2055921524127153	0.5985580071595932	0.6684347374252185
80	-2.5123915608870457	-2.5110595162889684	-2.272393220886294	-1.638441796934499	-3.849146117982646	-3.0340540332485633	-1.54429375735439	-0.8074237087845102	-1.9609849403462303	-2.3803451001150844	-2.448823922650322	-0.9815697645200656	-0.4916080224023027	-0.7757857422315454	-1.775093074131602	-1.668854113180042	-0.9076020098659654	0.14713233672187984	0.08727259166856245	-0.8023560622938563	-1.5888574083267775	-0.5644761905723626	0.6709021908987557	0.9821642016409098	0.27462959220213473	-1.5519469937242276	0.5282087312713816	1.2066293924384779	1.4194606506749343	-0.06443677081290254	0.5280172215482019	1.1890026300928445	0.5109198676561267	0.41263863340147067
84	-3.456451407288924	-3.2675027764793523	-3.0344936771073168	-2.280276292765805	-4.818574893229775	-4.160469998345921	-2.603225939853878	-1.4816787205480613	-2.2639555873931925	-3.0311770362618087	-3.3000173485408157	-1.7743536189103855	-1.126036402720386	-0.584516583397437	-2.118568891898442	-2.3565330445874353	-1.6670525031916097	-0.3445674172285006	0.1363485750093754	-1.1247220010971175	-2.2655889930744935	-1.2316920726196465	0.16712857740644818	1.1333059043881284	-0.027872119028531414	-2.220373386499199	-0.3329957119163772	0.6319288595457379	1.2837394443525585	-0.3059475414181085	-0.08848939813683812	1.1740059822959297	0.4006760110275749	0.11739064723417283
88	-4.035127152745633	-3.513536205957665	-3.559272041871246	-2.705390923345326	-5.407620416339746	-4.8667998191028925	-3.329331151185922	-1.984920139069674	-2.102830643113104	-3.3451228057328435	-3.840349426110324	-2.4458875594375207	-1.7312662557760676	-0.16949225919369337	-2.15484404019858	-2.81710504774284	-2.32111715684421	-0.8232119062620439	0.47936504958241366	-1.1638138264836497	-2.7135424545442275	-1.787871117846289	-0.30218428297042593	1.4765775166424835	-0.065998554063106	-2.6598677568037665	-1.0246474717019542	0.14894534609859666	1.2993679013824972	-0.4000506688984927	-0.5338038192623213	1.2014661997024902	0.314701675574168	-0.13341639902285904
92	-4.191058148293107	-3.3138210689802077	-3.775139083867738	-2.772539608631114	-5.559105859072517	-5.073059069223007	-3.559132328584245	-2.163179630540083	-1.6112996299116569	-3.319679013453943	-4.032495488476155	-2.811976902537892	-2.1203031486384485	0.28733366655284204	-1.917671675608784	-2.9616808816521134	-2.6884334019495406	-1.199936625312126	1.010897633861303	-0.9185919142419051	-2.839667313081994	-2.073109621535921	-0.6338788254946416	1.9358822058438736	0.19723716328414378	-2.7810170580268245	-1.3577705587438949	-0.11252300412855779	1.5206191501372461	-0.2836383574000319	-0.6770969016146219	1.3232192959755986	0.33294227635247103	-0.22890974523447452
96	-4.046934594427248	-2.9389443323320763	-3.778258552548827	-2.5083429750055437	-5.386446462383196	-4.90489767743566	-3.3505268012331157	-2.0240130373398095	-1.0980225773745491	-3.0729441565176847	-3.959121455687163	-2.804042093826846	-2.2125937882827564	0.5653247222932428	-1.5271512231416893	-2.779193394319881	-2.697535269602342	-1.4096236193353295	1.5427542885930179	-0.4707099485433984	-2.6310400896402215	-1.9999041506819286	-0.7556335310931548	2.3993043838959522	0.7117470484883508	-2.571787589255762	-1.224622961767133	-0.0827659887966016	1.9568945120042016	0.08537822195193262	-0.43507435808008593	1.5825898607351796	0.5321905599509037	-0.08061666766316933
100	-3.832506885389158	-2.714195483030738	-3.763348331486618	-2.0904989189773686	-5.103239046563802	-4.606353271298543	-2.939558975427448	-1.7157869295669803	-0.869286952208185	-2.774213068633603	-3.7631840610860317	-2.489380830201734	-2.0541531987779953	0.5185608850738163	-1.1243110866770734	-2.3334124029374355	-2.407559150339344	-1.4178382122482445	1.8936274003856763	0.05819910750000352	-2.153899664209143	-1.5883080919219144	-0.6430402977920677	2.7668068339110907	1.3634878362563156	-2.096075291109896	-0.6447803361826024	0.22283695581918855	2.5620849067851417	0.69820689978749	0.18567219329686305	1.9864633033190129	0.9396436786769747	0.32908010399703347
104	-3.7661521339697734	-2.847978823147069	-3.897655000382756	-1.753772015912117	-4.911854731556279	-4.404125679340857	-2.6139233046339987	-1.437005397029564	-1.0553058359205088	-2.560912125797502	-3.572785606900604	-2.033182854287483	-1.773114557557923	0.15571737250113854	-0.8096432069364077	-1.7429282621247977	-1.9722763250146826	-1.2276209561824765	1.9695501277788288	0.5520799146064984	-1.532964821759824	-0.962369558765624	-0.32936271941952244	2.98183368883695	2.009418005638377	-1.4749638997031982	0.2292346799546472	0.7067382913865863	3.2329990782174667	1.4732150994299036	1.069204089326276	2.4853243765071418	1.5040588340932415	0.9277148819389035
108	-3.947056998777925	-3.326920977775869	-4.209604252677435	-1.6688753324335286	-4.9071574087226795	-4.395323265422651	-2.5663626129205817	-1.3270730938784665	-1.5376268586438053	-2.4824778970984345	-3.4479439171523225	-1.6201093155965067	-1.5009608230842175	-0.3546329727755973	-0.6144576057179307	-1.1509597272424215	-1.565307970863346	-0.8825831987032406	1.7947832300648603	0.9279680228646255	-0.9186882949522636	-0.3080658010811106	0.0983648372193231	3.0330257339194944	2.5092544492311477	-0.8572062828356096	1.1520044774534068	1.2190918891645206	3.81949542988612	2.2558245601920417	2.006086106003845	2.9715754910784256	2.0989091343339425	1.5707753857054991
112	-4.307687748523548	-3.927416553118284	-4.559753883293636	-1.8582974625400004	-5.042182909632993	-4.5153126602613085	-2.803444855287705	-1.3992123568494084	-2.0181002565930193	-2.4947555002168507	-3.37169384105089	-1.3746159041984958	-1.3075007167229868	-0.757951436513328	-0.5124571310456476	-0.6928216797502746	-1.304961082024809	-0.4629012334580567	1.4821041785013938	1.1397556037736998	-0.4520837951213392	0.18934807133552545	0.5178813325204478	2.931052677383739	2.7475798060665677	-0.3864154805917775	1.8563023758751156	1.6021295745454047	4.150212277424553	2.8471167015672143	2.741853707066743	3.30159782529769	2.557222836713799	2.0841853566001203
116	-4.649281490031712	-4.329869736229995	-4.7141508937070435	-2.1881260816642336	-5.16648338920808	-4.594719398342075	-3.154456130646604	-1.5474100073846693	-2.188956731991726	-2.4987878736350146	-3.2811393654952163	-1.317827936659987	-1.1832002371478993	-0.8369926193086107	-0.45575728897421663	-0.4665371763848205	-1.2143541543818654	-0.07108352315360401	1.1628704041685267	1.167605873974686	-0.23393520653789515	0.4030754257992727	0.8029761294118891	2.680572979834987	2.6486642293814913	-0.1701705153460413	2.128911251415177	1.7334933237178325	4.0747027294279405	3.057886831192542	3.0451447886832086	3.33897852054633	2.7268559863862243	2.314970487471912
120	-4.742315280385204	-4.2763466727054595	-4.4799132234	-2.4384453235096553	-5.114077555142394	-4.46858166520107	-3.3725278292384817	-1.6177397925540884	-1.9031587791076447	-2.3999864994490396	-3.1161947171689857	-1.3794362510186011	-1.0709179612778206	-0.5211003409580602	-0.41092818871699216	-0.5126457201412409	-1.2337974278770873	0.19243702243856645	0.9202597118031545	1.007325765927511	-0.30473786515544604	0.2948628656572152	0.8595108368153869	2.268885368340829	2.1885046903668908	-0.25660222703997737	1.8645412874830376	1.5543936451767906	3.5119335562729908	2.770708553948237	2.773418181092885	3.0029907150744273	2.5230245526509716	2.172392362831887
124	-4.438610542535041	-3.6932184602952707	-3.8251731299145098	-2.4133248268232004	-4.792687403976288	-4.0730585949106075	-3.2697350896298443	-1.4980796537723389	-1.247382280061417	-2.155271763128408	-2.8558287548441688	-1.4516779147690086	-0.9210970378508452	0.07562299053649492	-0.37394449020387593	-0.805911598555021	-1.2715903488479536	0.25656735832287175	0.7595599870578202	0.6711079461320009	-0.6374095066189976	-0.08867690689824749	0.6523466093759324	1.6784657197536754	1.4059610331324186	-0.622127412178974	1.0846315594945397	1.077709791323539	2.4891884264088846	1.988451475845121	1.9168169450048629	2.3038484992034833	1.9589501569880252	1.6497751432727674
128	-3.7433609867952597	-2.7226204803391787	-2.913285486495369	-2.033712620368909	-4.228251446539047	-3.477898827355014	-2.81519984488205	-1.1766236990785661	-0.48402416583880853	-1.7868040754982137	-2.524173968617918	-1.4538905583867743	-0.7326619606593616	0.7030174118412321	-0.36006194262196733	-1.2616219488715956	-1.2625217405868532	0.10271431479747213	0.6231433733466055	0.19736307809591389	-1.14399516293658	-0.645758150377674	0.2160520250110854	0.913107154448166	0.40634810821936995	-1.1746611565496465	-0.07832134495272834	0.3783016791329233	1.1524467439165236	0.8484567382371861	0.6068843587811799	1.3486809696478863	1.1443090409951748	0.8258931615958505
132	-2.813852779913527	-1.6555508333369207	-2.0320653864100553	-1.3699901069384464	-3.546195259677699	-2.8432121205071264	-2.1478602831971694	-0.7422611694669131	0.09553488319833847	-1.3616281713440186	-2.169327968842431	-1.3728116716057	-0.5558540210995027	1.0893267365609327	-0.3804289390972638	-1.7573728517031968	-1.2016990154443952	-0.226836084746813	0.43712004908825725	-0.34202876600695903	-1.6967135624963003	-1.2582730023087008	-0.3553447714417079	0.021405812298851256	-0.6516818387744308	-1.7748304560673847	-1.4191511833600419	-0.42693266164754723	-0.2626256340071916	-0.40690627591395984	-0.911597726427685	0.3146778337163181	0.2545128756296183	-0.14895264766756322
136	-1.8873102617297506	-0.8022363165628048	-1.4532531463171556	-0.6033807381654833	-2.9037220404745927	-2.329586023171095	-1.498309727700591	-0.33205240881054354	0.31866407313954237	-0.9532323455585602	-1.8316816045291962	-1.25709879080959	-0.45743206027888716	1.067117211508669	-0.4236432601246327	-2.1659378950747454	-1.1352688045449157	-0.6420690401079049	0.1591558005367765	-0.8491403439063892	-2.159925932199299	-1.8222210361250422	-0.938281176105494	-0.900187728516429	-1.5900485475449615	-2.272240156158897	-2.707140438874356	-1.204204675495137	-1.4947122297696105	-1.4969222507830124	-2.3391957223961004	-0.6015512332033666	-0.5177613483708178	-1.0810137959843866
140	-1.1809833019957208	-0.3649048796023854	-1.2988880839932668	0.05622026310077904	-2.4152395664271307	-2.017201180133497	-1.0670644017935311	-0.06138314663767268	0.20004367777862966	-0.6097806676727932	-1.524229641880755	-1.1743757695111825	-0.47545748829009427	0.6467105729941354	-0.45657801512837926	-2.391056293172758	-1.1183030577081725	-1.0349067423440819	-0.19997629472788123	-1.2259595363182019	-2.426265472008424	-2.262336248408023	-1.4177192413775732	-1.7318832830572246	-2.2594873848135313	-2.548065179113629	-3.732045879478247	-1.8296327544748596	-2.3347499311628184	-2.1855289880886373	-3.397149315840137	-1.2411496607915693	-1.0145589087620324	-1.7756202176086646
144	-0.8121986964700558	-0.3683941653010495	-1.491202231456939	0.4540219891529295	-2.1113319343666648	-1.879335875534674	-0.9274753904768007	0.023774633124050176	-0.10309015933473503	-0.34521016391381326	-1.2374108998528275	-1.1605225772167518	-0.5946475848443318	0.0022612381669412595	-0.4443222869145405	-2.395864957482517	-1.169435498146092	-1.3141919341285786	-0.5869535788975707	-1.4096794092826985	-2.4477472243498175	-2.534690612115536	-1.7202030376872393	-2.370264047360385	-2.584585421712464	-2.5514173443273336	-4.3444261441217105	-2.2148809377063032	-2.687619440922543	-2.3519883096440757	-3.9002694985145827	-1.525315280877953	-1.1530586451982427	-2.088179821464303
148	-0.7706862072560171	-0.6743894798418248	-1.8116902067220035	0.5374565110942247	-1.9506264875754467	-1.8204587652020623	-1.0041859124579604	-0.04869923728330006	-0.408593981426514	-0.15406586190903288	-0.9633768772597848	-1.1935942142868794	-0.7553365211489889	-0.6183772071484644	-0.3765262951881259	-2.2132224980742596	-1.2521316973544185	-1.4307976925011696	-0.9361367202011792	-1.3994830811452947	-2.250477546732031	-2.624768012095632	-1.8291571094107528	-2.762891047177813	-2.585209363132398	-2.3152565897661113	-4.485239971280838	-2.326952689971567	-2.592760794769216	-2.024212832108592	-3.807289113922675	-1.4695343934150265	-0.9453081464742578	-1.9729974220053548
152	-0.9518108939935455	-1.0656008693494115	-2.031257862684677	0.3509373059949194	-1.8719279718821125	-1.7511999562872633	-1.1342974872561082	-0.21013453549736963	-0.6189554318059706	-0.03602488702380916	-0.7207266670150264	-1.207687851717727	-0.8884955026128741	-1.0123299334716396	-0.28173568773663804	-1.9307491730580661	-1.2941558328379172	-1.3844743932101655	-1.1982547014501006	-1.2573341099465691	-1.9235985230517059	-2.5448028977040185	-1.7780549481323027	-2.9200308249182805	-2.361075872182167	-1.9416967581363223	-4.1959972275653055	-2.1944563333419764	-2.1940066759029264	-1.3596895898822383	-3.227813950972257	-1.1658284634719713	-0.48956531162636263	-1.5059388837940002
156	-1.2240495650858414	-1.3545999492777179	-2.034923548329109	-0.00735147202394029	-1.8488922072460583	-1.6515636402393823	-1.1714701622950077	-0.3942737271368025	-0.7570711355168628	-0.010657776120218853	-0.5604805336152877	-1.1373680801286048	-0.9520840620798614	-1.1057925196385623	-0.21868000869375856	-1.6550798374350946	-1.2330863444667124	-1.2122119634540465	-1.3523063625525515	-1.0795904370707439	-1.5843893249564054	-2.330631011800659	-1.6264589983883977	-2.8995087073553476	-2.045318121514535	-1.560870881908179	-3.6036887077899884	-1.8960401964000924	-1.6737755494774311	-0.5821344241703581	-2.3806049763656487	-0.7427790742240589	0.06432369335146852	-0.8633768536704027
160	-1.4919581375600721	-1.4656808339307372	-1.8722884607728039	-0.4359433341940724	-1.911890382708036	-1.584107037359462	-1.0713850232731013	-0.5633753523907854	-0.9134696698967747	-0.11069402815766205	-0.545415519290988	-0.9638059710964395	-0.9456937885249809	-0.9643215512724449	-0.24659566518989817	-1.4681136571057471	-1.0586693260166922	-0.9666027402315293	-1.4006420338553813	-0.9514737701235471	-1.331136819339703	-2.0337228723677847	-1.430600877964618	-2.774039023071298	-1.7473602250805271	-1.2784032789378694	-2.879289142968531	-1.531486507363837	-1.1807999581088546	0.10178156171373702	-1.514076109878192	-0.31986439147299867	0.5659765586868608	-0.25688496167175556
164	-1.7239829258307722	-1.4529344998869909	-1.7085944371000932	-0.8604141452046773	-2.121666902907466	-1.6495894152001163	-0.9093531347204005	-0.7057641726794815	-1.1510176629569968	-0.3552787891001081	-0.711240587822973	-0.7317318897846347	-0.8976786113962991	-0.7339357715196404	-0.3889524330809473	-1.3932698929895948	-0.8238003233137808	-0.6965603810843717	-1.3576377595956706	-0.9061378813753993	-1.2030388086462738	-1.7064553456137945	-1.2224856584201733	-2.5992376738727363	-1.5114649496064643	-1.1335337133398846	-2.1810095255145985	-1.1859495609858677	-0.783540664125113	0.5705056772133287	-0.8194883445076815	0.025061257120278197	0.9117155648101085	0.14915563128483333
168	-1.9392701338443532	-1.4530976974039738	-1.7115042166413916	-1.2330330579144178	-2.511413806296619	-1.9142355870554475	-0.823457715816477	-0.8146766999656916	-1.4363049232459322	-0.7198877912465754	-1.0331054899835173	-0.5264107571662714	-0.8398039915816335	-0.5510711656008666	-0.6114027484716152	-1.3890057767131292	-0.6168522223157363	-0.4422705758372621	-1.242067214690925	-0.9107301808251695	-1.1674628228275863	-1.386431094483912	-1.009079453781665	-2.396993869451712	-1.3113890853197372	-1.08900141441057	-1.6057821471680187	-0.9042503214894179	-0.46835180998810333	0.8121819475649162	-0.37389337922111004	0.26465064220367807	1.069313404244518	0.2987016431896375
172	-2.171313995601333	-1.600512023699574	-1.9436037491364513	-1.5164383611539662	-3.0370953006359045	-2.355240577473389	-0.921379265843144	-0.8715712406087898	-1.6474496084580823	-1.1252094478808599	-1.4207614624392282	-0.42546972524987364	-0.7887825349920056	-0.472930310962643	-0.8290809968043242	-1.3743715251555337	-0.512784420149283	-0.24210832951931233	-1.0758790942685297	-0.887917099141434	-1.1427938909288098	-1.0890512438934763	-0.7899147848213002	-2.1601881926356485	-1.0816683741916573	-1.0587018701526574	-1.171219345950426	-0.6878671628751187	-0.17670494273394713	0.8991751648135412	-0.1370493021127469	0.40989312426075836	1.0724042626961872	0.2540229552531239
176	-2.43467687945789	-1.9475232313576958	-2.32409190544815	-1.671518321585486	-3.5705213456605933	-2.857193462787501	-1.2069369524047424	-0.8498885014057209	-1.6525396066904705	-1.4558315240343396	-1.7485409930905464	-0.45389300470196126	-0.747105238935579	-0.4643113601405927	-0.9410214400374793	-1.2740629879255732	-0.5314953313759988	-0.1393616046963254	-0.884685454519161	-0.7600317578200264	-1.0456097099607973	-0.8128256777268652	-0.5789045676874238	-1.8695516539102068	-0.7646566014057619	-0.9587649678819329	-0.8348489978693208	-0.5136260973360313	0.14575530551827184	0.9311384535168687	-0.0009485215390367596	0.49135681862753106	0.9912366842039109	0.14816929362558043
180	-2.7127497127707163	-2.4318330226535467	-2.6800482205437093	-1.6640924173302478	-3.945235480838188	-3.2620103276864567	-1.5685232838129917	-0.7381014209231856	-1.406168814923581	-1.6034072597075841	-1.9072899770265968	-0.5681316838225634	-0.7197785955376227	-0.4418795097638781	-0.8756262637919112	-1.0601804229672227	-0.626967666950384	-0.1777953203003928	-0.6936321241032394	-0.4922193276375757	-0.8383168556982422	-0.5543642030071032	-0.41605037345747786	-1.5094113311805577	-0.3469455531420673	-0.7554374914169835	-0.53912335498116	-0.36190965680301707	0.5157999383301461	0.9778647398101816	0.135867908253959	0.5436092005356302	0.8943548775980806	0.10488022837385186
184	-2.9687585755734527	-2.9068202899021953	-2.8555600571062	-1.491890307474489	-4.036852349579656	-3.446562758327074	-1.8385287476851264	-0.5655522332217761	-0.9979715918140126	-1.5168597659914642	-1.8542778445157861	-0.6806842667560162	-0.7274881582966308	-0.3426124444894484	-0.6262391789837785	-0.7694147805815233	-0.7149536591598814	-0.37893125319177384	-0.5149847852102559	-0.11235204310661241	-0.5523694143654416	-0.32352438487386853	-0.3560960581848825	-1.0740736695828415	0.13409626450061185	-0.48486363765370566	-0.25563999945947524	-0.23524694085331657	0.9118783450945791	1.0520817014834585	0.3108058265945174	0.6006460174654482	0.8226038196775806	0.17235591964121338
188	-3.1682159820675517	-3.214727870454149	-2.808290474477131	-1.2083719938287316	-3.8313348196572536	-3.381846419379139	-1.8857215595319183	-0.40567150609591035	-0.6143221243606983	-1.2308893172658384	-1.6322909552370768	-0.7079217416056137	-0.800424454575497	-0.16811297791475077	-0.2562661462512598	-0.48329254862836013	-0.7199069243375	-0.7125095707070372	-0.3340291372448838	0.30479746980007094	-0.2711190872499841	-0.14468561076351102	-0.43565645703949274	-0.563047109612836	0.6173636897712625	-0.23146434069845326	-8.95427817808279e-06	-0.15298788210866918	1.3037687507137325	1.1255199880793556	0.48936334128805115	0.7010509950104119	0.7884995321393264	0.30907615941214733
192	-3.2949685967225077	-3.2661416448146983	-2.63525127699226	-0.9200286842005884	-3.438923111816211	-3.1408479134415814	-1.6849782424346817	-0.3464725604846464	-0.43515521178051964	-0.8538331963916417	-1.3455189432505352	-0.6105773433528495	-0.9520345306201781	0.018765473690934453	0.13081435826175888	-0.27957585383401	-0.6108747705295279	-1.0804223987004182	-0.10894221784981382	0.6803168637265484	-0.07917921970165342	-0.0389505959063837	-0.6365648492000182	0.025617087195211722	1.0606170865937448	-0.07480770330615434	0.19205568682341748	-0.12468739567508945	1.6893993573450892	1.1739418476983132	0.6087086781392143	0.8916228391070535	0.7954232076589552	0.42691159140567236
196	-3.354784003370805	-3.088521234343957	-2.5183927949264593	-0.7513616066082434	-3.0452802104357963	-2.856877558170989	-1.3296928372190202	-0.44311296827974583	-0.5311728106439334	-0.5210690485196322	-1.1072800131498213	-0.406964569256403	-1.1507866353544307	0.13632349635514945	0.439324973904544	-0.18290035380438768	-0.4093601395285225	-1.333678838223666	0.2081742579449458	0.9743387674527508	-0.007481399904674285	0.0013329475153111504	-0.8698925950022186	0.6929324847846323	1.4695166312309282	-0.0361403747480602	0.31021663468240024	-0.12161458252958066	2.1104516929748445	1.2188546626789134	0.6426923854813922	1.2185976474512907	0.8592755176784077	0.46370732667196396
200	-3.367404690823682	-2.816698782485077	-2.6210274630175516	-0.7881649116644023	-2.8217036652849408	-2.656053059547773	-0.9796237920823517	-0.6786167008432676	-0.8248406627810639	-0.3344754866261574	-0.985507366553276	-0.15273909232200483	-1.3147535290902344	0.13821977342040728	0.6236521585931237	-0.1423921730499563	-0.16642840164603945	-1.3272248473036814	0.638345716772121	1.2058376043392807	-0.005382608608722765	0.028253568265034206	-0.9981554125380359	1.4266444408637062	1.8950980853871513	-0.05531406388622432	0.4043428291602543	-0.06977834534909136	2.6340722971215795	1.3363231386778052	0.6447945220880232	1.7054679350709385	1.0137464974557948	0.43762722500937057
204	-3.356990090477662	-2.629820578611196	-2.994337312767784	-1.0310020420747044	-2.841542713620472	-2.6007835799357277	-0.7754072527381772	-0.9614974236054724	-1.140443799000539	-0.3178918055614598	-0.974042055531808	0.09735856180644317	-1.3413209881296033	0.04267952207876228	0.7037340980882019	-0.051404178012764534	0.07361552845726992	-0.9887006257844105	1.1492187947822172	1.4375824891988223	0.04146779690644089	0.12860822645141848	-0.8892926551300876	2.1872074548812743	2.4002275406319025	-0.01370899282659942	0.5804341420777881	0.1250944730461358	3.309757701146839	1.6237136084569748	0.7380567770443617	2.3297290743181946	1.2934710946804664	0.4479277420655786
208	-3.3487338935227986	-2.6672611169230396	-3.548787346463147	-1.3907500470334324	-3.0496253890289515	-2.6735420159550336	-0.7711653689941567	-1.169121977715365	-1.3127299514052189	-0.41285422340107897	-1.0048557494542552	0.31842207828236524	-1.1630269259653117	-0.07938729951603896	0.7455444317114313	0.1971490974217105	0.2966679923196804	-0.3686665585269853	1.6539572435582293	1.7345269874649176	0.25301155384080626	0.38583087823729645	-0.4818694877379406	2.9041995928873274	3.014058343906958	0.20547768421747054	0.9514738893328363	0.527835725405319	4.126759041857547	2.1406314318970607	1.051600930419914	3.0136520786491947	1.7035516457462478	0.6186748727437212
212	-3.3736686621366023	-2.964832298422721	-4.10354565538051	-1.7331325964085627	-3.3005025303480626	-2.8031697202481163	-0.9194471216829831	-1.2148040502394941	-1.287529226867099	-0.5162830935794755	-0.9917041038270594	0.5181304799349798	-0.7984371165144135	-0.14864450655601363	0.8184305408795234	0.6490267498796145	0.5157719241471724	0.35969760923169763	2.0436174817940973	2.120011562716943	0.6868076903169111	0.8314130881299182	0.17297102467258121	3.492046108966024	3.702500095556261	0.651352403903589	1.5676151474474866	1.1263768644504832	4.999757754100458	2.8586082386323173	1.638284679091268	3.640299787867232	2.1957178060408182	1.0165221665466875
216	-3.4723167331766023	-3.4419217022780004	-4.480622280252458	-1.9503143976561907	-3.4432716282694655	-2.9119269774350784	-1.1108404369918452	-1.100365635954754	-1.1473968000053232	-0.539160548279406	-0.8798655249315682	0.7147285920217777	-0.3644202640392626	-0.12192918329449147	0.9535538530116668	1.254157301597351	0.746165154480555	0.9607097482267543	2.241009229724076	2.5554521019312824	1.2974532809878563	1.4135036432818322	0.9185065007861576	3.8838226697139437	4.3741755375097355	1.2699211803798778	2.367080682500258	1.8170782281775162	5.795635208756099	3.652440300303011	2.423469537338359	4.094572533760099	2.671963684965366	1.5939258296778116
220	-3.684844007725472	-3.9420111079825593	-4.590377796027598	-2.0183682390752526	-3.4035599145788344	-2.9531958028618903	-1.2396384446317494	-0.9208527184125277	-1.0506962511237972	-0.45308357362795504	-0.6739506704480963	0.9091306305820157	-0.035171393216264016	-0.008183984996577472	1.1277613611358306	1.8808845234113183	0.9791664456441449	1.2343473403283967	2.2478132191172975	2.9571847840987675	1.9486305664455372	2.0060229250805426	1.5513668021134488	4.068872441509312	4.921993243188396	1.9211503218783825	3.182888261388418	2.438312762780009	6.392221911504014	4.345645893569315	3.22135876795938	4.31615542275754	3.0237283630323235	2.1982099954418746
224	-4.026103009549423	-4.303235996825803	-4.46449469392843	-2.005620236101457	-3.2170665182906517	-2.9213409350071355	-1.2560404507396303	-0.8137108663041897	-1.1247764797423048	-0.300369261936953	-0.4303941715818162	1.0725632878880462	0.03667826196231649	0.14876221082798666	1.2805268732165653	2.373110526769092	1.1749848097699598	1.1055761547785738	2.1538927500703666	3.240276566907589	2.4728119310889034	2.4588880476859476	1.906379098847439	4.110271443479984	5.276083456070039	2.4406201777827286	3.8080322646318585	2.8398442196672407	6.735155088586188	4.786594378784152	3.813789358046889	4.333143223312795	3.1849093356783595	2.642993920329035
228	-4.460912216367895	-4.429227817796767	-4.225193013014054	-2.0255939909338405	-3.000237218911335	-2.8367211747074745	-1.1794235676551763	-0.8801441170405451	-1.3807398045965478	-0.1645150031466131	-0.222352742587417	1.1596906155870772	-0.20304049500224172	0.3044749192656833	1.3528768982109012	2.6216182642550736	1.281275865180922	0.6584756357734219	2.0994276947421793	3.3643572245533	2.7483742167701286	2.6664249829682416	1.9271879147510174	4.127349843095068	5.438267694094401	2.714208357633977	4.088963498282316	2.9540057107730537	6.861124021373616	4.91567944239257	4.0516934292541	4.255849827511848	3.169256440744124	2.803652994706735
232	-4.899280058889052	-4.324392307807545	-4.0121512311727825	-2.1582286303389604	-2.8766207622379634	-2.7220413616120034	-1.0714212628970332	-1.1207153768854314	-1.704565878379185	-0.11888287186409902	-0.0992694420096341	1.139234539970389	-0.6749590618258604	0.441026597101618	1.3250192370339815	2.61234831150443	1.2664756742926906	0.10034002338348373	2.205252403413596	3.3549315844708962	2.7536048819638315	2.6187148028061054	1.6901838736776422	4.2462639701446925	5.477545724390741	2.726811402112045	3.9992539781688454	2.831834309103968	6.873283845714253	4.78761004192856	3.925714006049218	4.228957165531406	3.0689792555572364	2.684669726269346
236	-5.219779001408727	-4.080046643446431	-3.9130136867911225	-2.388799661327259	-2.903318636239771	-2.588932746072826	-0.9919339989413777	-1.4253947698845004	-1.929599995509698	-0.18407610012309736	-0.06525818987105891	1.020842549607679	-1.1952053278310906	0.5671391472802695	1.2295346229028035	2.4257609782963185	1.1453634471585892	-0.3300456992399569	2.506201737752039	3.2869450963002604	2.5684330398562722	2.4064724384585428	1.3671992982678192	4.53960894392189	5.487554059478998	2.5593852932207906	3.6522321608839805	2.622541897828181	6.880420667443061	4.5350451354922505	3.5662586598955985	4.360887039618481	3.0094523353889238	2.418805831524328
240	-5.316496358800038	-3.8230857752597456	-3.931827773657684	-2.6067078047742864	-3.039618246033587	-2.4418609080652405	-0.9670134758376394	-1.6295341212138859	-1.9430057953415742	-0.318187414796477	-0.08659896232675353	0.8582710602071889	-1.557267542722025	0.6926799399053566	1.1319411964447965	2.1886720602089977	0.9781646107772894	-0.46473216893164454	2.9240980074489054	3.239547959731694	2.324389690252696	2.174803728334832	1.1458115548768792	4.98389242821278	5.529753671036272	2.3376781881439506	3.2438280500529193	2.504152768488413	6.933500272411587	4.29372452605514	3.17252420578104	4.664529788638234	3.0810513418609857	2.196220153985717
244	-5.150166975369881	-3.6546242144820673	-4.004837502858728	-2.666319363537966	-3.175023309320873	-2.292477601939101	-0.986200508965619	-1.6042429168252252	-1.7591398909977467	-0.44511723405990283	-0.12188557504636778	0.7233973127220897	-1.6240375000958664	0.8007900098609816	1.089596030345348	2.0043845126090933	0.8404400923490706	-0.26949375799802994	3.2963986313563485	3.247593156244585	2.1303064769365565	2.0484254308481202	1.1456564635915654	5.458685384319951	5.594157204809216	2.16090464046404	2.9545361921102153	2.598688357467873	6.994196397288861	4.129272450512089	2.908294670391637	5.0391006342501505	3.282684794721051	2.1605200712969204
248	-4.777531134941067	-3.6120777038930756	-4.050696839595972	-2.4790291723604376	-3.2002348819043145	-2.170749181988868	-1.0254636977054477	-1.33226394316956	-1.514726038923182	-0.5045345412867501	-0.15527221521275744	0.6652325374973902	-1.3853714431117705	0.8396359660884359	1.112732407621529	1.8989831161238024	0.780296323713535	0.1582668568668407	3.4507915886539218	3.277700892756095	2.014567370096812	2.067958588147437	1.3705340589252932	5.7937693449607615	5.601313576861461	2.0493702836747145	2.862379543707024	2.9147491381487782	6.954987508380286	4.006548394578041	2.8212206292449005	5.308444486566948	3.5111303240820253	2.3291499555910193
252	-4.336274136085652	-3.6669187453195566	-4.020285596234032	-2.079893106931392	-3.075406543596429	-2.118188852684314	-1.0725336047750231	-0.9240223145997462	-1.385973092394614	-0.4908425497537074	-0.2092168623887246	0.6810209733935023	-0.9550664996829576	0.7445963006293829	1.1533873052087045	1.8143836214033136	0.790907500177528	0.6499009115976834	3.289067021648907	3.2447931684586857	1.9170837353942038	2.1734118406735514	1.7186481909275542	5.8447956891312485	5.446810708599199	1.9409357260337514	2.914296619686786	3.347563496720944	6.701745016343881	3.819113244904785	2.8300337719991386	5.3018898830068375	3.607229938936443	2.5830743247619337
256	-3.989438046873438	-3.754114379941328	-3.919269551872374	-1.6241373974802578	-2.855495684090005	-2.1655175631208508	-1.1360871763156155	-0.5626520500282621	-1.4792010746802933	-0.4573211360352402	-0.32913541710724536	0.7176178079606806	-0.5112348185983248	0.48335701105152196	1.1304919691153867	1.6502213436424296	0.8151783922594994	1.0480860445263835	2.8396232056449717	3.0609848422015657	1.7336975292303174	2.24281691938626	2.04103803119331	5.562266335749108	5.064163195222029	1.7363736585646863	2.9691471978564072	3.7350144291991456	6.18418739664839	3.460963240468451	2.784497015598605	4.939129340099477	3.437859764956103	2.7339758803959584
260	-3.856787671842137	-3.813690175918233	-3.7962376975534826	-1.3132643666489259	-2.6610922746229404	-2.3102168978537865	-1.2334706752152538	-0.40903144971573846	-1.7645235017095573	-0.48427781340400977	-0.5500232563437161	0.7036924940462538	-0.2122214282161379	0.09441322809462588	0.9770375465520772	1.3305258717322979	0.7807977775887642	1.268773194924402	2.2530982437468987	2.6901426247388045	1.386953708007983	2.1643907969188616	2.2162239495589913	5.021481978136186	4.472435939941095	1.3672857250025252	2.886854879720059	3.9402875800785857	5.457438931991555	2.900970690078707	2.562790387358922	4.2804484259299675	2.9742388650188447	2.6325366430574633
264	-3.961474170219797	-3.8174574278771054	-3.707200279412802	-1.287725326147915	-2.609625332919386	-2.508309596404554	-1.365948435195721	-0.5163841830567594	-2.0900034851712466	-0.6274579747570684	-0.8638650157098807	0.5960550293178596	-0.13007800248206283	-0.3079686157080497	0.6844255310898322	0.8590131380327689	0.6472865326751458	1.3173220124364107	1.7402430728844458	2.178639406425734	0.8842170812216985	1.9034444045646872	2.2056515161140045	4.3963088878261685	3.7818298244361728	0.8492459037320199	2.614349597052356	3.919811000464146	4.6702766300543885	2.2175850812236457	2.1516163294828523	3.5139396101924865	2.323580020760111	2.259213203448257
268	-4.2216434372173515	-3.77032708169788	-3.680449476486567	-1.549113508128049	-2.748144858097612	-2.690015309217886	-1.5041588506869221	-0.8034524301270868	-2.2647139968913996	-0.8789293147784448	-1.210383531375533	0.40993243352388853	-0.23269183874985852	-0.5736619815647958	0.31639721909749036	0.33019688642104794	0.4348852027403688	1.2585278717691168	1.4794535599549243	1.6427165228377079	0.3282164624987409	1.525521393739066	2.0636603780142457	3.8849367997312725	3.150480262431544	0.2880519025205721	2.2193736973995497	3.741380920500821	4.002061356930678	1.5708785017407	1.6627927976588464	2.878285162334469	1.6912591414666756	1.7463519529120521
272	-4.495336521243139	-3.6923761274574316	-3.702857008168275	-1.9588377426282626	-3.028645269376721	-2.7944497991580715	-1.5987336595225454	-1.100865242086	-2.1665067618030456	-1.1667604416953263	-1.500532027270786	0.2134188557243299	-0.4141407598529852	-0.5862143620949327	-0.018953766625949667	-0.11150950910309766	0.21674653833025478	1.168295976550153	1.538711901594557	1.2166064946929513	-0.127888902698924	1.1634741992185769	1.901113147704118	3.6225933937163797	2.7134842804110737	-0.1661540861703145	1.854206676570104	3.54510664044827	3.5804703145228034	1.1260437936963195	1.2765867677882807	2.5564801628417726	1.2890045610308547	1.3162878718521687
276	-4.653684127502286	-3.5976161865956033	-3.7336378003268886	-2.3149588049615653	-3.3386285220730927	-2.8042211461792994	-1.6114830930078123	-1.2436962096285236	-1.8123662426013392	-1.39456891661455	-1.661538119889492	0.08870623238340294	-0.5539360628447625	-0.32539182819228907	-0.22506293597618904	-0.343310414878006	0.07855533043578398	1.096390125367562	1.8472197009178837	0.9880141590922655	-0.35709929376088656	0.9473210549278853	1.825797076383958	3.622895708473917	2.520467513396563	-0.3928116550064759	1.670733328415776	3.468998423401045	3.422045222225645	0.9692332124081154	1.1434054345826612	2.591142171039782	1.2330601184230774	1.1662445038914533
280	-4.648434150403724	-3.488503924145255	-3.735919942960287	-2.4663972792343714	-3.570029726551727	-2.7609717776208913	-1.549123998545503	-1.1601128548896	-1.352375742358895	-1.5005450210833142	-1.6805071788320785	0.0808659268364101	-0.5764591083277533	0.10859661521911748	-0.2713451378647241	-0.32862031376839695	0.0673436148254533	1.0548367473673108	2.2279555741326433	0.9543956494077044	-0.3259994677419176	0.9349148249863687	1.8904950571013484	3.774928321844344	2.5137872632455824	-0.36390906480463714	1.7340253547757545	3.577787390258947	3.4267215642243363	1.0613318654920865	1.2981984582549568	2.8631236480905216	1.4840701780997017	1.3608181442235663
284	-4.536799896230008	-3.3693222914505543	-3.7057731058019034	-2.3958678185054585	-3.682574024439577	-2.7497594287112115	-1.4730150662425423	-0.9069982148159151	-0.9980840061737752	-1.4985961876226583	-1.6193679530266623	0.16769818919280607	-0.48109874007829595	0.5263149725023591	-0.21307107752410473	-0.13816401327536068	0.16217119950835035	1.031161186475853	2.47572993607116	1.0254741881229017	-0.11445616156767728	1.083243486530515	2.07276653720146	3.899158706357353	2.560693972798175	-0.16013647575479004	1.983340615987114	3.8313021563119993	3.432119122422989	1.2576028076845382	1.6358101326650203	3.1503982464405405	1.8645026636733206	1.7912958815171465
288	-4.4490303880897875	-3.266915074683351	-3.680821171050448	-2.223858112442549	-3.724848261011922	-2.859143965178206	-1.4731212817192638	-0.6346420033644188	-0.924249885132924	-1.4764046631730714	-1.5904493291754194	0.2696619325028391	-0.3336570850531352	0.7261072974946057	-0.16444027382341464	0.0838977170852558	0.28455525564829676	1.0102320883994214	2.4471797881329884	1.0708692046785173	0.12333783476207297	1.274913307785792	2.2932093085565164	3.8355924986320997	2.522525542566172	0.06881217641146341	2.262079471598979	4.1073584452878755	3.2986462032958643	1.3828734124555406	1.9617997358382526	3.238070241382154	2.1464669650244175	2.2271325531996626
292	-4.515836227459694	-3.236232749397657	-3.7194328214198817	-2.1322309917022055	-3.8006641768819067	-3.1355714718808065	-1.6164089400489037	-0.5018941747391562	-1.192152973979849	-1.5481891592992059	-1.7018682913727512	0.29612103029827996	-0.2283048176961764	0.5851714596279307	-0.23677954017939554	0.1920236046234481	0.3439118853469159	0.9869990323896588	2.1223628467381066	0.9892316435633738	0.2368076735716585	1.3844035828923513	2.458019011967316	3.5211861044674038	2.326371902314342	0.17975224509155646	2.399708503386509	4.265459526736853	2.982018224816709	1.3217514719970658	2.0907111115122334	3.0244812889032255	2.1645083372780616	2.4319004951112624
296	-4.792008387864721	-3.338710776482675	-3.8621528051141136	-2.250835651436937	-4.000178803834846	-3.555260172450833	-1.899298901531025	-0.5896499142064675	-1.729702706738267	-1.7861317351068449	-1.9995897957861768	0.2012579435989282	-0.23742608666080303	0.12119369923272305	-0.47415557383987483	0.11184688629283578	0.29174691365015915	0.9675259565721244	1.6089525182156175	0.7626756410416532	0.15477029940153228	1.3467868532509961	2.5044360097596705	3.0188622398451463	2.0018305727962056	0.10760551663887516	2.3006112517446153	4.2178792846999995	2.5559060509047455	1.0759758922114004	1.939267153612122	2.5711030895168894	1.8966115665234669	2.283446783022693
300	-5.218863474067288	-3.603464117489042	-4.098541249417803	-2.575770848446755	-4.337707985416748	-4.028373708091053	-2.2349920216399024	-0.8593014456988196	-2.3661503732069527	-2.1701562349841392	-2.4367256103029376	0.016233339864753588	-0.3731471588727286	-0.5053577410336647	-0.8229163864339936	-0.12413249878537334	0.15265940091214134	0.9623177623294449	1.0913895341021114	0.4670579123625859	-0.08050952086387549	1.1914997070747602	2.4273221431483343	2.4858670171918065	1.6637848573639833	-0.10411646935878952	1.9932583520155411	3.97287987659664	2.17245864319671	0.7592539172076714	1.5668293198127519	2.069146389505522	1.4717178307569259	1.8370970441212362
304	-5.644722447448885	-3.9909610647528937	-4.358154285871718	-2.965450756215349	-4.732585418196634	-4.433217037452223	-2.4875132974763465	-1.1747918099306642	-2.9030673430580327	-2.585983985093943	-2.8881101535358593	-0.16329057473440603	-0.5778580293370997	-1.0526601049548985	-1.1531751126738399	-0.396899460744141	0.01261686251107275	0.9805119012872628	0.7483302931965546	0.23193649889084944	-0.3394744089615588	1.0228030655786813	2.2759230079409805	2.0965998119825953	1.4499870502102894	-0.33066648161372525	1.613018627862639	3.6279232410387388	1.979746694334811	0.5303727374991334	1.1398614616225538	1.7362334684405285	1.0955473156925661	1.2936794725180751
308	-5.898259148011159	-4.386593330752309	-4.5345249061539645	-3.216802350505674	-5.045566069261903	-4.66535662426847	-2.5377120907608615	-1.37335669647615	-3.1874599376311483	-2.87580131758366	-3.205368987573725	-0.22906817437988752	-0.7456527333507147	-1.3010576930576134	-1.3230570521329297	-0.5660588727010878	-0.029970858170418883	1.031039473791529	0.6731203777484714	0.1703245486489132	-0.4772031593195461	0.95916032548973	2.1278612559954646	1.9572915981466927	1.445373650716322	-0.43622249254717316	1.3297312226101585	3.319876900874098	2.0391790815367483	0.5021235334116728	0.8417834022249819	1.6973572926582494	0.9356185174208104	0.8905080534386339
312	-5.876365169947539	-4.63977288028399	-4.535537231438274	-3.1790134826506424	-5.150978075373937	-4.679141986477318	-2.3465356767537897	-1.346524235186779	-3.1560757080503516	-2.91598676898977	-3.2850057995827444	-0.1215265688212114	-0.7649340014218462	-1.1514501542583953	-1.2518700329645152	-0.5428709970119509	0.07869409749905133	1.1266530723736752	0.8368843772739719	0.31620845118796326	-0.4102430333270289	1.0679388019301785	2.0550520368189384	2.0565173574023974	1.6338555771584806	-0.3469611099543144	1.2622793881018082	3.1605160156563286	2.2877402247843137	0.6782690865558152	0.7801043967578427	1.9154089640895333	1.0302603218769921	0.7771756629395534
316	-5.595074162662126	-4.631213176478697	-4.333207119491832	-2.8392863201935516	-5.003049360995224	-4.501978862840139	-1.9788521478282806	-1.0887606116462853	-2.8469204830771093	-2.680346482185412	-3.114965192559663	0.13541793789052445	-0.56671875572173	-0.6712421161870514	-0.9632572507380227	-0.33264106428085904	0.3162969640852313	1.2836785284057517	1.1104640932656835	0.603690026666442	-0.15742455383132387	1.3313847746613428	2.0983455128143693	2.275715106940529	1.903893346748002	-0.08790147282341923	1.4253941738380542	3.189658633762072	2.5665388042500927	0.952762184121759	0.9398748850934747	2.210261577747873	1.2714409796085235	0.943771657945117
320	-5.180113302503747	-4.335123528025813	-3.986299981543226	-2.3313410223274307	-4.6588668705617104	-4.215513695564127	-1.5714566667935617	-0.6921639424968388	-2.3822469651157756	-2.2538604679423617	-2.7749383379493984	0.4480521369589108	-0.1599899377359797	-0.06935922783983077	-0.5743547067446264	-0.024016842185418906	0.5982228502428674	1.5113120040883568	1.3323456015326962	0.9003016925969518	0.17728829339089106	1.6623985725392973	2.2591559829894168	2.4524099764895344	2.10639714662888	0.2363796377174459	1.7355219081929965	3.368946066933682	2.7032036713061705	1.1730409830994524	1.2072746723211871	2.3590919911904717	1.4732080660818379	1.2416211335305523
324	-4.800540911952065	-3.840264072259221	-3.6172382740246998	-1.8628220511134768	-4.244317044032664	-3.9131109615711503	-1.260546085036116	-0.29534360691843736	-1.9273219059921343	-1.7880185797370909	-2.3900835453724794	0.7081374508145113	0.36400386599191303	0.39463972945712167	-0.23544682502906616	0.2667866342484561	0.829286811642214	1.7963700249140646	1.3877025807630503	1.077384826801044	0.4683098185159651	1.9586430738589178	2.5074863370529945	2.461883777124795	2.1346104091156315	0.5046725856437014	2.0671029038692015	3.6140153316805423	2.604795449356141	1.2294481961680974	1.444108601738803	2.22282504474191	1.4842697344499058	1.4787033758976753
328	-4.581153381225447	-3.314841977333343	-3.352990618823331	-1.6063020188784372	-3.8845426938210124	-3.6559042838300315	-1.1092510195382776	-0.018497930792954996	-1.6366064507172091	-1.4230174982382808	-2.064702267202289	0.856297133191146	0.8606156089035094	0.5280400501270931	-0.05314769582442932	0.46252679708052313	0.9614710187479035	2.0946271366640894	1.2616912094686497	1.0790220471796008	0.639941452318019	2.160717005042761	2.796737425418775	2.276952976200099	1.9825807759774359	0.6480625255435174	2.3226149023543448	3.8426163099546984	2.3105614126997183	1.1185297937763254	1.56678831181725	1.8281339360811217	1.2791677681098284	1.532404180472482
332	-4.542787063573289	-2.929941408389352	-3.2613019860897343	-1.6145846802955137	-3.6410593894583316	-3.4497802170439265	-1.0772560807686542	0.08282770195553012	-1.6022994477825856	-1.2207939593964292	-1.8327237321358179	0.9156446433791374	1.1850403517367594	0.2943249039371531	-0.03946588178445628	0.5637989626001345	1.0224362585956597	2.339130157287013	1.0417715284748212	0.9513484215559008	0.7045889479014122	2.2802874984389945	3.077182762006251	1.9766185233756068	1.749952907912421	0.685017166792379	2.4759588179065197	4.010807504064358	1.9749451825824074	0.9440705156332663	1.5844899375965322	1.3584356273686196	0.9752547716313463	1.414796706442325
336	-4.600381839581441	-2.778620236057168	-3.3141052639257795	-1.803379888749821	-3.489329806101178	-3.252357474698743	-1.0492006513808692	0.029114948512121284	-1.819615478689909	-1.1436766357157044	-1.651124950054943	0.9755905245945184	1.251791712461478	-0.1699468638182475	-0.1128192243111824	0.6380721314532928	1.097198006720808	2.4690563616403773	0.8676206447630512	0.8156343081862353	0.7458354811911346	2.3824837147642257	3.3062975323170742	1.7002180771816662	1.588305946154708	0.7021445018207003	2.5660467083040697	4.118621338936197	1.785346741937135	0.8512353279556653	1.5740812977149747	1.0528284284713194	0.7602066974520005	1.2500148980052097
340	-4.6184463384372005	-2.8368463444611867	-3.402047625535411	-2.006823296248566	-3.3479654704442945	-3.0068271084210645	-0.9063848234180802	-0.10521992269414977	-2.1813993398904454	-1.088719484441494	-1.4396495782744139	1.1335134477607123	1.0735154124812845	-0.6203334911896984	-0.148975804072	0.7661419491498145	1.2718788353279382	2.4637474951529263	0.8561496116956993	0.7992529252853946	0.8566818811721997	2.5338883335988847	3.453497639519892	1.573875780900308	1.6162509877406477	0.7920935730009189	2.648320906628452	4.186962593951641	1.8565276814317977	0.9311302876805552	1.609852309930875	1.068153736278696	0.7716100196430585	1.1792954176692327
344	-4.491334426984445	-2.9841184540747117	-3.3955576334100734	-2.0718815274380695	-3.1397049347762542	-2.6843206814704224	-0.6019918307364339	-0.23074367584145472	-2.5089943345620047	-0.9558690166181874	-1.1426194877386373	1.428406711786686	0.7586994748033705	-0.8199651816646807	-0.05256382362684492	0.979902622609907	1.5726007183424922	2.359774583580716	1.0414661142757633	0.962477443172395	1.0713230344426914	2.7493967940533133	3.5024485499645404	1.6479302603123376	1.848810429673633	0.9868787502168057	2.7394070556141794	4.22509192353677	2.158832067761143	1.153659460016062	1.6972415404383878	1.382718917216673	1.00265574202115	1.25777256171243
348	-4.199100483783056	-3.068446866871447	-3.2167577662314946	-1.9360001038309418	-2.84275387999925	-2.3074815215026603	-0.1930299247398115	-0.27776372362580143	-2.6150145464677914	-0.7076231819406876	-0.772822378114729	1.8089524461850923	0.46787643314489746	-0.6485371573286656	0.19218909691924915	1.2318562238109436	1.9393981646210074	2.2401201668448505	1.3622335161148291	1.2627351252146102	1.333831545323195	2.9738421365042216	3.454532614569159	1.8776813698091759	2.1811678354507222	1.2291932074983922	2.794446222879394	4.214629162637893	2.52132295925622	1.370846983309574	1.7564873651026491	1.7984720423114064	1.2935599056009575	1.410498019471977
352	-3.8045134448317826	-2.977951042286084	-2.882158033723617	-1.6462494093339153	-2.500729792956894	-1.9411268185244188	0.19045767139986264	-0.21303278153993324	-2.376303428372359	-0.38632342121815433	-0.41087078944421834	2.1557486002854076	0.3456195286130971	-0.15190936586650386	0.5180266486440432	1.4157192671318293	2.252305263554809	2.196728462395078	1.6988849596999855	1.5757237633022585	1.5235627851166915	3.110007755056921	3.3315102969934083	2.153384441661005	2.436301225233208	1.3998093569699714	2.7322862079301315	4.121368874634827	2.709871046853912	1.391113396947066	1.6679753022996924	2.041828388781036	1.415530678036236	1.4747294150312438
356	-3.4020562086042374	-2.682230227374138	-2.491513007549256	-1.3164020743512699	-2.1884691659986943	-1.6556658703010467	0.4197401393783379	-0.03906048451933029	-1.78587984587866	-0.0823393238492154	-0.16076990921438003	2.344344133180221	0.4565769720470983	0.4898928391485765	0.8170605877274646	1.4266027176124687	2.3946347176174587	2.2834494056270564	1.9376982401563052	1.7611057713867653	1.523232813804048	3.0753602903922	3.1727518955235072	2.359847539665737	2.4523637232853055	1.3857049907030914	2.491858952906659	3.925619830710711	2.541620009681049	1.0849841805721407	1.351923819943349	1.9092256974654351	1.201061841793355	1.302995916891526
360	-3.055473081503812	-2.229410881135805	-2.169872278457146	-1.0523623201503525	-1.958233232322477	-1.484985109394694	0.44090938456796314	0.21482005661133327	-0.961977360203992	0.12474159864879522	-0.08812520630759939	2.3126053751731956	0.756672559258256	1.0542868349160015	1.0024019454443371	1.2257671325253527	2.317187303414801	2.485785239619381	2.026220316539559	1.7364758209255735	1.2904186216199358	2.8532631325209343	3.023703805918738	2.4321308074580927	2.16513943125535	1.1498573989447285	2.083280319676136	3.6488020327951065	1.978651518594473	0.46412140013817316	0.8327738025620601	1.3784236873157132	0.6464050395857881	0.8641259648440485
364	-2.76329516666837	-1.707461472015063	-1.9949485013185249	-0.8891291595898815	-1.801418657523083	-1.4027752840865066	0.30580967587509106	0.5046928512228739	-0.10634948286385573	0.21590387766687022	-0.1775774206208053	2.094201797920046	1.1161512108279241	1.3805111611797665	1.0535724136455273	0.871724245731542	2.0668342061312326	2.7253844669197247	1.9912818619997792	1.519962902999926	0.8909592009937999	2.5078742440802135	2.918342344545346	2.379022592260147	1.6432527262207535	0.7619103770093141	1.5992485244428154	3.355186930768469	1.1534341544593798	-0.31056231181890237	0.2456812405343852	0.6248924120384788	-0.07390900682624178	0.2779424481527092
368	-2.480398410256761	-1.2029798000480951	-1.9540148924130831	-0.7780951241875372	-1.6545954900928728	-1.335721250976383	0.14075945282206864	0.7801952938408957	0.5707189426317966	0.24151940582809595	-0.33770245228382734	1.7975658132945294	1.3802849019487704	1.429174896446612	1.0194231246005814	0.4964319753034077	1.7607594684014944	2.8940145896324023	1.9095255088278984	1.2175382344977277	0.47194459915215864	2.1509399359756487	2.8604764866134404	2.2642149868066	1.0567882034323302	0.3686711480846215	1.1734532088216783	3.1209015767457253	0.31182670514533045	-0.9993371342223691	-0.22654841783069204	-0.06635607017214674	-0.6929791552213737	-0.24383014378975307
372	-2.177489752040209	-0.7823877910887781	-1.9594340274930901	-0.6292812808361442	-1.4477701150581108	-1.2095191448191824	0.07152829301179504	0.9903703902989326	0.9256592965597245	0.2840089194756649	-0.45259773616961746	1.5438053568963335	1.4389110767275113	1.2708390919071013	0.9794644092626248	0.23875564276496727	1.521543975803246	2.900207989046087	1.8527088118506803	0.9637390350805257	0.1880862559099774	1.879772062324039	2.8156182694873166	2.1613693182735356	0.5969871267505038	0.11966533183641244	0.9083092189744398	2.986736528485216	-0.2960002116836253	-1.3952090704978215	-0.4518986928974566	-0.4438847292183491	-0.9900010799208366	-0.5170027600586766
376	-1.891274566643753	-0.49617141359942996	-1.911701912821732	-0.37976145648443177	-1.1633185118868166	-1.0014997695432946	0.1493619676633636	1.0919772358981128	0.9271082258659112	0.3993726064612398	-0.44983714705381506	1.4009983504209491	1.2732846704760612	1.0252135966166016	0.9902957652838622	0.17334502891644132	1.4112750256193072	2.708216183500546	1.8442648602652487	0.8513454773389321	0.12316122620004938	1.7245672897666746	2.723562472142831	2.1124706214975792	0.39023667475403545	0.09006040520579728	0.8158770182991478	2.926667682887974	-0.5207967745029857	-1.416089054347082	-0.42385420096196025	-0.4090423573657048	-0.9016056634074109	-0.4911378609655015
380	-1.7278878645187281	-0.3922006775967483	-1.7713103249651272	-0.046907629699293844	-0.8656212665637535	-0.7675148229294599	0.32109326043123027	1.0584810945489667	0.6505675299431682	0.5746839628015344	-0.3441535225762253	1.3528406585869692	0.9544916724901951	0.7893055061439445	1.050099608631102	0.275469362040255	1.4025753701084347	2.34649109247961	1.8527574492406942	0.8888311959714016	0.25062280830049627	1.6366127688095393	2.52698945361142	2.1115865654085026	0.4495153415774852	0.24426504907925867	0.809430060727229	2.8560423778905046	-0.36470523384521425	-1.1294375629519722	-0.2651410990219741	-0.048608016099991935	-0.5427535758620398	-0.27507373621155723
384	-1.8086128189200197	-0.5136917220497633	-1.592589493545321	0.26600748233391935	-0.6783573014298601	-0.6230677350525766	0.46074673417112266	0.8887254573318369	0.2331671559884198	0.7283554058759232	-0.23036315979016933	1.3189835515099746	0.5985654577401713	0.5986059888985162	1.1016508313021562	0.4401950229021337	1.4025329316014619	1.887413973811398	1.8225129796744148	1.0064005826336433	0.4535700369350612	1.5241310557985455	2.203957790532343	2.1198661273840584	0.6838735324759609	0.459099321398335	0.7533504347854425	2.6792523793286778	0.041127107933635804	-0.7023789268880101	-0.15655648668816793	0.4290515471593179	-0.13038964536648412	-0.06684946996977112
388	-2.184532636849087	-0.8725725986384881	-1.4965690336589654	0.41783121122725836	-0.718608377549702	-0.6845616084935109	0.4426002491266824	0.6117262824826392	-0.1864279801907068	0.7545197587036938	-0.22852910997389989	1.2118513553540657	0.3077775232173823	0.4422585953036925	1.0712363692894067	0.5441777692407073	1.3133327927809553	1.4183680975389599	1.7221587852866715	1.1043568821681267	0.5918803200083314	1.3145791259000619	1.790347452411875	2.1002004093550966	0.956180689304931	0.5930395111369965	0.5448902235579087	2.3535430371944717	0.5132623897945301	-0.30890020650121464	-0.22985260130547355	0.8131815770599204	0.14357334339132685	-0.02844278693468625
392	-2.776213162088636	-1.4139695131842205	-1.5960131843325756	0.3039426199868606	-1.0254090998509713	-1.0008372043136442	0.21317537075103715	0.28170746493740817	-0.5188119994416209	0.5848478660122621	-0.41305339232109306	0.993603405828032	0.12669785288770688	0.310840605904656	0.9171031690331088	0.5128523098395108	1.0922701331217997	1.017080781276112	1.576177712275722	1.1118916245044501	0.576709269021244	1.0045547459988993	1.3766411508135608	2.0451943822722938	1.1530427903627727	0.5608845338965552	0.17980885460278898	1.93041645993177	0.9010795928139514	-0.04843232768466974	-0.48815664525762	0.9937106941883568	0.21326112693349125	-0.18301616562889386
396	-3.388594618824992	-2.0064141699678606	-1.9181245516986438	-0.08465787001931835	-1.52673160644353	-1.5145405492691093	-0.17995524360998774	-0.03649122631277383	-0.7434392552679243	0.230901464236938	-0.7672193627060543	0.6990477425092135	0.03476456171437674	0.23070250393318006	0.6568644030199215	0.3549489369967539	0.7758420686207159	0.7398247700132256	1.4551324807621788	1.0210056279153727	0.4108775545713833	0.6667562706325812	1.077028391026187	1.9793903777692434	1.2284183471182684	0.37237739468972025	-0.23755842387303147	1.5454220732771393	1.1361539335175954	0.08104686418574956	-0.8022548536072832	0.9928875540460869	0.15603755375090236	-0.40024992722547376
400	-3.799372186605017	-2.477430814210176	-2.3743290841238034	-0.6480833275644915	-2.0647835679375572	-2.076277250769867	-0.6160469635668538	-0.2864727072635576	-0.8941490031555462	-0.21597069447349473	-1.1879084080268205	0.41291504994091865	-0.02354298898594121	0.2553281479587977	0.35941713957641513	0.14857836030164115	0.456001310389311	0.6192823036770936	1.431734677514673	0.8800243713094936	0.17694444909721116	0.41086074606159906	0.9818015073783672	1.9381924818695349	1.2040688961146813	0.11743558168563943	-0.5464928136379384	1.3564481700982467	1.2300474612651562	0.14959461949249575	-0.9850103234217489	0.9195908880858185	0.12327700077165268	-0.47817504285247747
404	-3.8747763535899327	-2.684234135526427	-2.797586195558234	-1.2184643714659096	-2.4687504706041623	-2.5076265271771523	-0.9652605032392211	-0.43600243219921797	-1.0252904866081678	-0.6276267751106461	-1.5369590482054278	0.2185676241363183	-0.09464116370625208	0.4170736957987205	0.1061246541443306	-0.009871348713747589	0.22615127208355632	0.6622846705881764	1.5281965693991209	0.7534889559795508	-0.01645188215691594	0.32173055329155975	1.1149368257983363	1.9376419733717793	1.133136388778815	-0.09017433203341721	-0.6159983261768399	1.4611031972235446	1.2319024770151725	0.22898560704592089	-0.9011721588270539	0.8819145537998385	0.2318901115761701	-0.27177351644564324
408	-3.64580773386773	-2.5855424338865616	-3.028367034895612	-1.6349470574108518	-2.6347320013282878	-2.6805374554667907	-1.1494922608917564	-0.4835205363940504	-1.1750833958521694	-0.898987529392262	-1.7079065995011218	0.15299913248534214	-0.1851862068269139	0.6763274652571589	-0.052194177972623004	-0.05942092075842768	0.13276092674591897	0.8447543361316656	1.691581960221964	0.6782370788616516	-0.09422398334794181	0.41372781887502386	1.4190746509963434	1.9585156391287097	1.0567110750221855	-0.17410372153671058	-0.41436615481663425	1.8396916343017584	1.1813913553928228	0.3395308843623409	-0.5469918237227381	0.9171054340096046	0.48632266994715634	0.2094664270357691
412	-3.294450989988585	-2.2700791301633765	-2.999548904475207	-1.8129755212786949	-2.567783826067018	-2.570954077905327	-1.1664711207503171	-0.45375949029800144	-1.3432041372718826	-0.9904763673570757	-1.6702560144216199	0.1950094098889657	-0.26198789411202744	0.9123036242339778	-0.1155840677084949	0.0005668437792577985	0.16064065654251092	1.1077111931490378	1.8191549732055372	0.6445953233656868	-0.046270158025030504	0.6275134070765697	1.77748810796192	1.9586679886003708	0.9819914077761421	-0.12678836254056977	-0.023743443131105053	2.3567449987037214	1.08739804947016	0.44119396694372476	-0.054375193875834574	0.9800862645199964	0.7767704705653934	0.794352708241492
416	-3.0502366942642247	-1.9147443723019657	-2.768130295440342	-1.771024461089506	-2.363236659759109	-2.2590374889559026	-1.0685934993467385	-0.38356164000945947	-1.4918214045053027	-0.9312524175973915	-1.4690573178394488	0.2906286113077067	-0.2791293554411249	0.9776947473637114	-0.12170321463613788	0.12477613208977478	0.256854384489063	1.36564981592615	1.8203377677734738	0.6126569494038124	0.08283098766156506	0.8688390829084734	2.064232344184066	1.9045433950022812	0.891759750975757	0.002481561147861781	0.40579891102379606	2.822591774489852	0.9395079589011638	0.46836045266157394	0.3809346845069061	0.9895980929185277	0.9503877138938367	1.23846721336487
420	-3.052674762647962	-1.6898486571562719	-2.476297133869411	-1.6042931039359996	-2.141187424022122	-1.8781799030568187	-0.916477856706349	-0.3032904557676972	-1.5641742905225802	-0.7858455161281134	-1.1847888201364423	0.3968830098622245	-0.2104941154172305	0.7927719930660395	-0.10929416837516272	0.26232108407548066	0.375093190915087	1.5352442225795695	1.679250951341964	0.5514072165872618	0.2344009721321553	1.0648317310151716	2.2003698293445026	1.802157278279275	0.774598298501328	0.15059474072581816	0.7354117613344869	3.0841841619824706	0.7384014110995828	0.38224363230519126	0.6053677782033438	0.8967948533304456	0.9097641683497337	1.3581751550716088
424	-3.2609746373814543	-1.6616013008127946	-2.2646746578259473	-1.423323866111653	-1.975202793856476	-1.543657656586953	-0.7410393934613918	-0.222987606558478	-1.5081808528969214	-0.6086063965690379	-0.8827115871077628	0.5117269145443479	-0.06646414829401286	0.423270820502694	-0.08384980240155795	0.3929243971917839	0.5078400360637134	1.573756452401769	1.478297110639912	0.4723269927497497	0.37610253596716514	1.201185461826307	2.187075132570207	1.7043646530989314	0.6503916366368802	0.28335755991920397	0.9024577714069685	3.095308534436684	0.5170602189360951	0.2021741563937799	0.5837461337610155	0.7255100589554642	0.6730147583181961	1.1288380594363348
428	-3.4719393165668375	-1.7518341497060723	-2.1911644880286323	-1.2924867835791307	-1.8585462523266647	-1.3027369943152753	-0.5384017215486864	-0.13093347814404174	-1.3015031781715398	-0.41646951331848014	-0.5854687675953197	0.6686303002642329	0.11211571814125525	0.07828105221296192	-0.01059519776262071	0.5329117165462204	0.6834344250590093	1.5038847885309368	1.3609256710024695	0.43157032023187714	0.514206467760744	1.3165407147546675	2.0954229778791214	1.6840190844933778	0.5690898880895533	0.40886163608320214	0.9339466667437264	2.9266755507010647	0.33242872273438284	-0.007213879824097848	0.40089031952732374	0.5554422722144339	0.3566078236636319	0.6877684575836199
432	-3.441480866326355	-1.784267301822978	-2.2047827188139517	-1.20313155347331	-1.7254873470611047	-1.1317448587454022	-0.29694938584695457	-0.0069216084491796346	-0.9696775054291495	-0.19458724509224867	-0.28279480266697793	0.900788245311025	0.2773051552923797	0.011659748822814925	0.15946716029913582	0.7093768101901969	0.9319400167777844	1.406594988132649	1.4504135810472252	0.4969260084003812	0.6730450970823102	1.4611095153158749	2.0207059332374415	1.7876434281038218	0.5816535338975244	0.556412039782481	0.9073058343868242	2.714681618512299	0.23267939628029308	-0.18065725221321868	0.1950486297451289	0.4635121512631397	0.09793371682475117	0.2482507520606813
436	-3.042105667063074	-1.597309466143878	-2.191235775183604	-1.0968213053667788	-1.5130966863577155	-0.9780376528842385	-0.035546626805919516	0.15427926143795118	-0.5874396547744868	0.07086215895404771	0.031647674659458114	1.198081251934242	0.39399540324872645	0.3735682060823589	0.4455876637176049	0.9218146181674843	1.2422884671317727	1.3738080228452498	1.7703074172146687	0.6982342583193728	0.8582668878820652	1.647067661895326	2.022873873371738	1.997450108253432	0.7011278253973334	0.7376711349936386	0.8866546727682786	2.5789520675396753	0.22213075998967272	-0.2980366043672351	0.06659229082937582	0.4639036941736807	-0.032533720053549035	-0.024171773283250476
440	-2.3614597260935515	-1.1579222649903456	-2.059674019381732	-0.9203783846506026	-1.2224169938695653	-0.8161196688074158	0.17937508180153125	0.32441401399721753	-0.2639502280246908	0.35706290512534306	0.3250401011843575	1.488784190233796	0.44375094659348846	1.0967248650517756	0.8038402179450164	1.1195448608742877	1.5429531296874868	1.4447010719063744	2.21331619657561	0.9926826332778664	1.0313045952508204	1.824856991928934	2.085779900053126	2.2272565308604824	0.8806552864728482	0.9182479358377748	0.8770379997998521	2.5564062530824376	0.2497889095198716	-0.3991640498096973	0.019752262110312332	0.48932504530387966	-0.07261498999143513	-0.09785452460378641
444	-1.6799778895878092	-0.6063166245411276	-1.8148794128373036	-0.6790135485671802	-0.9392234659323692	-0.6799339038848333	0.25470796163147563	0.44094341882004395	-0.1115815264149657	0.5929541572858936	0.5198516236531685	1.66286849555752	0.4131604124605171	1.8942609977580391	1.12890875054486	1.2147330015031013	1.7239720777854504	1.5647747477125316	2.582458966410826	1.2703108755464354	1.116481301349857	1.9035313081365504	2.1218712276292404	2.360818618535966	1.0272153590016844	1.0223083470282945	0.8258836844573552	2.589388363976339	0.23439347684809372	-0.5549372420605271	-0.02741591252915298	0.4308266926855368	-0.13648214901797978	-0.0741833372031279
448	-1.335126635041605	-0.19875924239044648	-1.5663651188404133	-0.45322006826414607	-0.7982642034403566	-0.649128852635857	0.11963548481061652	0.4300325204005546	-0.20211422392360956	0.6841549856078798	0.5275502787622103	1.6272511441154627	0.2836263768664623	2.3877305924212666	1.2966728177711377	1.12926947785413	1.6916729169096616	1.6036664207024132	2.68890547073497	1.403376218113615	1.0419868204512064	1.8061103775200877	2.026190275798668	2.315661186093825	1.0493562195033401	0.9731555556523018	0.6709951741443705	2.5739800865036444	0.1169163954286342	-0.8091344812945341	-0.17111098723125534	0.2165784681335737	-0.3263129583703223	-0.10146579865825602
452	-1.5422655305070938	-0.17451958314225852	-1.466596480481465	-0.3652858128861831	-0.9095576382561085	-0.7972986081974333	-0.22684508504815135	0.24541532931355237	-0.5282559977545692	0.5624858722790479	0.3030943862892036	1.3612343038523373	0.03506319961039895	2.3054635466542397	1.2268764941711114	0.8479939677763184	1.4245855772290728	1.4282308780850426	2.4554459986681487	1.3144177165224178	0.7902166227416807	1.5254538020720614	1.7473705962886918	2.0954050964857336	0.9122118330812554	0.7456284742603524	0.4006198932546605	2.434546464495451	-0.09257432049981952	-1.1300265760501553	-0.4379205990702143	-0.12252213029922002	-0.6467800124051234	-0.26289403372193754
456	-2.2687580528199103	-0.6140241011375739	-1.6114716489160443	-0.5088611828354273	-1.2851887908912576	-1.1309050293026373	-0.6959424597335453	-0.0939629969608711	-0.9889143680400354	0.23523840248797404	-0.11045256974228657	0.9421619749123769	-0.3327818206491408	1.6444094139543444	0.9345736480005358	0.447727857889829	1.0001344655535165	0.9934300755214628	1.9671927640839137	1.0276278231424887	0.42848575007021605	1.147284981692007	1.3344626393004835	1.799428577648347	0.6691306216512143	0.4004924883267748	0.08564969130587674	2.1785128061605503	-0.3030734054542956	-1.4036633932914178	-0.7439417224221122	-0.4439176905868267	-0.977463123714699	-0.5099039660931399
460	-3.2364146627730523	-1.3704020942420936	-1.9646739910113546	-0.8822888113634383	-1.811008568006073	-1.5585180481662555	-1.1319423885376891	-0.49164405340997847	-1.4116083347920496	-0.19691705654018574	-0.5774809703552026	0.5233949409621852	-0.7712822537022661	0.696889100699478	0.5396830425941879	0.08103200772807681	0.573257206423148	0.3992696394376503	1.439773198307366	0.6726512891952734	0.09787524466837415	0.8223144391279267	0.9303312278147137	1.5809997280258765	0.44828507191010486	0.07693286965735238	-0.1418979015344043	1.8968573760779	-0.37859111928722183	-1.4797098599268115	-0.9283983087941726	-0.5543652162860618	-1.1268497677009373	-0.6866694075413813
464	-4.050557603146128	-2.1197225993998017	-2.3565659463512683	-1.3674534524724997	-2.2825207652638	-1.9135948371257299	-1.3708722556788948	-0.8013655523094796	-1.6102238852854667	-0.5679556117023414	-0.9142219401165856	0.27281042864586036	-1.1731034487670193	-0.08173102864849595	0.22494330945442687	-0.08136232921800744	0.31437861840030107	-0.1297210600677266	1.1197190256458815	0.4342016566758104	-0.03869421770340055	0.6997130495525167	0.7097507101259289	1.5726218183866894	0.39694481987870056	-0.057982116791246555	-0.15500955244505665	1.7115205483140188	-0.20632408507230532	-1.247066375444905	-0.8435291030567561	-0.3112392417679074	-0.9385810470726019	-0.6280159934400468
468	-4.38776587332137	-2.507674926148588	-2.5634515220771013	-1.7697617962977723	-2.488087170994795	-2.021794790885449	-1.3057564464026838	-0.8868312217256575	-1.4595564566955284	-0.709672031995024	-0.9619671082051167	0.3034131519286576	-1.3983817065219157	-0.3014498643416802	0.1597993071813081	0.0780248639997835	0.33867138538684977	-0.34432214411586914	1.1648408145105367	0.46955731392564204	0.1351839598580494	0.8578953721321181	0.7900493125042186	1.8163272096552425	0.6095578655111852	0.12054538696371855	0.0963145492029351	1.7024611191681907	0.23775932132773972	-0.6986939889433648	-0.4474031913905571	0.2896865897017324	-0.39003470441572397	-0.27058732441296307
472	-4.144243229893237	-2.3211276472616644	-2.4268503127814833	-1.9043412160477136	-2.3016982020439953	-1.7816233589967065	-0.9282141304422817	-0.687525628261418	-0.9572613811166252	-0.5231017457152752	-0.655610082878435	0.6287848933557081	-1.3322571482400727	0.1583121265944333	0.424344538570967	0.5715593681210077	0.6601132137798466	-0.10084820513297507	1.567718382691977	0.8328982570600368	0.6364516599798755	1.26815378345746	1.1622066468459837	2.237032884671859	1.0757038566133326	0.6375380738374536	0.5496577010582316	1.8583830548096818	0.8621613361525671	0.050676569214667185	0.1564679886920611	1.0911082001794818	0.3749865880081754	0.29100859091719045
476	-3.46928524095098	-1.5959796865222964	-1.9457392643440723	-1.6869822697962602	-1.741638059987247	-1.2181184261085065	-0.33086120998771484	-0.256190329143297	-0.24170710085401978	-0.025626595998674537	-0.055625762649999966	1.1616667479749714	-0.9476200318253238	1.0835353108705985	0.9690535044045714	1.2975227800034888	1.1895905703074245	0.551488696136464	2.1618697588698064	1.443547006777147	1.3694087232347751	1.8088751985656586	1.6849974351302508	2.6742765835953906	1.6750276046424217	1.4001277649815578	1.0541540357677772	2.0822999424813453	1.4887601099573675	0.8055204728769924	0.7606559376585383	1.8322906447879732	1.1024110289397022	0.8421987273887283
480	-2.67472481052297	-0.6062397941542061	-1.2888784376028284	-1.1822501391125784	-0.9677911376360605	-0.4817968594784651	0.32742762482945265	0.25495836074354483	0.45023053770833943	0.6496782882500093	0.6721445305066726	1.7531980231843793	-0.33702301893974806	2.035409922229248	1.6310250717945332	2.078124517916082	1.7752478077890483	1.37982093939501	2.703858130304152	2.115385288619737	2.1592371409260136	2.322427982188801	2.1500403826789696	2.9562535211311483	2.223883861649027	2.2285158577921176	1.4438856803679059	2.249445909542863	1.9259499262821582	1.3698881829961378	1.1563150853526798	2.2611744346749947	1.544524784956956	1.1601082057273193
484	-2.0740499444095235	0.2590339177267395	-0.7188297491998388	-0.5823268875678519	-0.21955393199324888	0.2070626760261748	0.8755595065899313	0.6566903574576168	0.8736444689627778	1.3029057946688531	1.318484660634464	2.251339429893307	0.31038352768734995	2.577215426613884	2.199841732193126	2.725783341201555	2.2630760612571073	2.0741486497010224	2.988589517677315	2.6345105104688615	2.816231243652639	2.6837747029256582	2.3852722584583574	2.978713028062969	2.5526776249332825	2.9215068743377715	1.6207984644976599	2.2823352756097277	2.0522725530307904	1.6289060074688286	1.2412471739901756	2.2477793636791508	1.5782351453988843	1.1370846004387687
488	-1.8386998130152	0.6716089827747177	-0.46539702894011303	-0.12393809078634864	0.27547180583068465	0.6427651627524792	1.1817113131251693	0.8064800480508088	0.8773433543942655	1.7417718128097854	1.7052280859809679	2.5505125458219275	0.7838727216003184	2.4982531007634403	2.5022542413478206	3.1060039918681768	2.548398011449214	2.3967013298558935	2.940939418996961	2.8482887672991186	3.200523368384299	2.845106356113306	2.341347688485638	2.7494707038126482	2.5768837863711913	3.3263237392367278	1.599747534527615	2.196959966834801	1.8688150597119324	1.5904384811300978	1.0715790959959999	1.8416680051082308	1.2616497246359908	0.8425610044187585
492	-1.9452520559789084	0.5057935701951619	-0.6160722955408194	0.017182942436466103	0.3830232014522404	0.7094045859545921	1.186175939426153	0.6710392815813929	0.47048964977686475	1.8511767340652416	1.7417199567689616	2.614546769216775	0.9417823529307608	1.9120767068271334	2.4688439306869343	3.173207990264177	2.5990655356590597	2.2918875159573147	2.637885087028945	2.725576393875417	3.2623643792755286	2.8381733822691153	2.1108417457692696	2.378283971503955	2.329866641837989	3.3853065882089037	1.492044445085489	2.092392200909234	1.496624227559888	1.3699290717823505	0.8290125110676502	1.2467757431977138	0.8012783507143934	0.4875704037754118
496	-2.226551527123859	-0.1180070039630778	-1.0799610587510216	-0.1962512279562421	0.10376275304584359	0.41636463894626263	0.9099044776831808	0.33538985167702573	-0.17849039986368612	1.6306834179715433	1.4445189201124007	2.470678561648489	0.7697388510343489	1.1807030409566945	2.1547813361124346	2.97029089177747	2.447588199157958	1.8954389047451163	2.255501741436753	2.3620562493769572	3.045676223694684	2.7389039924135457	1.8672001314704652	2.0195100256476874	1.943644161085507	3.143624297788209	1.43736993903609	2.0882661289897197	1.1211441726988631	1.1287392349355467	0.7207774501722468	0.7277297359212955	0.44793072229780984	0.30954712551165103
500	-2.4867513116994617	-0.904491183858347	-1.6407498079836647	-0.6522202475293276	-0.43989503272573655	-0.11829633980924824	0.439417778336225	-0.04577911261086882	-0.8130335191226722	1.1843589514394075	0.9165673828825756	2.1828637067995897	0.37711822891389585	0.7092478257392286	1.705790753826227	2.596764081120803	2.161517376210784	1.4430247508809437	1.9715198228651034	1.9284319828936285	2.656916850057677	2.616895669052153	1.7606660083187227	1.7974126293578434	1.5856386383077434	2.7178850105330197	1.5221296510413305	2.2474491539479287	0.9077336169212972	0.9961580608966553	0.8665232636508621	0.49096155042670103	0.37404960299467194	0.4417386043839848
504	-2.609959834185021	-1.527838226275636	-2.068059916043299	-1.146252867665682	-1.0600949499068306	-0.7238082867467786	-0.10332442793985264	-0.3258872023937666	-1.1983590095781942	0.6711710078460139	0.300911604598395	1.821932668854347	-0.06348265691464998	0.727513073038084	1.288278934087191	2.1651940291098266	1.8111969186830879	1.1353888482991903	1.877336378126087	1.5889211852965262	2.2181024495389896	2.4999344285790195	1.831502671386032	1.7519968703858984	1.3832155431156876	2.2445237579897386	1.7315529541167134	2.531852715775655	0.9297121739756394	1.0145946715488072	1.2353025643631554	0.5983812197836357	0.596211014672843	0.8415252545091115
508	-2.5998494559451664	-1.7730011895238464	-2.2263643685397367	-1.4754660092295184	-1.5753862818043924	-1.2431011168565886	-0.5958350285745491	-0.43264078984701804	-1.2213350503603342	0.24060836373616545	-0.26826357773761655	1.4466072284414788	-0.4010533382303728	1.1772336930116574	1.0180448267982751	1.7660492614026655	1.4503656589129468	1.0379887793083464	1.9428837250293824	1.4302258455406383	1.8259367896709586	2.371358388635698	1.990750546197593	1.8292937232562332	1.3717191184697255	1.8321580840583276	1.9613093088222788	2.8171448636454497	1.141683575608737	1.13165461731344	1.6652566152490613	0.9515108442125036	0.9786460970965695	1.315246697919861
512	-2.5397849018823373	-1.6135961968690544	-2.1264319366173594	-1.5255397519696103	-1.870719428107698	-1.5821886022675649	-0.9476163363373571	-0.388676940413491	-0.9302055812238443	-0.01969932201001455	-0.7000119668453105	1.0978066893517175	-0.5695661292001063	1.759696956006411	0.9192339754738045	1.4518662654460233	1.1127006979505885	1.0725228759389906	2.046349520285124	1.4330104553282244	1.5315797290280304	2.1971950475532016	2.0816559739008182	1.9162437867421498	1.4879919252974418	1.535984750684389	2.0808710999403974	2.959327213445165	1.407728310845547	1.2393441168965917	1.9545006702667762	1.3484739031124595	1.3121018376601616	1.6269762474944527
