time	FP1	FPZ	FP2	F7	F3	FZ	F4	F8	FT7	FC3	FCZ	FC4	FT8	T7	C3	CZ	C4	T8	TP7	CP3	CPZ	CP4	TP8	P7	P3	PZ	P4	P8	PO3	POZ	PO4	O1	OZ	O2
-200	1.6255670744862307	0.8815655686055597	-0.038975939056220155	0.6780463439988519	0.007484669778225504	0.8081610182385203	0.7381909470994124	0.16466376143843572	0.5431858287448595	0.8133556822268698	1.132189628603593	1.0208208535170356	-0.07016807031797129	0.8938665963493134	1.341890570113639	1.28075337086614	1.0488468382103757	0.251860170920587	0.9532151198162636	1.7259621576601867	1.2659586636052143	1.241006371225891	0.6255829914511029	1.2541187969969234	1.8990615558361288	1.4708369933186591	1.3545134033337225	0.7970950583360392	2.0862114376802103	1.6429825979713135	1.2206156222997115	1.6995507435804458	1.2457371918697695	1.2283874719123526
-196	1.7602109864616562	1.046467182378371	-0.08124071339123091	0.38186758660225273	0.017387010113210328	0.9441766715053432	0.7646684031253976	0.10791993113927154	0.38398736618369284	0.5543668256114667	1.2233074872602614	1.0340967152236293	-0.11329825938945216	0.6860541683995631	1.073945638806187	1.2891675201292592	1.0957452031127208	0.21033444947544155	0.7883967737319931	1.5148109159371277	1.3080449071284124	1.3616261447861013	0.7143788319671188	1.151200530006706	1.7629580453231288	1.5535932740087675	1.5262155494303675	0.9072524882298849	2.010457272222057	1.71970080895163	1.4547690116392562	1.743846531279889	1.4450985156767333	1.446827288789434
-192	1.5547467430915485	1.1288270921817238	0.11668114334688029	0.09735525374866649	0.17095416741124722	1.141584274270792	0.9618644094024279	0.35625374227223766	0.29314306304353055	0.42890149246647474	1.4006063902778958	1.199683186363181	0.14533871375582724	0.4841155695613408	0.7946061471904371	1.3813167775565167	1.2650717464931958	0.35038939029920496	0.5779386148166327	1.2110000818195328	1.4108847344063034	1.5028268060888448	0.8813976623216514	0.9614561175867473	1.4559494220214078	1.560924883716209	1.6534531074739918	0.9957344506873061	1.6867606597275449	1.6218023259224326	1.5301697215547836	1.5304330548747365	1.4715310298006714	1.495958562888717
-188	0.9188610292123865	0.8422405102446103	0.37528726363798576	-0.17088009373913962	0.327849625713397	1.1886557310611277	1.1332558364866434	0.7064573150918245	0.19127644550191378	0.36040079502665995	1.456916447775802	1.3413115705957526	0.5279555903456596	0.27020743421044624	0.4613479662214541	1.3916344607503768	1.4095852339441912	0.5666805491445255	0.3518358162103175	0.7891783098323149	1.4174708092187767	1.5482581814776815	1.0189850304625885	0.7255107742111996	0.992513475296421	1.420941230047417	1.6373754698421596	0.9876486634114257	1.2016090124310115	1.3546889986167874	1.4004484379696398	1.138939616188785	1.300230022962352	1.345088836134922
-184	-0.0500831938015554	0.10926602753231919	0.5347909913865989	-0.4270515133089293	0.33480608378756943	0.9404544806578072	1.0905662747505522	0.8938875175795767	0.016845874445821984	0.24261814294595027	1.2375649182545383	1.2864381042425956	0.791892705348533	0.043959423788663694	0.05185774700661831	1.185359832631949	1.3754122222506846	0.7092911583158709	0.14674116634036774	0.26314562492689925	1.2024308412710998	1.3924493754516885	1.0085558865832798	0.4897244262251888	0.4320272196352493	1.0994119616407556	1.4033204281662461	0.8208690264957728	0.6721798760609351	0.9606611108367403	1.0617858144655499	0.682845888797983	0.9479626393226278	1.004035827962795
-180	-1.0782377692656264	-0.86693912525641	0.527338026622701	-0.6506456120276268	0.10612919154790267	0.39997324246512495	0.7543387990026126	0.7456063609371966	-0.22953617514832111	0.007570014781763929	0.7275395375002974	0.9623635983011615	0.766728399248279	-0.1670652921750177	-0.4011472751503017	0.7418654542312484	1.0943845482852235	0.6731511933497425	-0.0016641700598304522	-0.2936604313588747	0.7536093573616931	1.0144265864509652	0.798009095561362	0.2978444389929644	-0.12252614616215161	0.6384895427796009	0.9603774523329704	0.4993082272321047	0.21767692212936604	0.520116447089237	0.577805398435896	0.2775236361172523	0.48720592137353047	0.5398678169925251
-176	-1.8106058790269872	-1.6941246943616624	0.39122837683130457	-0.7837868313074139	-0.3270993820515033	-0.275399922629267	0.19974477538699695	0.2860105030468138	-0.48129722354489685	-0.32876038468326546	0.06639208627866135	0.44015407451127636	0.4523855138324305	-0.31661048451595825	-0.8067439774172078	0.1761985863766974	0.6299575551340584	0.46117335441502544	-0.06694274378802852	-0.7607367615566497	0.19112722527409534	0.5064591752616883	0.4428803611540971	0.18450453830866118	-0.54836606840921	0.15498910805195032	0.41796278848026786	0.11019441457583554	-0.06695330871128828	0.13620103861276758	0.07336918991161577	0.012353135241671859	0.036147519854834616	0.06890368444212379
-172	-1.9573239038640793	-1.9947658726873942	0.2283305520014932	-0.7561838011723319	-0.8274100401969097	-0.8474622347416196	-0.3764733960660213	-0.26809668473266685	-0.644348202509072	-0.6708053929558848	-0.5176868425650367	-0.097183853142467	0.021934863124541897	-0.3661048403079739	-1.051160928933293	-0.314897685448017	0.14994381330303075	0.1844235504977771	-0.04074688990557355	-1.0156877015219388	-0.28903108762247004	0.03773684417614506	0.08506473877410853	0.16854555862311602	-0.744700847176055	-0.2062184954443523	-0.05510272816812615	-0.20931850320897122	-0.13260219957728286	-0.09689725165936873	-0.3071578137272171	-0.06861946714481051	-0.27836570073419065	-0.2797044508547883
-168	-1.4341577255279645	-1.604898925543967	0.1350583132671801	-0.5387334810006685	-1.2148635356748299	-1.1141512365821802	-0.7536243777321385	-0.6252927764364242	-0.6567810161220913	-0.8953718520446707	-0.8210487344993168	-0.4477178741118543	-0.27591127087550404	-0.312920509978842	-1.0549093458244638	-0.5546754584613345	-0.16112144250721655	-0.0024006292163320296	0.0597860029320455	-0.991451499343139	-0.5170573579131531	-0.23001885356049356	-0.12126642434974602	0.2454440438511004	-0.675743637763058	-0.34138950619335695	-0.31019297163848414	-0.3398751607896943	0.010473467383167786	-0.13067834046272486	-0.4597292828873756	0.024706324500052907	-0.3713133325738765	-0.4150431741726062
-164	-0.42228716505244923	-0.6610479934214989	0.1476692106571775	-0.1907165343714686	-1.3514243330213922	-1.008584139184832	-0.7983171919694282	-0.5854262098790576	-0.5313864932949137	-0.9198234654091448	-0.7647874932053582	-0.49435210103154403	-0.25896367365304906	-0.19826242277633674	-0.8190403559986807	-0.479220955354033	-0.2006418699920852	0.008809235856047563	0.1917555327342476	-0.7141913157551288	-0.4395804692137286	-0.2279888087715363	-0.09433776116395018	0.38311502240728507	-0.39186733862168355	-0.2415172749620506	-0.29355391785893	-0.2435689711381679	0.2924774877793266	0.013777106034244528	-0.36796459462723785	0.23243829549278533	-0.23874413906855468	-0.32491975940685985
-160	0.692670343557572	0.4666271793982041	0.22820693196854114	0.14026017451636813	-1.2009693353848971	-0.6292079671232557	-0.5309587107604408	-0.15716060956376363	-0.3545324793447597	-0.7472180109232093	-0.4302742768391532	-0.2640806429871301	0.08375282564475324	-0.09000177658722812	-0.4330662776026729	-0.1709275837397445	-0.002723156933316674	0.2168376291284028	0.29513448402277087	-0.2995418600625924	-0.1480192091304149	-0.018200131087247825	0.12914301422415428	0.5251417742822072	-0.015496320052063507	0.00040177738891058285	-0.07393903266597157	0.013229250874497302	0.6011286958776206	0.2493977093360372	-0.11192414136285023	0.46150007727453685	0.036252520886921956	-0.08354444780714458
-156	1.475288387388536	1.3512823547578956	0.2950244538487933	0.2789512269606634	-0.8365027287344386	-0.18609623563988575	-0.11294761271570444	0.44316470511128025	-0.2417028689242514	-0.46295514585911995	-0.013056471910890863	0.08837868250944737	0.5856683835501686	-0.05011554422242557	-0.03733737012257867	0.18556563509343485	0.2813033752491736	0.5123485313831411	0.31022545616980474	0.09484326815501398	0.17106933848582367	0.23886765479337863	0.4134325970701967	0.6044998153683159	0.305919169607267	0.23530770778851165	0.1938596809976348	0.29307481572543503	0.816172240103975	0.4577004003889885	0.16970869855948753	0.6140868648283638	0.31835600653379853	0.18145188643419674
-152	1.6265460211695502	1.6987359480884234	0.27588829328500114	0.11623930901743704	-0.3936489810541665	0.10826816382491194	0.2394485765610541	0.9138115025336986	-0.27418547799503457	-0.1851725871656171	0.2796052985284547	0.3640117934096481	0.9982134674619004	-0.10335712853800998	0.24237842796643005	0.40122929114130557	0.46617433311066636	0.7415636163108679	0.20024637827383782	0.33886894498145903	0.3365347972956255	0.37091126944355923	0.5983401521834891	0.5666808471677486	0.46056282404013255	0.3340889207034426	0.3509085765562102	0.45906314137904763	0.8514308907946796	0.5405169711771349	0.3458988061754871	0.620359300000821	0.4804853784827834	0.3477387419504132
-148	1.1149343224032622	1.460338469633007	0.15344759783149992	-0.3153131000187303	0.00015495301301584772	0.14544478022093726	0.36748415138923884	1.040637609715477	-0.4508156467022998	0.0004976428450559465	0.33207762157521986	0.42377877128418745	1.1307734222473054	-0.2246529603292978	0.3526941230929161	0.37980031871272724	0.4326411474748858	0.7932645062445751	-0.030179900972344145	0.38596010110684326	0.2675690048138026	0.2866711311255139	0.5854160770894714	0.3933952738843206	0.4173733581495722	0.2522009902785522	0.316367237961244	0.44437035806043046	0.6875602585599452	0.4638638186664266	0.3535751095427945	0.46314963581453106	0.45998191717361825	0.3532278826855321
-144	0.1855901028000534	0.8223597982624862	-0.0198820530866282	-0.8330751636452836	0.27898776460781843	-0.030521821153589757	0.249286382761039	0.8179213980051374	-0.6828831417008736	0.08348259308718509	0.17130045549535675	0.2586781376029735	0.9536952352287171	-0.3522953978226978	0.33179342662964834	0.16244015056605907	0.19010004353211324	0.6589704735330979	-0.33086195504577265	0.28693213986432636	0.021613033433825167	0.02446868078193342	0.3881985833380538	0.1147420999491041	0.2334176296062948	0.047867566226268206	0.125555663983921	0.2820328168900932	0.37927895688619323	0.27071106365520436	0.22059111241436682	0.1833127583405474	0.2819548242126015	0.21884018127502683
-140	-0.7576029281562062	0.09445212012524364	-0.14421303533860247	-1.1828496426282158	0.4488399613492404	-0.25563955242464054	0.005683677722319872	0.44742238408612633	-0.8370295741882782	0.12373227594845884	-0.057825811061298325	-0.009880022120863086	0.606409846205321	-0.4188441623603363	0.28044661808733523	-0.10127583865583645	-0.1303597387360436	0.43229988108208595	-0.6200551971039447	0.15586985608325019	-0.24236370561920773	-0.2684940987007034	0.12003762244673959	-0.19693995962488287	0.021541207974407013	-0.15343430599574856	-0.09414342767073125	0.08106178769864752	0.03288613624018406	0.05754100516811938	0.04291793693197161	-0.1363728788032212	0.040623322026685546	0.03050948671744269
-136	-1.3413882221687403	-0.43461581954898654	-0.11911254346099993	-1.168333646685556	0.5520108328233782	-0.34152015957437476	-0.17146387652975706	0.21406203454331607	-0.8037648180695659	0.20122902044512397	-0.17868584349341118	-0.20019136318684902	0.30729430836340815	-0.38526767395023576	0.2980279616937645	-0.24064181684296118	-0.3491498521095855	0.2487670325912611	-0.8142700174754158	0.10373586390053718	-0.3556703022083268	-0.4170236576995579	-0.07329566013189037	-0.45331871395100026	-0.10836436572133655	-0.23100067616791614	-0.19764828632044407	-0.03795745959235327	-0.24026709734336557	-0.07664468120059097	-0.07220459711203152	-0.40488159554301884	-0.15244452616826856	-0.11060801120488774
-132	-1.3878285849817875	-0.6035643204709281	0.10736837210965441	-0.7620412092042658	0.6158010944077761	-0.18127840711601598	-0.1287029233305663	0.30920165699140506	-0.5559583292275962	0.3524411907834503	-0.08274788388579679	-0.17215600566314146	0.2190064782335303	-0.260065137683395	0.4197667826544852	-0.16012147028550572	-0.33699873004706343	0.2020004088546983	-0.862716732231182	0.1752516771898639	-0.23564387798419612	-0.31571167627733704	-0.09780532096964856	-0.5868479594672954	-0.105367168518115	-0.1386459317283142	-0.10677665445072126	-0.01234723251920885	-0.37388592864053194	-0.08447582998405333	-0.0680780483553602	-0.5612178430692977	-0.22764240147813752	-0.14481276237165708
-128	-0.972191152502271	-0.4125463952139136	0.5087262379199965	-0.13597804273606467	0.623955307815686	0.19157987784653802	0.16199907619583478	0.7092506867621706	-0.1694672252429509	0.5348263369408616	0.21142938679720102	0.09479037648348995	0.35244381338781383	-0.09618107950245879	0.5914987310734428	0.10885761650734935	-0.08460224398472216	0.28797846959839424	-0.7703514079671591	0.3239874235556371	0.0686817018443795	0.010994158657449784	0.03726587062606081	-0.5802047834052715	-0.0006867101165823375	0.0685471369085582	0.14361837470034097	0.12875854936516248	-0.37339976335664893	0.004425986658783096	0.03120434835125409	-0.5973694905457726	-0.1903102542125441	-0.08427844175279738
-124	-0.3516622772874921	0.011910018481046598	0.98299842824708	0.41489508643303563	0.5293834196076492	0.6229093059071635	0.5882635697771369	1.1837924688968924	0.2074615056045212	0.6433005316705	0.5704842791459084	0.49071174736107803	0.5667990431780398	0.032061286189671474	0.6963447314801188	0.426948188657472	0.2935901276805396	0.4100460995811882	-0.5963355287754644	0.43843951710631873	0.40379050272083766	0.41781556500804434	0.22801850678572066	-0.47288563728149663	0.11251068086828159	0.26337137751841605	0.4213855255932083	0.28272637653494853	-0.3065529457935636	0.09940493826802767	0.13587857748534685	-0.5551518783858214	-0.11222317786493337	-0.002950631773100255
-120	0.1875781263145501	0.4907217311390527	1.3888962233763087	0.6187326892490074	0.29911047144711966	0.921596345958868	0.9575876569413019	1.4261889421694827	0.418549685613567	0.5697946534075982	0.818950054962074	0.8325904586751939	0.6599626524475241	0.05951298385734113	0.6184055193546613	0.6226720198169119	0.6189914926159686	0.4387380767712449	-0.42676430832880424	0.40388193624569224	0.5934035763063654	0.7095348817077421	0.33597123538069706	-0.3404232254970203	0.13076919284229435	0.3140186957537336	0.5639398083753832	0.3308104268304944	-0.26298165254953615	0.09708714460656309	0.1398855593249006	-0.49994328491826073	-0.0894730908399858	0.005560740348813292
-116	0.4782947885835289	0.8634323455945485	1.5988900621100413	0.3670512726576505	-0.03919669230816906	0.9615097021622652	1.1004173727862885	1.2336418597546164	0.36804705765307644	0.27297526529057053	0.8328882434797399	0.9592998003581522	0.49677678817256277	-0.04328450922170505	0.3101059488573318	0.5835969433355194	0.7391871195250284	0.2917344562794325	-0.3334119013474706	0.16785846608220245	0.5308303223559188	0.7376776318999027	0.2661715441182494	-0.2550090842961206	-0.0021180359127541417	0.15545810719818137	0.4623635101565732	0.20392626472485126	-0.3020151845936251	-0.06025192871378808	-0.019501255775925996	-0.48297366377961687	-0.18726272833751742	-0.11830658435754314
-112	0.5329640494242011	1.031684276837081	1.548781391048199	-0.2266102874518127	-0.38303336404414895	0.7468432169178079	0.9604926681110304	0.6309640987678391	0.06353097392969904	-0.1831336314822884	0.6041207894331462	0.8136329034290203	0.09673622971191455	-0.25787174636584315	-0.17350670651498637	0.31356894890771636	0.6007920488447792	-0.013257170993891208	-0.33779549513408685	-0.22597956600355312	0.23232279659266344	0.4724479901783383	0.019384417633945175	-0.24688042637959365	-0.26212027602773935	-0.17427131489623465	0.11803568124772296	-0.07879382352008937	-0.417493044275979	-0.34852304966671	-0.3246318689733215	-0.5126972185541968	-0.4023987640711685	-0.3646353473993916
-108	0.49140375728517316	0.9731810664402013	1.262756463677386	-0.8836973287205694	-0.5923647269551979	0.4034029533214865	0.6191028936967726	-0.13638730312722042	-0.38549262187905015	-0.6495840533068573	0.23901356696342038	0.4650951910197325	-0.37290871049190666	-0.5222948180363434	-0.6944076997390987	-0.07534206639579717	0.2664553516336309	-0.36460035947299674	-0.40035447377214584	-0.6551993472723249	-0.17673563912592896	0.012956982445786176	-0.31060272376795806	-0.288127153384411	-0.5546578750911701	-0.5521175251372568	-0.35751098304131074	-0.419377415313473	-0.5397745357236872	-0.6680595857919494	-0.6824846846515561	-0.5511699901016547	-0.6631275398678171	-0.655769167674939
-104	0.49778920286383904	0.7288284283356663	0.8391070940766792	-1.3043825593440797	-0.5628324732875417	0.10137442473804603	0.24155260561515202	-0.7340768557134676	-0.8142215588993358	-0.9643332337827915	-0.10571162375940232	0.06405727549115636	-0.6909977776247526	-0.7511119823565542	-1.096111294840007	-0.42877060066687844	-0.12755385009032627	-0.6159664972966102	-0.4415643800077462	-0.9781193708520192	-0.5318308459205924	-0.46529605867211843	-0.5884488210126311	-0.3091580859961843	-0.7615964989507193	-0.8307403305060369	-0.7956659177718679	-0.6901115757684695	-0.573616980058104	-0.8883910752754913	-0.9660073494363711	-0.5361065254981152	-0.863047716822784	-0.8813813306490241
-100	0.5912732467028268	0.3744437387072541	0.4041508127975952	-1.3215161528600867	-0.2931851141203134	-0.04463998962099085	-0.02065936657040729	-0.9188578701662213	-1.070546385923229	-1.0367109749368777	-0.3124181918362657	-0.2440598004854928	-0.7080807071928283	-0.8656955935556007	-1.27893232976356	-0.634989021605425	-0.44603878147044845	-0.6649246199032579	-0.3859420110971996	-1.1038696738029627	-0.7154864650781834	-0.7959776500632562	-0.7078722101459305	-0.24047584771000316	-0.8014815429479197	-0.9100581980616684	-1.0485340330353843	-0.7954818586292661	-0.4527098823084792	-0.910348115053124	-1.071090933956522	-0.41774421824842833	-0.9120962000706831	-0.9494247412552768
-96	0.6797302348141501	-0.00572293715969238	0.056625239408102365	-0.9818779205327763	0.09377725398705875	-0.04036618013919313	-0.11398759455511975	-0.6645815355687971	-1.075003144411122	-0.8978015161735157	-0.36671671178737086	-0.39503362675112536	-0.43029609213908593	-0.8232764580921726	-1.2464998929023898	-0.6817104799225232	-0.6195687635991609	-0.5063484298319751	-0.20578965492743728	-1.0363750431597718	-0.7132794839016571	-0.8957987405094743	-0.6425248368253516	-0.057295083854977606	-0.6716805679529123	-0.782841799666886	-1.0521973344940307	-0.7148770075868938	-0.18130779220581605	-0.714406607731514	-0.9615004634423483	-0.19054639291338682	-0.7788450698262077	-0.8277252891623308
-92	0.60565280761394	-0.34133884224542577	-0.17172460214650756	-0.5115826116997111	0.39789909023914527	-0.004691459226684409	-0.10505499664247266	-0.16443884331194364	-0.848641095403011	-0.6852062923297738	-0.35966864137440996	-0.4298124004479548	-0.012754926425798042	-0.6340002401557425	-1.0975288124984763	-0.6531913860042011	-0.6650786979096134	-0.2311075025922451	0.059862017480393694	-0.8678899385474665	-0.6103532298890599	-0.7903432826115087	-0.4508515883030086	0.19886009344915181	-0.44987290984059	-0.5316378460812969	-0.845120070231084	-0.5051487075449651	0.16103649098746492	-0.3700007488922692	-0.6800041181562015	0.09827728544694969	-0.5028015958489257	-0.5554600343985321
-88	0.26196902924200366	-0.5838309511703167	-0.3172640792465926	-0.18824832093871252	0.4352678049542161	-0.09337276941805357	-0.12850359049777946	0.28895097898009414	-0.4956342863443926	-0.5685183987568898	-0.4269165087888539	-0.4550477850869241	0.331116854308511	-0.3587146988395107	-0.9679697131513567	-0.6715488416882912	-0.6567391736615646	0.026193443619637945	0.3222306362599627	-0.7265065890089478	-0.5341017232761566	-0.5844176992920043	-0.23700949489835843	0.4352686394192408	-0.2544513934386877	-0.2819213562046446	-0.5379758463628415	-0.26554477147769623	0.45440670733166094	-0.002386848669060881	-0.323830603735629	0.3676525941149488	-0.17329175726530782	-0.22177463713920006
-84	-0.32101082720771407	-0.7045202833508044	-0.4482411432870163	-0.18994657647336527	0.13390535082387828	-0.39717125792363056	-0.2932974986777537	0.46960908055949874	-0.15272915324751363	-0.6540356857953129	-0.6599372608689138	-0.566557465553375	0.4482168245920094	-0.08517081268979912	-0.9545748209694469	-0.817700264773579	-0.6697245223302568	0.15858970542445147	0.487802683075515	-0.7062326055815886	-0.5778006300643259	-0.3989982296883508	-0.09379590279024576	0.5534307942722773	-0.18465273035635985	-0.13870938087251738	-0.25583961541432404	-0.08701039828743809	0.59452551453214	0.2642599337581618	-0.0006181802002938018	0.5385869131795359	0.11122844340136893	0.07436924408971297
-80	-0.9815233921065474	-0.6939599496486764	-0.6122455581466114	-0.5036425577799385	-0.41990384353480015	-0.8751386381942349	-0.6064732655472018	0.3328460148514018	0.07087841612086915	-0.921096739827622	-1.0415122482707029	-0.78357451956326	0.32316508807606964	0.10883088382423509	-1.0607219907682846	-1.0780327292881167	-0.7325078230483616	0.13730466331148114	0.5079422580292451	-0.8164889791855118	-0.7481449227517711	-0.3112542025337082	-0.05974996447378917	0.5009047972430274	-0.2714639597237838	-0.14022169971826276	-0.08431429394653925	-0.013300059329666542	0.5404876456919795	0.3584050825130066	0.21253420358880706	0.5681914672811221	0.28222712803157035	0.2623288922839265
-76	-1.5165376624919114	-0.5657566175481948	-0.7972103933233884	-0.937261161822028	-1.0133720610782613	-1.363262292281055	-0.9619451736958946	0.017062166662649748	0.13895527983391742	-1.2273557155138957	-1.443931575944267	-1.0338830921772937	0.07193518411832694	0.18991199087832167	-1.1947754591340556	-1.3475694622349212	-0.8149427154946525	0.01504039946871476	0.4046939899240619	-0.9781042312722844	-0.9646411513769236	-0.3277842394182434	-0.11149269314273286	0.3006143860379729	-0.46415752055281584	-0.2501026981714994	-0.04433246690762924	-0.03136290229389177	0.329835771681588	0.2833640866277904	0.289268492922011	0.4642955947120894	0.3210391394139109	0.3191043130447419
-72	-1.7907098486511945	-0.3643927564957682	-0.9329343414594171	-1.2229400842307936	-1.4031617606022546	-1.6562522607948664	-1.2021386593031484	-0.26056590610521113	0.09820026879551375	-1.3812340463097774	-1.6926836924732107	-1.1979894607815198	-0.1393689509687754	0.18448872817667442	-1.2210282056498052	-1.4870828352576229	-0.8549961426129182	-0.11486919195260555	0.2582219832576591	-1.0665260526432792	-1.1078568669005011	-0.3988529135647553	-0.1895226086361483	0.04071630899759068	-0.6575551612464795	-0.3870811154606261	-0.10147983555206518	-0.09097062773386418	0.055147632817270434	0.10304684165925389	0.24906638201772852	0.2755245857435	0.25401186878922366	0.26508337192365483
-68	-1.792081113105435	-0.1675830628217131	-0.9353455281484283	-1.1540356845329343	-1.4276027643399853	-1.6179437596479949	-1.2148567407453426	-0.3460448673571404	0.0481986849283207	-1.2439711062495336	-1.6613488155381635	-1.1847614019999149	-0.19888822684141477	0.1633789237189013	-1.0356032822211685	-1.4017772639169073	-0.8044786432935938	-0.17657278433565257	0.1625245656440091	-0.9784638260933065	-1.0876914235310038	-0.45913785580108496	-0.2385423028406936	-0.16992539124502137	-0.7449796777036103	-0.4725117075434423	-0.19797165641869532	-0.13923937047136087	-0.18349032057688497	-0.09741956716021676	0.13547937537797156	0.06471941603771383	0.1298542913496244	0.14333835207989318
-64	-1.6066179234949491	-0.07867448757096974	-0.7674843649560565	-0.6839120966810333	-1.0784664126824075	-1.2572636572566227	-1.0045044396788358	-0.2387120717697465	0.0865940374929914	-0.8053733090094135	-1.3432199921073527	-0.9902094577584454	-0.11139182718286637	0.20283415862371146	-0.6252282842109401	-1.0957360239974485	-0.6624090058768639	-0.15114097259032191	0.17312064723175088	-0.6853280050140979	-0.8920181371102059	-0.46696272374512	-0.23658125042788966	-0.2567084723190212	-0.6681332571327058	-0.4680133450136008	-0.2851703457785035	-0.14898066185053693	-0.32304376282193564	-0.2523458295649907	-0.007039897126066758	-0.11814877361031813	-0.0051709394771437215	-0.00268466094762278
-60	-1.3299236264030079	-0.19183255683626413	-0.47941428301887384	0.06159147232121729	-0.49638497704112094	-0.7253316622541017	-0.6914463621801996	-0.07789584229591232	0.2605372064688242	-0.19094851564834872	-0.8580651261600099	-0.7022447568329595	0.01632355335703852	0.33988481674212356	-0.07686024139787694	-0.6711631400329234	-0.4758278119471488	-0.07722563277058875	0.2766969494986272	-0.24576675829826078	-0.5894728884119316	-0.42049562824895853	-0.19832532057757718	-0.21447972899168624	-0.4393339742058823	-0.38502278826779435	-0.339970796441995	-0.1270461824308948	-0.357426880887745	-0.33723688040466226	-0.14631305598034938	-0.2501676076294959	-0.12230015515205629	-0.14202709460162877
-56	-0.9923787687995687	-0.5418336973815436	-0.19803768346377854	0.8542907216437824	0.10325035426774504	-0.23719003736692726	-0.44077858217533383	-0.04154602427722078	0.5439300523376461	0.4006920744793013	-0.391715913022014	-0.4502445447998263	0.05175459744380463	0.5468866811296198	0.46420156838519366	-0.27505183150465756	-0.31128925006474767	-0.018733499524383482	0.4000040878687183	0.22555747571264187	-0.2889595322465978	-0.34772610576575275	-0.15705324669763301	-0.10407612446495902	-0.12843711641786154	-0.2666100554887548	-0.3624116173177257	-0.10246506307481194	-0.32623764790183873	-0.36492827442540066	-0.2632491581946127	-0.3324203780841354	-0.2112739974886639	-0.2570241981215994
-52	-0.5527291880003975	-1.0599994632661414	-0.06780145300197835	1.4718115292582763	0.5323332534701357	0.03766237189797653	-0.36433821824593643	-0.2246425742199719	0.8508726932977674	0.7957507351811691	-0.10227783743546454	-0.3308893731823001	-0.0762696040731276	0.7420274000506942	0.8641977288361768	-0.024416228694663505	-0.2170835727932863	-0.023800559281816864	0.45268887167124894	0.6140544995063326	-0.08149974027560958	-0.28294563222020125	-0.14112421834601188	-0.013547851669855993	0.17508159533642673	-0.15732608695840353	-0.36359712389699267	-0.10598260882560888	-0.2830783419614586	-0.36463767198053193	-0.34681144269166125	-0.3759647598311147	-0.2726158194811601	-0.33801433358682714
-48	0.03832766031482826	-1.5616897305160358	-0.17091575221778646	1.7887748434680917	0.7082383018732166	0.056983467047588325	-0.4536025512687041	-0.5736777171909768	1.0793290110994191	0.9271161532836464	-0.043245240936768105	-0.3536265483511058	-0.3325706413932347	0.833249089998299	1.0615911456962048	0.04901977616093164	-0.19942335734085714	-0.09979422365265349	0.3810910274897572	0.8557901360839665	0.0031730818947758276	-0.24687579211847405	-0.16061815578916502	-0.006567472109753633	0.4031841446710685	-0.07989152500724334	-0.3550630500888883	-0.15378010234153994	-0.2642348402027747	-0.35966619758398033	-0.3908531357910685	-0.3891692449757704	-0.3099101177974167	-0.3796905865619728
-44	0.7449961881901714	-1.8004975273450499	-0.4742526996082911	1.8093628837679796	0.6719908101281848	-0.08570802190122279	-0.5881872162273724	-0.9177540517524128	1.1606104344629289	0.8563849308326784	-0.14640472792378248	-0.44091480859062404	-0.6000584944833806	0.7711439113220917	1.08651137077672	0.00468494369396885	-0.22697688581857817	-0.2177688473925388	0.20194433578526744	0.9563943123512667	0.0021295307616023117	-0.24213892160316605	-0.20977991766417375	-0.08783641435381115	0.5323580490022997	-0.03094287022586522	-0.3459898224678293	-0.2423911833603798	-0.27527728607295127	-0.3568586400082135	-0.39559268851538465	-0.3743618717278618	-0.32672768748762243	-0.3821328272708336
-40	1.4016509020703025	-1.5729042251929222	-0.8370549061622438	1.6344314772348463	0.5435475693330881	-0.22742024006645936	-0.6160235389415163	-1.0746473046827114	1.0881417962257895	0.7264428716438438	-0.2718842022707117	-0.4830914127550734	-0.7563227992035971	0.5794931039484501	1.029994008324808	-0.05144928755287472	-0.25903129512237605	-0.34038519773374964	-0.005032924456853472	0.9701587533298509	-0.013567577081936549	-0.2635402374766384	-0.2801668934901106	-0.205981537179646	0.5783681854904443	0.004215924058641208	-0.34721869142606093	-0.3552481225104486	-0.3012715272449625	-0.35250529557874444	-0.37204539681915955	-0.33523362790346384	-0.3291980317864238	-0.3554105749693738
-36	1.7667388871409755	-0.8262163379790067	-1.0789049836575575	1.3948720658371123	0.4464486826115339	-0.23354360402270954	-0.4535796034805235	-0.9649769639447404	0.9144853926458277	0.6754420978659007	-0.2918873719952177	-0.41060536996170366	-0.751094697009613	0.3453859380108121	0.9848725174833761	-0.031823154458524114	-0.2745534472686264	-0.4494710851288512	-0.14084424042904756	0.9569292640367751	0.01417169343827425	-0.3091096274201042	-0.36995899583870945	-0.290305196505972	0.5720185623031979	0.03285015366128207	-0.37229740525663363	-0.4715898621096735	-0.3286575964736098	-0.3449960938326429	-0.34149935755340066	-0.2861711077617556	-0.3279441884820944	-0.3200544706847075
-32	1.6534253317095966	0.2803501777723322	-1.0741006108822118	1.188599106648734	0.44519188887729555	-0.07022962701470765	-0.14418254756287682	-0.6637895090510213	0.7191232424699718	0.7616432885967499	-0.15940268297481283	-0.2385230058369963	-0.6360921247634981	0.17139571861862848	0.9930333470068394	0.08588092007411847	-0.28217473554894507	-0.5532181249002556	-0.14332777225547225	0.9438443160069148	0.0982630548380455	-0.3802815666134287	-0.47986966250380814	-0.2981380514723867	0.53399312361365	0.04669493797553046	-0.42968603860135	-0.5699249491607482	-0.36118200330143624	-0.34175693902514714	-0.32531177915455783	-0.2530160539914754	-0.33372995173118913	-0.2981876723390369
-28	1.0612589094070657	1.406893726611509	-0.819532749967927	1.0498325798231825	0.5262405859058673	0.1887034173015848	0.1651202287081344	-0.3575618556054981	0.5663889632230205	0.9389300918715253	0.07568761687242948	-0.05449863136956246	-0.5286542759899527	0.11731564969007355	1.0272202465825435	0.2547017329461123	-0.3052963308732591	-0.6693439466743268	-0.023682951867391354	0.9126898623311471	0.2053786063969428	-0.471150099041631	-0.6000920518983043	-0.24400892792130546	0.4634049523097818	0.028779780419524587	-0.5107476102331608	-0.627336500491323	-0.419313221111212	-0.35569131284555705	-0.33060899293398455	-0.26279070907048024	-0.34912505657742154	-0.2998573176442697
-24	0.22136938516039534	2.159190172466049	-0.43684294709539606	0.9579842662466359	0.6264026149193399	0.4203860153074933	0.31579387108227475	-0.23167698026815262	0.47811624287055504	1.0930663319646992	0.30896612923816974	0.042354632062073086	-0.5318273292465595	0.166900023396634	1.0153602336043694	0.39628541369521525	-0.35352227002533454	-0.796260533706646	0.13730490173005963	0.818788287956562	0.284027337310854	-0.5558424577984454	-0.6988293510913078	-0.1924527282624251	0.34593078406732836	-0.030096979735800035	-0.5823739752371055	-0.6183629616383991	-0.5232128487728561	-0.39340969820831984	-0.3409004202818873	-0.3271474531973933	-0.3617085507320526	-0.31284442464997836
-20	-0.49363034838978104	2.257048124336902	-0.10580198440065368	0.8700425602880949	0.6855349523402355	0.5359419570743058	0.24170520840655293	-0.35765409379305513	0.43316373119663465	1.114467618035849	0.45158082132767197	0.011330481590036091	-0.6621764285535375	0.2397223406938163	0.8905733205244982	0.4534513342852907	-0.4031218876197578	-0.8960069991377937	0.23208476544435389	0.6271637066265553	0.30079635901801277	-0.5884206280157235	-0.7258445006164544	-0.21873560492603242	0.17320711866994046	-0.11887065291195091	-0.5945781454333438	-0.5197381364098027	-0.6725905520624007	-0.4460647094908603	-0.3209370664599907	-0.43149334083334406	-0.3465518048596752	-0.30544415039192885
-16	-0.7556334118838656	1.6645070272382585	0.03454548111776762	0.7520349006739262	0.6850452405799974	0.5342214094025634	0.019491588647625895	-0.6472500546326354	0.3891559829423413	0.9618115996872902	0.48254704353571415	-0.09678316091897608	-0.8317790010432704	0.24116495190767281	0.6350123866261179	0.4230866719531254	-0.4031648923708547	-0.9046609974908834	0.1836987133156548	0.3418441704225557	0.25997921758816817	-0.5220871554544702	-0.6343725307660696	-0.36131134538027226	-0.04182168458274009	-0.20879851228926358	-0.5044882880825212	-0.32293638505464384	-0.8388068058770589	-0.4922743725268868	-0.23752036630743847	-0.5389621244174497	-0.2805846326419642	-0.24483773050481472
-12	-0.4622709441434707	0.6111291035481423	-0.03945733596853319	0.5920809492421388	0.6512556655653627	0.49387732023478437	-0.16985706942112008	-0.8989294148637527	0.31035527508579774	0.6815211755711945	0.45252615099142296	-0.16677990513655366	-0.8962383843682276	0.12236405878167476	0.292964457725912	0.3508049240792075	-0.30612724942165254	-0.7668490390489997	-0.01335817292685325	0.011026569614287149	0.19603235970117946	-0.33909702215411625	-0.4103314568173299	-0.5937683567314699	-0.2640416913518677	-0.2700134806968368	-0.3047530345375031	-0.047114647805947006	-0.9755747889683374	-0.51224541534794	-0.08471325763533605	-0.6081873163126802	-0.16106592078074847	-0.12101002752031141
-8	0.1930348272218319	-0.5091918097991616	-0.22940830828443953	0.39621886510949156	0.6259235127858449	0.5107666837194408	-0.1498950418025664	-0.9138833261304716	0.18469123495678752	0.3746583750325484	0.4385443616762139	-0.09339379495644501	-0.7437391262350321	-0.08974076784841566	-0.053121168032280945	0.29207801745105044	-0.1057597321581952	-0.47677925108697383	-0.29096630142182905	-0.2951857738194706	0.1443840857675148	-0.0740154830732836	-0.09144911891975176	-0.8339910486145898	-0.4513480055857671	-0.29215910957006264	-0.03949598958057243	0.25697517330139535	-1.04279505943232	-0.5041815029766368	0.10250941638099344	-0.6150166376798678	-0.016099369112733394	0.0387945174191431
-4	0.8099853375965547	-1.31441735889455	-0.3780886819353562	0.17516076520564977	0.6240705831983906	0.6226765497699034	0.13732278312344712	-0.6119114145088441	0.020166104608523614	0.13349911536843725	0.48145800707377256	0.14336578511758177	-0.37204459215645713	-0.31039974015068794	-0.3280914715589625	0.267064570706342	0.1432559337575381	-0.10005322073470985	-0.5449801669666476	-0.5209535347183492	0.11137559981836724	0.1875398005280563	0.23775246679360784	-0.986144897832184	-0.5762917980902912	-0.2945858828736433	0.20502309449407757	0.5189326392423418	-1.028516051556689	-0.48999178285865386	0.257672190015639	-0.5646494612742873	0.10253408525328757	0.17676119461731188
0	0.986558196438013	-1.5986167152097914	-0.3663082113554341	-0.06524579955555751	0.6122443064490742	0.7722337226444135	0.5824184999066404	-0.08188806453534082	-0.17196492807363517	-0.011508872703462993	0.5493653402763464	0.4511418927246542	0.09561553573309654	-0.4528501320372816	-0.5022757636740448	0.24108213125396652	0.34154987248972024	0.24374881325216238	-0.6892485005143009	-0.6517085416552227	0.06575370563356747	0.341311871143733	0.4775283324582973	-0.9901741122041827	-0.6388360245788055	-0.31623759785918487	0.335865645752744	0.6741193515923848	-0.953473267532134	-0.5023811446857416	0.314970462719104	-0.48459872481067023	0.14493240379458042	0.23338057041849927
4	0.532671986665539	-1.4032520020342167	-0.1869789655256194	-0.32099318423290507	0.5240606652380008	0.833919046203883	0.9567698812170482	0.4571005988501281	-0.3903162469546097	-0.10242406252989059	0.5516973719972957	0.6651504022970971	0.4626848984003907	-0.48572766658218824	-0.5997284039614478	0.14462184869492353	0.39008161327104374	0.42829739939320133	-0.6961648446626408	-0.7159844022793798	-0.04175508756824263	0.31249213139792287	0.5539398775420186	-0.8507168867567179	-0.661973117110722	-0.39018928906155864	0.29707214161255957	0.6890904289967557	-0.8549725391736467	-0.5603055939833136	0.2465673678848625	-0.4030677964047607	0.09297785884509127	0.18246068014331207
8	-0.42273005736433455	-0.9664207076468447	0.047968201218136775	-0.5782785997095731	0.30719453018830606	0.6923632008238199	1.0362542841497617	0.7644596080552766	-0.6391511543349374	-0.21612434034617656	0.3987746228640405	0.6376886947744207	0.5552712068843604	-0.4542854714844939	-0.6726234538262336	-0.07724755982923014	0.24218861697562205	0.3766607036617551	-0.6017674192494211	-0.7612332086417306	-0.24106605290107894	0.09565434580732793	0.4500884998401983	-0.6298926456760618	-0.672559200019328	-0.5173549639037652	0.09944397931025697	0.5753685817496961	-0.7602980713722105	-0.648258207591821	0.08336686321906527	-0.3269720963329068	-0.023206731245934965	0.0515630243906899
12	-1.4889520369130598	-0.5786588773422799	0.17275617973103075	-0.8023912290341849	-0.02604367577414701	0.32549264944867207	0.7314747553477228	0.6968515497733643	-0.9085879302927059	-0.40259563821236455	0.07049977761588945	0.3271369925822616	0.30988469641648414	-0.4502099145012992	-0.7587114553369402	-0.4164867986654214	-0.06579353643733807	0.09821991597649822	-0.47510272144528687	-0.8187791684459343	-0.5113361464941871	-0.2358095937974145	0.2115935081861757	-0.40929078952450143	-0.6799078566551323	-0.6566363556495867	-0.1804531808111842	0.3835616996141041	-0.6679183227841884	-0.7155552488380805	-0.09546150243022464	-0.2353917056339493	-0.1352600451869131	-0.0869795528838447
16	-2.2010250035982195	-0.42423015725793184	0.06655224395876846	-0.9387537813327249	-0.37876802587246855	-0.15961559076541298	0.14938966892195302	0.2759638123697409	-1.1534633607352458	-0.6385663731665224	-0.3498682966935718	-0.1659146692140174	-0.19287557851255532	-0.5462006912746318	-0.8490708448907566	-0.7867206911251409	-0.42396572125205345	-0.3129999331678047	-0.3735064258682052	-0.8799649454788026	-0.7772387842582112	-0.5584303126541249	-0.07573187332106347	-0.24533635315942437	-0.6670809371318531	-0.7404652815243647	-0.43355414161892775	0.18035058631662357	-0.5501189814029838	-0.7008630615659096	-0.2014499003569427	-0.09482091641327964	-0.17094857947581363	-0.15272295436447264
20	-2.2386107388243697	-0.4987097369954261	-0.27057060531014576	-0.9324954128563993	-0.5998031481858074	-0.5643055424748016	-0.4510380614337176	-0.32754596985135537	-1.2947092023586149	-0.8277339318358014	-0.701049385685007	-0.6382839663602896	-0.766799567193961	-0.7396954279343895	-0.8878787733549403	-1.0537370416739813	-0.6947626453978399	-0.718248127077589	-0.31227022330598436	-0.8988736249163838	-0.9380884742894217	-0.7514381389719417	-0.32281240739382405	-0.14487563037057521	-0.6016508325645348	-0.7086049896469491	-0.5661195502293159	0.022253662291608484	-0.376571415904107	-0.569416819565321	-0.18251505448037114	0.1122138720897913	-0.09418317651811549	-0.10100108359585737
24	-1.5625383814462053	-0.6362606866984973	-0.7098739725310133	-0.75655275392256	-0.5536952004758333	-0.692596612612171	-0.7872164825591308	-0.8794793464390435	-1.2508212296376953	-0.8504511096463354	-0.8188260773012542	-0.8811029769586258	-1.2080345123308653	-0.9422864294103537	-0.8058437684694378	-1.0984348030967748	-0.7731180171520685	-0.9922604535799883	-0.26527005367062007	-0.8211594799290299	-0.9165305472121974	-0.7475573401650588	-0.47019523263474006	-0.07413552682755815	-0.4604634034928982	-0.5421435819289485	-0.5379640446432057	-0.06100838615988388	-0.1442000862295577	-0.34029298934851493	-0.04876131924596719	0.36375856307695925	0.07311034184117096	0.05200928809028684
28	-0.41100478068533514	-0.6260440929819211	-1.0610229942236402	-0.43619215378305903	-0.2000563288644513	-0.455646007102702	-0.6996447426297765	-1.1931877106105375	-0.9879414414258232	-0.6385646446318283	-0.624839781137275	-0.7862121442972012	-1.3885152304878663	-1.0272558901600293	-0.5709502086529412	-0.8825454689631931	-0.6342723949630998	-1.0744512054018955	-0.19579370270410135	-0.6248351319749942	-0.7038922888150364	-0.5603235945859903	-0.5046430217399674	0.005019552527360904	-0.2554132037866775	-0.2810108654556769	-0.3755731871182514	-0.06901389343003524	0.10518075499205062	-0.08707378782699667	0.13530845905950967	0.5961647614686141	0.26052844458606433	0.23760977327437582
32	0.8243699649024611	-0.34965926320487223	-1.175168630493983	-0.05568722993976939	0.3635100415111957	0.07227170449129858	-0.2369619154907866	-1.2103781669575167	-0.5596212730583751	-0.23061074258278003	-0.17787478819283895	-0.40384653108678503	-1.3086047139507293	-0.9100009776028285	-0.22457781377358696	-0.47841340182633246	-0.34474602254611914	-0.9887467597793502	-0.09326091385183435	-0.34657180221794687	-0.374137549647816	-0.2743343405949853	-0.4537342179286805	0.09885280554370603	-0.040588140385195697	-0.011396853224471065	-0.15353353282788787	-0.01975025045355624	0.29591920897158003	0.09485243236912506	0.2902571551624043	0.7302929144541003	0.3885513832295886	0.37489259148360193
36	1.7702490046629362	0.14267758989074264	-1.0262671683149913	0.2642249756340893	0.9266843176333389	0.6815759522396049	0.3692169180131294	-1.014101145091313	-0.10543647381865262	0.22970707656562186	0.3448439231749155	0.08114635923878968	-1.0845080586708769	-0.6082129463098689	0.12304989217447064	-0.04274583969648806	-0.031141925524525518	-0.8251606801180551	0.011069795088833642	-0.07427896540484798	-0.05533747361040075	-0.00474516394281402	-0.3661094894702547	0.17103016333314397	0.10798866274510462	0.17289815799452726	0.04405158747041495	0.06488148106644895	0.3561250558444925	0.13919775152825153	0.37000146414800467	0.7146404963570221	0.416575848004491	0.420442639719887
40	2.1996378843085087	0.6554353220603949	-0.7257219534671057	0.4113498021707464	1.2540924517439993	1.1231719227090022	0.8227409699648625	-0.773482797577173	0.20143170603917096	0.5549857602412517	0.7271866183994734	0.4397153843268371	-0.8814833141959774	-0.24249228773882478	0.33865436826080936	0.2521800392459665	0.17470669702289726	-0.6953557712165024	0.06192150323850538	0.09171577519864241	0.12648357419028033	0.15059708020811968	-0.2903946034729093	0.16645055967267877	0.13038435545427368	0.2134803975199051	0.15886060853427167	0.16635505813082851	0.2606034570313248	0.04719731572275145	0.38789668581302866	0.5604472146189423	0.3693853905411617	0.39570587773552734
44	2.072015757097765	0.9516775584035195	-0.4630439567796111	0.32938235914992636	1.1957699030249775	1.224310871847877	0.9111001468543564	-0.6566008908860348	0.2345529043713042	0.6045691355700147	0.814815042345866	0.5082246648354779	-0.8329673388431571	0.025221263926128605	0.3298271290081174	0.2955502860236742	0.1876523340971081	-0.6855747086382004	0.020199777507446396	0.0882115957894026	0.10277868781366702	0.14325661921095126	-0.26302367382399666	0.054379261892830225	0.016944879623189094	0.11129911215815233	0.17244690613123329	0.2657928758109474	0.051769293713994954	-0.11167707266029943	0.4026157249776031	0.3453763416630275	0.32306566752883525	0.37251046205884536
48	1.4939651451538818	0.8772435762191634	-0.40478235380971833	0.049733970188698094	0.7673743943867236	0.9692314838734214	0.6082980617423933	-0.7552950959209745	-0.016436491120086702	0.3584683230409536	0.5880239591057448	0.2634523802304613	-0.9842953657094732	0.08313673713674909	0.0952325535396398	0.0867207718686251	-0.002267025638235952	-0.8251026251941904	-0.09974723284094733	-0.07564347218250415	-0.10876507284598862	-0.019045457195834215	-0.30420553607430106	-0.13634774054435062	-0.18005585625011458	-0.07912024835637765	0.0978298855338146	0.33776289139347704	-0.17510993734494587	-0.2386429303819816	0.47292557239339533	0.18091227068524635	0.35778176694184166	0.42490446460257336
52	0.6383749230479873	0.43520551810058306	-0.6076774581825588	-0.3138350240413219	0.1530519422004798	0.5007265197509543	0.07834591696747496	-1.0543941232763263	-0.4303500939471161	-0.06823828799185368	0.16732455747797487	-0.17520196691624673	-1.2843917575833335	-0.06476842595675666	-0.26902398399141875	-0.27030032804909415	-0.33583745275583643	-1.0817003222811763	-0.22369146290569233	-0.31987568655315507	-0.41798645152418396	-0.28998446391324534	-0.41846969618048035	-0.31643855491853773	-0.3681614389661116	-0.2830284826762299	-0.04283078376565913	0.350179075310646	-0.3187780968247098	-0.2648166709412807	0.6084963067904157	0.1578316088506285	0.5035632836025873	0.5748278484136589
56	-0.31560361305663204	-0.21766620819449473	-0.9941270922357064	-0.6103216990320534	-0.37837082052068816	0.04346520442717573	-0.4199943531876631	-1.4565876685560513	-0.808166144237958	-0.4822268175824669	-0.2510192387918965	-0.6152659043036891	-1.625020261476442	-0.29986450000394704	-0.6144790633899957	-0.6236366613855213	-0.719376681418917	-1.382823463763345	-0.2522024207900232	-0.5344237075664203	-0.7116299849663075	-0.6140168293709296	-0.59624963848256	-0.37706589603591517	-0.4621137964979172	-0.4485217321515881	-0.2390018546507516	0.27453026106186734	-0.32731127656314485	-0.1971584553509166	0.7479878645131846	0.2975246004699072	0.7116557341727855	0.7651578168624127
60	-1.2037395208484842	-0.8568714835467515	-1.4031971657611617	-0.7178543787951969	-0.6040220841416474	-0.20897795207190684	-0.6720591766555697	-1.8445956660429168	-0.9714196299822462	-0.7109382134607909	-0.4950697707551502	-0.8929464794502388	-1.902871603929842	-0.45883834246184485	-0.8138338902906954	-0.8513962604961525	-1.0688716146185584	-1.6502437549888085	-0.11808925092207959	-0.6372582300309397	-0.9118463970050601	-0.9508306360080443	-0.8143975714149131	-0.25062578853272754	-0.4309375871268615	-0.5746546373163789	-0.4972906696161964	0.10352737430421985	-0.22841335775403834	-0.12078864841959394	0.7835063914544537	0.5387843237625336	0.8736556150313227	0.8819461442614898
64	-1.8806196403706053	-1.3105980124762755	-1.6881452756221813	-0.6024790391015978	-0.4603744733631179	-0.18737754178422614	-0.6170235856690329	-2.141912693337918	-0.8543555714971344	-0.6919394118005368	-0.5021216260630448	-0.9540644263975238	-2.0679395146611568	-0.4319986988127963	-0.8241577723675965	-0.9203800535806522	-1.342266675421222	-1.8303916408102239	0.16679491060583798	-0.617341218820239	-1.0128275130449682	-1.28340232048256	-1.0372929546869953	0.044918503498871575	-0.31681227604033585	-0.7074581366797212	-0.8280636051252217	-0.13329797949515051	-0.11320258648424862	-0.15032078287796094	0.6236111505976218	0.7721825818593253	0.8838356114960991	0.8196511843967967
68	-2.23588704498359	-1.5472727974927427	-1.809708590706804	-0.3406740120392796	-0.08048100004142247	0.024162284968884246	-0.37434616590400316	-2.3441395700398684	-0.542001603665452	-0.5051575290323697	-0.3463251283961667	-0.87486213224782	-2.13865637239277	-0.23078043700602713	-0.7065324765486966	-0.8967418648013741	-1.5474120339425865	-1.9099863719401382	0.5060377108195455	-0.5380647764926217	-1.0767474147314253	-1.6094102818863367	-1.222640153659041	0.4073040177075418	-0.21219263917278408	-0.9046454406786363	-1.2221872775691809	-0.3676898768201617	-0.07744854669090531	-0.3531104615356211	0.26240011983425326	0.9081910229641487	0.7138003092863895	0.5565100298182444
72	-2.238456005166923	-1.6955473380195696	-1.8765951347655316	-0.09113822854396883	0.2687170498739228	0.2360596203804548	-0.17580674544293332	-2.5104360517061917	-0.22989110590590126	-0.32904660618675424	-0.1955760563442535	-0.813890514703089	-2.1802921240118933	0.01774874138821314	-0.5892773851775619	-0.903081235989745	-1.7235642628069268	-1.9118448447595426	0.7631437759205372	-0.4961807417263137	-1.1903331249701616	-1.9222202252493996	-1.3303461041241091	0.7027605754275433	-0.20264898189402303	-1.1863278120606573	-1.6313580233394078	-0.5074428903165776	-0.14817199073574971	-0.6846367103457383	-0.1830068226008489	0.9469259357386669	0.4593475747431977	0.19922472486264464
76	-1.9939721772395689	-1.9889888713210593	-2.111289972696849	-0.02995884783452697	0.31750017324395186	0.24735002157227093	-0.24570470986320628	-2.724152796543196	-0.12572394279685825	-0.3452157071457634	-0.22408805730986528	-0.9254761910914368	-2.2640643062649883	0.145756274093747	-0.5959385022376179	-1.047183868625341	-1.91016721243193	-1.8777350139893383	0.8329733589122642	-0.5594979510486462	-1.4075493777023829	-2.1955089513660524	-1.3334637846658592	0.8435977080027194	-0.3066807083493171	-1.501085635210062	-1.9669449279715636	-0.46474584819758596	-0.23896610676513783	-0.9765589808603838	-0.4935160862860351	1.0097372506397455	0.32810115731371403	-0.03363421550841978
80	-1.7638056233696948	-2.657515995945446	-2.7564232279802754	-0.27649462153244797	-0.0755345968485162	-0.0625942496865158	-0.6929467302946977	-3.046284191069858	-0.34753200324053174	-0.6433750374762811	-0.5266137705858638	-1.2814235654903023	-2.4315783916117093	0.041823465271498265	-0.778205750407961	-1.3612854446374254	-2.1210157817695836	-1.849276657203889	0.6991001349918388	-0.720146713822826	-1.7108905272203336	-2.382652276699225	-1.2271844117652437	0.8449552633886962	-0.4488397527329842	-1.7301052765080638	-2.12316321790613	-0.1873085941115563	-0.16608265000373154	-0.9930576060972017	-0.4262558211055092	1.3084670272216459	0.5646892771768968	0.10941834720165813
84	-1.9138215731938828	-3.8220145605865468	-3.9674854178395074	-0.8474207499089607	-0.8592676498653172	-0.6894665343043388	-1.4702098332479159	-3.4909498603420825	-0.8721185304557356	-1.1772248715242528	-1.0780044766865644	-1.8415818167921032	-2.6848123005792885	-0.28707307504654195	-1.0902472706925197	-1.7838609173559254	-2.337937110720201	-1.8559381914964574	0.4429859805843725	-0.8919844604859928	-2.0135784098331952	-2.4333732066706544	-1.031513330716297	0.8250296095045249	-0.4862387466075245	-1.7328246788144304	-2.0172219225498265	0.32100751914993736	0.2736117832905199	-0.5346968756527363	0.18238003505913458	2.059140915440207	1.3439501490040078	0.8041462281905206
88	-2.7838201452542446	-5.435816751107425	-5.738103375252672	-1.6599096017890504	-1.8256291104954048	-1.5233888587636761	-2.413952106103233	-4.026960839594864	-1.558293577074598	-1.7945526792994513	-1.7555274919056099	-2.483700745987559	-2.9978308601985386	-0.7229422908650233	-1.4183969461869583	-2.1926538888885196	-2.5249483521608846	-1.9115511130708311	0.19834098169795236	-0.9563149189646263	-2.202600473564945	-2.3197715223871587	-0.7860487083616398	0.9437458491339944	-0.2799603633964853	-1.4148352110427527	-1.6290124613641286	0.9983704064911979	1.19592523272887	0.45798417810204767	1.3354457583089265	3.374882927956901	2.6804869107281486	2.0618441052832357
92	-4.5226096992748674	-7.290796738336892	-7.885655860064998	-2.5741257602551078	-2.724819414888681	-2.4141619144523125	-3.3359780227359126	-4.599177348922861	-2.225831741435369	-2.3236846865160725	-2.4075775085698887	-3.072160236231578	-3.3394398604957267	-1.1091968985209582	-1.6494197803815138	-2.4707221922483544	-2.6544103555419105	-2.018367523819517	0.07606237362492797	-0.8329068401288628	-2.200499529051206	-2.059243912266119	-0.539895950384788	1.3097500768018415	0.22309832218586875	-0.7855209092334862	-1.0221513483943525	1.7416063503163066	2.546346896418382	1.8523820591888465	2.853616945691428	5.186528192776857	4.3972473033511426	3.702025881003625
96	-6.976569158106071	-9.086483932442134	-10.100872014292671	-3.450912943710378	-3.392134896297133	-3.2413799680888853	-4.111159791103473	-5.155344950057736	-2.7450027396515657	-2.665193074173134	-2.928214781043858	-3.524348250074044	-3.689815511924346	-1.3424468006572785	-1.7363778308898101	-2.568393223953663	-2.727757208612953	-2.171109670879559	0.10281433139115272	-0.5354702459167443	-2.011618847536507	-1.7196824507210855	-0.33901914868591376	1.9067460250397499	0.94298141956668	0.026389051162135725	-0.3330082586940708	2.434565061144574	4.0878062145022795	3.3536682044234265	4.42585371807384	7.2320728119409665	6.171307071363527	5.402396188447663
100	-9.691777204839697	-10.536046001536247	-12.038565605286696	-4.19385765924185	-3.8156578444465903	-3.9500579734255	-4.712786662600869	-5.655647740390052	-3.085804454641954	-2.836307756892356	-3.296345464013343	-3.8374988935857828	-4.03649424487475	-1.426421877120677	-1.7229236320864985	-2.526676886855007	-2.7762966085911107	-2.356024974596653	0.20949277228869329	-0.17674869254310183	-1.7257384018242647	-1.399890776914529	-0.21515588408031114	2.5833706790550086	1.6848168330570374	0.8127360323413493	0.2720218591974729	2.9774074479271047	5.475393758301204	4.609247196004371	5.7136082504976216	9.128239608606242	7.640886764308469	6.807469350793749
104	-12.055331199726789	-11.465335817000076	-13.413389172067065	-4.758984076882426	-4.112774361717073	-4.5396628265206305	-5.184655176424164	-6.06645010370224	-3.303670874837744	-2.946945659826523	-3.56282447869089	-4.066243638262774	-4.357846249068297	-1.4564750157777102	-1.7143539147009084	-2.4509260592569526	-2.841419212796809	-2.5477571423102074	0.27675211359722757	0.0815927011694827	-1.47636198624752	-1.191990134090734	-0.17938123598108877	3.115899316550225	2.2177019063271106	1.3659913505398509	0.6548865420973333	3.30684160351321	6.388891680799531	5.3425674303589705	6.465179903873523	10.498546573835515	8.529133775157902	7.6499390408969425
108	-13.521635021403146	-11.8673896489928	-14.07029911303548	-5.135337339787205	-4.431666363017661	-5.018669592584204	-5.572137341736149	-6.347784026331785	-3.4782283218305	-3.1205286900889515	-3.795382728530983	-4.266090382295563	-4.6095466497389666	-1.5473818739924063	-1.8098516418539037	-2.4474017558295715	-2.943224899490458	-2.708683245495827	0.210318088000492	0.11125789554639422	-1.3727854455620652	-1.1402101487936094	-0.22156114820331482	3.3136157905841195	2.3788950383206497	1.5652261932909206	0.7570321540792782	3.402496090881569	6.664294702870318	5.458004937696913	6.594721777478346	11.106672258945652	8.734395005108418	7.835696200614718
112	-13.818979228416095	-11.89039418079507	-14.012983286764173	-5.317204938815339	-4.839384066761222	-5.3604001863564275	-5.862542137603289	-6.451348765297603	-3.6476833728247864	-3.407814017275003	-4.018246163713546	-4.441675651780232	-4.728379237634744	-1.7546827748819855	-2.0371811338489216	-2.5593213970417525	-3.058291665938834	-2.7960245538690613	-0.0005411905572124442	-0.11419292510527197	-1.4432696067610629	-1.2187234132514493	-0.31743889966927746	3.1093835752184087	2.1490201895815697	1.4252172672528076	0.6181338413844609	3.2776033795574886	6.359387381710204	5.067707525810005	6.193576320269705	10.936320277259052	8.349480607886873	7.457647304779649
116	-13.044939008202391	-11.763853043419243	-13.387671436841469	-5.291320310584792	-5.265141473828377	-5.4934363226477405	-5.975519165211116	-6.337597830983967	-3.780616035453031	-3.7456347847784106	-4.184391964838258	-4.5335917358377165	-4.659863937056996	-2.0371634908741125	-2.329190248330786	-2.7383398940568155	-3.1234943787869085	-2.780771963728127	-0.27573370863916646	-0.5032528626133809	-1.6202360350709795	-1.3432047333183288	-0.4432685364022168	2.5868997508539597	1.6579391914470405	1.0838534804636062	0.35118803293253403	2.95864319054345	5.71902082906672	4.428616035724337	5.472393975746522	10.181969616932157	7.6047577665969515	6.736445886770185
120	-11.608774155871327	-11.688593834930055	-12.432142226302288	-5.050038324957399	-5.533027158119072	-5.33534048640749	-5.810056671732384	-6.004791244604984	-3.798843374197905	-3.983970393612706	-4.196499813928782	-4.4513611681132	-4.394034374587282	-2.282819742161239	-2.5552852089263327	-2.8663334774128617	-3.065919868357929	-2.6675331525211075	-0.4924133705581521	-0.891628322734359	-1.7746946766869292	-1.412406321774288	-0.5913773760169865	1.931190962684026	1.1181259127043472	0.7344195824200608	0.08519901313728727	2.4641287264599474	5.056214796652009	3.821582784540884	4.663865554478534	9.156546569594344	6.764544946757836	5.919234260873242
124	-10.051854108227465	-11.738543480800038	-11.405071229749884	-4.619265067835768	-5.462266431369015	-4.850011336479263	-5.318498598022277	-5.50971935788495	-3.634736051919365	-3.965789308072061	-3.9642290968943596	-4.133096207674066	-3.9863154787508286	-2.381222480483963	-2.5905291968744595	-2.8163063455048665	-2.845040791004218	-2.5039286550246236	-0.5595723972497827	-1.125398394604321	-1.7823238327803383	-1.361926075357854	-0.780384657796869	1.3295513357926807	0.7189768534627731	0.5344648347712114	-0.09912846212393504	1.7915503933496948	4.605357158477571	3.4285039815171996	3.9284720321653017	8.157083490757882	6.021919712121553	5.180828081402089
128	-8.83277413999187	-11.823397606562365	-10.51312348572498	-4.075608243189082	-4.9736466282203375	-4.0895900623066135	-4.556688774048445	-4.957453238368643	-3.282971135433829	-3.6133043674794565	-3.462004652819337	-3.5928227810748683	-3.543738117807682	-2.2923188151658205	-2.382358306591935	-2.5185551579784176	-2.4817764696404887	-2.3677751958194277	-0.47415590166542027	-1.136925336828331	-1.5853763778713938	-1.2011676996422087	-1.0508365604572443	0.877850649524668	0.5374016152165251	0.536010263997046	-0.20793387241317357	0.9216364598847006	4.419543255138112	3.2644481576516156	3.303580752615071	7.3491864018857616	5.436140523537027	4.569011199859619
132	-8.167946794868639	-11.727813691093242	-9.8548669566252	-3.5325579554060997	-4.138311852497323	-3.1899912276790787	-3.6740705874188095	-4.45793198413665	-2.8125154901067226	-2.9711377545683004	-2.75149964591568	-2.923998825320249	-3.1770698943987137	-2.0692136235446585	-1.9767043540638667	-1.9957809397853563	-2.0546829648594214	-2.3330841005548413	-0.32345497526520284	-0.9721731518995942	-1.2172158925795964	-1.0113863919472272	-1.4442491494908285	0.5443834648693078	0.5120192157215885	0.671865103932671	-0.3253337136637798	-0.15913450677748425	4.363173473786292	3.1944715896062434	2.7158765724277387	6.722182256892867	4.93671511357359	4.014368523952829
136	-7.993447283590458	-11.21288773566723	-9.396615004657175	-3.0990185659367167	-3.140498630224079	-2.315727466458648	-2.8429491448150412	-4.067924966078354	-2.3323845804455234	-2.1825199072093935	-1.9534239719662718	-2.2529342117648907	-2.9398095533534514	-1.8211036874569038	-1.4890240393237666	-1.347836133414973	-1.6608635145216275	-2.42683815343398	-0.23212389589355012	-0.7550431470881451	-0.776603696769733	-0.9019699073907137	-1.9715743015102905	0.2089792335717663	0.49346065396653394	0.8038292506904053	-0.5592461810297505	-1.4257930481198842	4.202067364573905	3.022884361264435	2.0468895383654258	6.131247504966866	4.386499393832381	3.394178381933453
140	-8.04452226515096	-10.138707135351932	-8.989546753121447	-2.8266134190719834	-2.1759586279290843	-1.5799514015362137	-2.1639370863639766	-3.7483246231810434	-1.930723304642299	-1.4125536644558006	-1.1837296456014579	-1.6671782689917682	-2.787839882487748	-1.6393283564186498	-1.0376038525133588	-0.6957668644504803	-1.3609105314227348	-2.600320332637703	-0.28550270127693195	-0.6102019533010019	-0.3679214110622071	-0.9461205577804952	-2.586280577805596	-0.24843725499371264	0.34111854347889214	0.8053252080612012	-0.9692047213879847	-2.7882609296973784	3.7419888878759946	2.6071612769105927	1.2168520658288058	5.39920900889028	3.669288149152686	2.615637295794832
144	-7.995744208175724	-8.547194459316405	-8.428132035910954	-2.6759331158788062	-1.3482218946749853	-0.9877423023081313	-1.6081812341141712	-3.3719208155376217	-1.625962253280094	-0.7640854100963215	-0.4936651276999197	-1.1645610303086673	-2.5895123416371586	-1.5348578652731109	-0.679504452420311	-0.119070104954027	-1.141222593287208	-2.735690348393949	-0.4742929327434129	-0.5898727163680754	-0.04334454600000348	-1.1322939367316867	-3.180941096857812	-0.8630173184540253	0.010683470378665048	0.6328728779073071	-1.5163859090666962	-4.089622964070447	2.9411625787864364	1.9375773619370058	0.2442280345949466	4.422898281374759	2.7587308814015734	1.676831002770193
148	-7.593200664422762	-6.663019640312502	-7.534743289997598	-2.52755355196815	-0.6246082170929071	-0.43888932355698057	-1.0360819075175065	-2.7898616720334246	-1.360210057639103	-0.23360998869566052	0.1499205078869824	-0.65666204525142	-2.191341871451036	-1.428073641032522	-0.3847124268832325	0.3787504126999819	-0.918186721867745	-2.692268364784707	-0.6947694999319718	-0.6444942934930475	0.22080290261788027	-1.3602403367985725	-3.615679254939891	-1.553822632681284	-0.4160199452863968	0.34895417006128193	-2.065362686664733	-5.138159738919484	1.938288922184538	1.1439304322925175	-0.7481836657707773	3.2310061373197887	1.7372496084220939	0.6772745830602487
152	-6.7227959463139255	-4.806510436320538	-6.237712844358711	-2.2332067433240974	0.1264092770007554	0.21174339896624617	-0.28293594646544973	-1.9196602057627599	-1.0342560980433564	0.27250558069092634	0.8345817902474673	-0.025085246127094576	-1.5033314190102391	-1.1962548464136458	-0.05985678344753757	0.8606008865562871	-0.5829339608733565	-2.3714694916932793	-0.8041349033080419	-0.6504548771648272	0.5034473525687919	-1.484845276898404	-3.7692782783710603	-2.162786716722716	-0.7728198151150102	0.08714094736032778	-2.4384174285359705	-5.764708981264601	0.9843665932597999	0.43025630603879883	-1.5814229210027133	1.9686871717339494	0.7602998595115492	-0.2231846297112856
156	-5.409937844922763	-3.2627370275137237	-4.613358962809175	-1.6857391553279633	1.039052245377744	1.0657258006845451	0.731949685156094	-0.8131782391998215	-0.5671315178857576	0.8731760360606707	1.638469811117473	0.7982788661829344	-0.5626882300475494	-0.7509137373085318	0.39382317562808283	1.4091008866019692	-0.06475071592672249	-1.7703654721385331	-0.6987876874447151	-0.4777205872395349	0.887240169192429	-1.3865177596371965	-3.591221561901665	-2.5397176678432003	-0.8976120926128978	-0.019115231882948242	-2.4964170392904146	-5.883557781623716	0.31800609746752806	-0.025380922417336988	-2.097480053374416	0.8241621235066541	-0.012196183173858476	-0.8736444093581331
160	-3.78271054266515	-2.171792024851225	-2.8711564468373307	-0.8730810262571386	2.153933996484447	2.1139380878482443	1.9369329165193214	0.3387209466488554	0.05611493424314626	1.6387245613685997	2.5712821418693426	1.77543186693165	0.4622329461825223	-0.09727153902529082	1.0238608096021948	2.0724146313795946	0.6241431220508991	-0.9938458179177214	-0.3718001237065281	-0.05724422246666112	1.4083884918894123	-1.0288246844065567	-3.1278440873330555	-2.6234214239642664	-0.7157356720973601	0.09760815625580996	-2.2026483956992235	-5.527339921347543	0.053830899162281114	-0.15117387435415486	-2.225269312008688	-0.057452004257823534	-0.48043417809305056	-1.1930950849927904
164	-2.0324232526963835	-1.4907004795584866	-1.2822611299565716	0.11021842779703879	3.3792993937050277	3.2325150885031126	3.125895492290978	1.2790431944025622	0.7729750256096134	2.5501055653084284	3.557366600591877	2.767871134445513	1.3386704887924232	0.6597859842808558	1.802442188480582	2.8351516652052116	1.3911241257830984	-0.2145685846156608	0.08310546705006275	0.5881462082318705	2.0381209798853672	-0.47017538428808	-2.5057868894254494	-2.4715237555092697	-0.2717704468064451	0.4145833839439697	-1.6343610245448996	-4.836411463924489	0.14412119948239666	-0.0005858701173325467	-2.002499336908897	-0.6251875742386612	-0.6335109456280167	-1.1930164068618856
168	-0.38371536038794707	-1.0482449505089535	-0.08076222220534335	1.097770092099918	4.530058372504352	4.243762482419075	4.055383672012117	1.801372285109565	1.4693613015270357	3.51054643698328	4.470388878026097	3.6026790051100424	1.8741279793152177	1.3628458942337054	2.6444730691900467	3.628754368203388	2.112635607153901	0.40116754072947414	0.5208700882158742	1.3621158565463396	2.704122536507708	0.17594021514340963	-1.8787867975483894	-2.223614210236744	0.3048736445359016	0.847064433343393	-0.9364770627219875	-4.004957665822292	0.4307136226746834	0.2960363022959457	-1.5447815617660001	-0.9148739553241375	-0.5321551547919965	-0.9538429951427423
172	0.9337506270675551	-0.6535533054063635	0.6198683961476903	1.9146299313842858	5.419042096761349	5.005169378995242	4.5674252394754395	1.8502914858832726	2.027758831626617	4.397778976781197	5.198051916350058	4.1624488725474675	2.0059571215528766	1.8746656132097343	3.453088990076344	4.371632564951458	2.703118555873646	0.7653652410257074	0.8182865956627542	2.1476614421027005	3.3362767612147723	0.808567045077705	-1.3624966110162036	-2.020980353021294	0.8777021743549074	1.3088771071766652	-0.2433894419485577	-3.2064738192664923	0.7531509380398829	0.616833983294481	-0.9810595487620765	-0.995773730148114	-0.26009809905187253	-0.5719863161904559
176	1.7243968204830475	-0.19777406702176376	0.8591222145324325	2.4360170302876365	5.944687351476703	5.4740533690528785	4.667569625514104	1.5504661759331666	2.3690392911226326	5.121355520669674	5.696321949882085	4.445615280371359	1.8271754933955533	2.1348564570886435	4.161804665548361	5.010843264326376	3.161668769483374	0.9002197958152373	0.9301226711631712	2.860591404368277	3.905858745250349	1.393530961333052	-0.9906858776829321	-1.9296666335023887	1.3769950831933435	1.7667709544397838	0.3865039040820786	-2.5336549218105335	1.0484739515536023	0.9207035875916761	-0.3915476789125602	-0.9094141698764964	0.12549471823479202	-0.10874486687146077
180	1.883322472585766	0.30058932228490814	0.7960773090290689	2.6204175882937495	6.12727259042612	5.711448655013572	4.5135044937619675	1.1462057799964285	2.4692315992955747	5.653769955665789	6.0013232079621295	4.561810958788931	1.5357241591780892	2.1718223040106945	4.751656043453661	5.540225491841133	3.5684270768670525	0.9164699888932585	0.9005278922233033	3.476098051831606	4.434273708592133	1.9732041309129138	-0.7130230051158362	-1.9092401217894344	1.8289248897152943	2.256939643883684	0.9886525248361983	-1.9787716815580367	1.385897156077362	1.2669119802913449	0.22016996089660842	-0.6399997456604621	0.6173447354942718	0.4321717012938201
184	1.4493910037640403	0.728854237146789	0.6281340106364041	2.5090506013465306	6.080533489134213	5.825945362640756	4.321977127607344	0.8801463224123961	2.3550960958148184	6.022016510064424	6.193789943316041	4.664728629732702	1.3339600529370064	2.0702004380410686	5.237960802205108	5.985879406121238	4.031694402052396	0.9509484743904677	0.8282007554125036	4.017933835375712	4.9667539471159134	2.6269044809775672	-0.4333146501568249	-1.8431293917851443	2.3253810347020973	2.8541927265585043	1.6543539720728526	-1.4613131247819136	1.9167333792930987	1.7718012288182579	0.9079368687594681	-0.13504376973389162	1.2436605660510378	1.0877563925936449
188	0.6213555320310816	0.9652152037093061	0.5031052815132896	2.1984023992347237	5.942020401257606	5.896504387273402	4.250931252237401	0.8769220687660566	2.086130136944942	6.270958884619011	6.34071825333937	4.863032805562598	1.332661029312051	1.919326658171439	5.639904007977408	6.371920569544772	4.6169485929270655	1.0974737378068429	0.8090867379741896	4.522457111384628	5.529215798723177	3.4071648034857485	-0.0660003571036059	-1.6107741553646437	2.9550726339118394	3.613403072770955	2.4610145029875854	-0.8855531193309658	2.7703671385438255	2.5287415917448137	1.730705733698015	0.6383109672643047	2.027613873130889	1.8920798253926354
192	-0.2846017770734265	0.9601880287723525	0.46645837904462634	1.8028552486678326	5.807125076891153	5.9257931559677655	4.325678814457129	1.096011635874194	1.73676394977769	6.427911265356777	6.45395372668629	5.1628403533286065	1.5122019014326065	1.775556917476073	5.957599624851085	6.693391783027568	5.3010415897045355	1.36971938264256	0.8898105598872333	5.004478918791907	6.098422035079039	4.292967785486982	0.4209685314994125	-1.1593285769756256	3.7390444184315244	4.520588863403505	3.413802376711178	-0.19591754625447075	3.9584805865481556	3.538875332480604	2.6997530392195452	1.639841433199581	2.9481129571868574	2.8341491150826204
196	-0.9364216900071309	0.7681051473298249	0.4672532963876664	1.4220267498353256	5.702609524634277	5.854144081594218	4.450310695856331	1.3732230628629012	1.385400410969058	6.491817934812127	6.493089182672688	5.475708470824824	1.7564096406460583	1.6559482771072795	6.171713813458448	6.916738969505907	5.980386718909764	1.7120382742572309	1.0547912094188174	5.44583176191588	6.606648428449211	5.190106855640137	0.9985877250255002	-0.5355390296766415	4.608341682243229	5.484498486976947	4.43336676431952	0.5982063993609509	5.343717084744496	4.693070399833265	3.756624927572929	2.742781632174263	3.927582730867498	3.8434367082833156
200	-1.111234542902105	0.5112752305473804	0.4159755994307959	1.1236820192577022	5.609471306943403	5.624982342823431	4.493802536109073	1.5272338351791395	1.1071808310211655	6.4519014195625655	6.410655959156446	5.685976967760987	1.936187381624353	1.5570678671625315	6.264319880882111	7.008636456914269	6.529078467097205	2.047025675373749	1.248116728492485	5.810856327644672	6.979680520555491	5.979012951060449	1.6043140847709074	0.1368707862020953	5.435148702250469	6.374585135578083	5.395549283710311	1.4371844493820172	6.691423399243475	5.814933762174173	4.793105113325819	3.772231807721514	4.85460280146401	4.811456191312934
204	-0.781945107393149	0.3061295143981483	0.2576475732974089	0.937598524110605	5.507839188974902	5.255475507818846	4.392437446948492	1.4687857590785376	0.9618811583075675	6.317326529765616	6.2073068462054986	5.733610138722268	1.9915019223477344	1.4795728884534634	6.243147834274188	6.972661477604462	6.87228964024191	2.3287863672588074	1.4103525841390923	6.0743794287859805	7.1842393693737465	6.580726130083262	2.184269422738424	0.7173086386690113	6.096665366992654	7.083071690796162	6.197783931343067	2.2516214790716718	7.775311927238121	6.740199072032926	5.700078949842083	4.5761527899599965	5.628865227792876	5.636735425069149
208	-0.12606961993336038	0.20318233915528783	0.017204880670978355	0.8568519928279592	5.406311975180941	4.857762801303443	4.1988229645576824	1.2461940018661748	0.974262771530854	6.1321987950950785	5.954784855113319	5.657268986723849	1.9615720460957855	1.4361747467020713	6.149900420874361	6.865089399171222	7.028856259719664	2.567704671098956	1.5073949060528973	6.241938098406881	7.253146153257391	6.998903256865601	2.721636526865711	1.1120473118362102	6.534221155835441	7.574524383494572	6.810325128527017	3.0001642628263143	8.479138352920847	7.388377170982372	6.415769560828106	5.089759813809748	6.202475055293625	6.26708172169545
212	0.5519807920824872	0.1719521875808466	-0.21034422463716004	0.8476412870940728	5.338831888071038	4.590786922308303	4.0464725392221155	1.0025562022646264	1.1187527151472227	5.964253410539852	5.767586693507091	5.570254311803159	1.9470455597356717	1.4382855855868175	6.04743097685817	6.776018125592394	7.097362023554272	2.8127114701782494	1.5394154748197093	6.351029856859478	7.272147160289496	7.312095623628577	3.234382144391343	1.310808774499669	6.777364236886603	7.896399954886505	7.282914143294538	3.682188501598143	8.842514015760736	7.7902345460664115	6.94715116654216	5.359470353900279	6.59562538389086	6.716884596078606
216	0.9556557511997195	0.13665580715009445	-0.31778186479444914	0.8649268128492287	5.333673940543777	4.568880546478601	4.053814400928433	0.8749580957256661	1.320999499800478	5.872885689212916	5.737955555734002	5.584835992064195	2.03091740095458	1.478094216429609	5.993632778294046	6.78467271999193	7.194763642265876	3.1052093427460377	1.5312786063633854	6.454478247558989	7.335671406344932	7.6218848036020495	3.7465476895154857	1.3818104232233002	6.923446160956258	8.146935442382626	7.705628375625725	4.320910919724294	9.029947258085365	8.059819201147494	7.355207424667191	5.514359937096867	6.879547578608595	7.051700097400026
220	0.9252615547661425	0.040591690586841166	-0.2541567378779845	0.8753475524736452	5.381976590873485	4.785145747501188	4.232460488123879	0.8989298917009096	1.4870485029823188	5.878787979542253	5.876113399928644	5.735071644608471	2.2107295934174678	1.5262021979899716	6.019845470488607	6.916808587730829	7.386689644283751	3.437242737674946	1.518096562367431	6.599028093843206	7.498804073474567	7.990500429960203	4.255479325040859	1.4354251586912685	7.0891423046419195	8.421935060218592	8.15085027544159	4.932210432951418	9.245345092319369	8.331033685631201	7.716325263568689	5.702810273077374	7.138668995953644	7.351527672326628
224	0.5009930121170723	-0.10663179281254101	-0.06244702621429229	0.8786175824870567	5.435214505778135	5.103933321464393	4.464576233082276	0.9781857704261313	1.5518563946643977	5.957740768649557	6.097844585281913	5.949959263084486	2.385031455694073	1.5524691304111418	6.127916797425226	7.132530671231593	7.652010898344104	3.741453161330106	1.5386674365296669	6.813166601145576	7.754693965406632	8.40647886061162	4.718526351459669	1.579357858485039	7.36270950365826	8.771953560616618	8.632690407892053	5.502376065667162	9.639885878066412	8.695261933307805	8.083821276282208	6.029281124151308	7.433906536406972	7.6744236752345385
228	-0.09881391351308828	-0.22905090393410746	0.13832451368217438	0.9182735062303188	5.439750180815512	5.3372487887098	4.571554649255053	0.9430453753503626	1.5241869649552036	6.066452011050869	6.2746696313747785	6.098829254011116	2.408889526007372	1.5609538515734966	6.307601435948617	7.355998497510653	7.904859046051671	3.9245421787358925	1.6376697975773173	7.110100251366349	8.051595667537885	8.800252892210208	5.0719447007871	1.886684412961189	7.780829409981759	9.193154311811488	9.108606315503957	5.992096408974194	10.259385083045297	9.172406173436139	8.471533753941022	6.522288782818692	7.786152820002498	8.039784411159015
232	-0.5764619097460506	-0.23218281508476185	0.2191239887904083	1.0745992633391437	5.38575934003996	5.363053308297971	4.433702934515205	0.6598225815326555	1.5012245140320382	6.183370097761294	6.319005950232567	6.081898673914702	2.1850142423776564	1.6140458543081047	6.559681875833415	7.529602508607989	8.058695772805605	3.924672593698332	1.867204303795589	7.498323421620311	8.33671472351969	9.098042465127795	5.270991788907601	2.3845393597480493	8.334185579238966	9.651120161485315	9.518980955886317	6.364693625593291	11.049389811275336	9.723720525987074	8.864403702289943	7.143003445710767	8.184031465848538	8.436088540712642
236	-0.6798118931772862	-0.06168896689337219	0.11595293105175612	1.436083909223663	5.334591375233844	5.211671816065427	4.084452618777104	0.12183396487470319	1.6363002020531263	6.335040076473823	6.250092013791567	5.906939014780016	1.7329107479212686	1.820537324123678	6.904723149986683	7.656513194780491	8.088440874659216	3.7557985687798494	2.2762298526515097	7.985855082376717	8.595435120815702	9.276038146441095	5.324475751785262	3.057230226427354	8.98730085011198	10.11470982858879	9.83431908985579	6.618287546614405	11.901055305951258	10.288286183131019	9.241654372724195	7.818773726749972	8.603260972236374	8.840538956256445
240	-0.29911282583058235	0.2567254894450616	-0.13178932633504958	2.0602288194139007	5.401465402317201	5.062665449711895	3.7148640062000937	-0.5339272008766949	2.0698599763109713	6.588780386502136	6.196267589183809	5.701187119394949	1.1935287683870812	2.2869095744568213	7.370100956428905	7.803558329907284	8.051394442257632	3.5125591666229736	2.8861789630500128	8.572540261559542	8.86056802419904	9.379844641845512	5.30133961292766	3.854532470508109	9.695847486811843	10.576147052765569	10.078332875555633	6.799001676559757	12.705504385341118	10.817519160615635	9.594727491949959	8.477656343036893	9.022455192674592	9.235437369871239
244	0.4995962964795769	0.6240966900327363	-0.40337571399889294	2.9409961626186436	5.6956167077268836	5.145263182047301	3.5761034398390046	-1.1001472445368483	2.8539996075099197	7.010702592315547	6.324444754845301	5.644302353913569	0.7612400631758625	3.0527567786389658	7.961427668497961	8.05843923441514	8.051441172299018	3.3273572837745236	3.6635324862491268	9.233845687441175	9.184307075200525	9.495352721082691	5.300540910689686	4.698580253182391	10.410573933066413	11.044145556222658	10.311029408171255	6.98291109229416	13.386192287980457	11.287729234806887	9.927579854696013	9.064941383363223	9.425392127082079	9.610819792324367
248	1.5154331884270118	0.9190987325351506	-0.56790816640522	3.99804877225453	6.251042350245467	5.596111283478599	3.8329057596709877	-1.4193958008215826	3.910102595947642	7.612994174809799	6.7343640157427265	5.859542831885764	0.5818120822522266	4.04736327103139	8.637187935956868	8.465566613758336	8.169066408513274	3.3036999619043206	4.508607852996742	9.909030889288742	9.591106390579705	9.68988892969798	5.400340066626683	5.491416440450692	11.071251841249437	11.517445535191264	10.583497020703556	7.235468369335958	13.8997306472796	11.688749283843237	10.241024945152198	9.539063429590497	9.791317915037599	9.954110120437136
252	2.5014686521316642	1.0584433052042745	-0.562511442671592	5.095014559279879	6.989499551292419	6.359609587825365	4.454145897110076	-1.4808837137980544	5.047445284497637	8.32467458530546	7.381362419565756	6.3284277756177145	0.6705466491935681	5.097559439186784	9.30711267028842	8.981763817044905	8.402618386988554	3.4603476436987646	5.275560842545968	10.508074733906673	10.044851277739774	9.962802861809232	5.615177617201213	6.130514606256558	11.605370492244667	11.962329834299974	10.895915003923564	7.571804504351049	14.219678842882942	12.00516793081047	10.516305896910794	9.861393903630205	10.086093877122952	10.239115689175573
256	3.2580139554736465	1.0341035101531166	-0.42926150452000916	6.080059513000156	7.743688086985932	7.196390610645557	5.211038576320932	-1.430705901348447	6.036138042468957	9.00903127303075	8.079269388781492	6.885157567760691	0.9024243928059785	5.989968284742506	9.860754941839827	9.483480429547724	8.661651589459558	3.7207226659295647	5.821505055034779	10.940446826015723	10.455659839935004	10.24032399453141	5.8864493221437595	6.535175306986597	11.943203895932735	12.315605132480306	11.189429254891497	7.943521956415482	14.32596584517807	12.210354774164493	10.714636775621482	9.996953938993515	10.267114613360254	10.428077671425541
260	3.6876976396915335	0.9065050459862887	-0.28820031808568813	6.82961891357352	8.331809976522795	7.800771693561781	5.78847645251807	-1.4871523342732553	6.69851301409374	9.521120047372616	8.587071397081935	7.297627907448064	1.0798840495501663	6.55798242820587	10.212813351595496	9.824839567174646	8.818604447034481	3.9529826541279545	6.06338022608548	11.153010340188525	10.72497555885954	10.420145008481702	6.113853915991005	6.676370603871324	12.046361892803633	12.515912978043913	11.37989041316307	8.262354829908602	14.213713610048881	12.281302421080094	10.797516795553832	9.93202493067356	10.304055187912985	10.49011895392271
264	3.7981150054405886	0.767683086841236	-0.26325422458940584	7.276996594176178	8.638760544900652	7.960813025402588	5.946484550721433	-1.8112838222549508	6.975321752103361	9.772251104477828	8.731623627551938	7.389058094442566	1.0382466290009937	6.746812326563348	10.3387670255939	9.913239454036418	8.786752678621246	4.037980546293117	6.013535961227193	11.155490847079234	10.8015136446038	10.43767068135005	6.20933578830853	6.594645483533226	11.933606117636653	12.544587103642904	11.413001031670783	8.448365190156744	13.915376628075059	12.224250762593766	10.75656411316211	9.698789572070527	10.20452592180685	10.426281902692281
268	3.6572570708444383	0.6935198885574108	-0.4066024114356621	7.4179124644869034	8.662734009805945	7.669005374619556	5.640828595224829	-2.4098980365944254	6.932537061354449	9.766805624144897	8.496909120087894	7.13067195999361	0.7296676021273404	6.6252574753382625	10.280664418013544	9.758139585653593	8.576059319778196	3.928193559265614	5.773193344799088	11.016826601823858	10.712738010062312	10.31162450094319	6.143807872519382	6.391800864294383	11.684679955545406	12.447806326909712	11.305583925313567	8.475872972069716	13.515051807613615	12.090021102898483	10.63251206574582	9.385568595078132	10.026080106217343	10.283562634253785
272	3.3347721015658616	0.7107814532454274	-0.668825565080024	7.299986344026582	8.502379395952989	7.119811993742953	5.0358242861444085	-3.127196780892429	6.7120423147492785	9.59114072285501	8.02882383226823	6.652564508808137	0.2421881550396262	6.339043601243988	10.12065598793657	9.464360213226369	8.291497209595766	3.667820921220599	5.4865894179103885	10.833011599846541	10.551425907198102	10.139715169101828	5.962399944510596	6.196042998882862	11.414692849903815	12.323137252212264	11.146367998591524	8.391855218680766	13.137843098849178	11.964772194218124	10.509438488175691	9.11962411485358	9.864430402645977	10.146999333512149
276	2.8651609348438005	0.7905467132636134	-0.9364039874276773	7.002696019612372	8.290986993837778	6.5926084351985255	4.401170719478932	-3.734124651064185	6.453004820743862	9.358496642326656	7.549556236279779	6.16408918731803	-0.25759714776805626	6.031079277070352	9.934673284243534	9.17039582798223	8.070166567454377	3.3630080138175704	5.276866422681832	10.68019768879437	10.421097729121387	10.042571996129318	5.759346470596987	6.112578376596032	11.226411791114042	12.27207371474353	11.051369639151197	8.294771173515723	12.910051313230449	11.935526817705046	10.482532474754853	9.023908592329125	9.818823789601943	10.10908601115914
280	2.2555353584563216	0.8642358162040922	-1.113566634227699	6.61773679969807	8.11915967798742	6.290104850146844	3.956165303732346	-4.061918725248791	6.229569419391478	9.144751525678812	7.232189637044431	5.832026466903967	-0.6215115769907096	5.777670368866154	9.754130338837543	8.968455291993058	7.9950699604357265	3.1208951394441056	5.197029577485451	10.578875514977918	10.372941944636034	10.089080785074394	5.627380833723137	6.18309734690749	11.164847345773872	12.344576804465264	11.099076243034656	8.285503366532287	12.907642331913289	12.048377960303426	10.615462276360155	9.16696355412615	9.950763677269315	10.230970356859713
284	1.5327829083844287	0.8549903013577449	-1.195996281465263	6.235397323124323	7.990464190336271	6.229626639850318	3.755384674127574	-4.099072922847857	6.037387832657451	8.953105903909252	7.110196572472064	5.690492138800613	-0.7980332354424352	5.573602662319607	9.557779288002717	8.855293251568314	8.040180185999324	2.9941968842250475	5.221211420228353	10.48964402411434	10.374276135001319	10.250335667479765	5.612307057516078	6.375509245988347	11.200102777813767	12.51014515579285	11.28521153461793	8.418889978133995	13.122185673961951	12.285537688708562	10.91162011252649	9.533472990761837	10.258714650002556	10.51690385070567
288	0.7890193442451002	0.7063333970356493	-1.2867263523040016	5.932927116673631	7.832635859741097	6.248797400910314	3.6783366110439033	-3.996905078333467	5.82901142556026	8.7251558083544	7.071619969633669	5.632307515229253	-0.8510382153958908	5.366686330597148	9.295421576873114	8.740964867457553	8.07993886814992	2.9590287133848836	5.275785909684071	10.341138813612814	10.327155087146656	10.409882519188765	5.695343956873081	6.606945974835178	11.247301073287865	12.672802893114111	11.522659272665894	8.680532433528098	13.464010204654103	12.575173346241462	11.31435009960784	10.031270955508436	10.681210490915836	10.914599391083422
292	0.1829718942790987	0.39616218109245327	-1.5395615061990404	5.759116158250157	7.5544037628178335	6.119210227775577	3.5239758402544274	-3.9792227644590437	5.5701479771171485	8.389958360470223	6.939107877377897	5.48489521549157	-0.9106937623873037	5.115101324518472	8.928513504374175	8.51018140551581	7.960324267316664	2.9362683222069963	5.289842592235251	10.075084660842153	10.128020260989265	10.426392528912706	5.810673222176384	6.788121683148505	11.214104624091892	12.72357174521982	11.68747612863405	8.999239898848927	13.803281749207681	12.829162565265728	11.735550850802712	10.532696697345486	11.12656781248429	11.340903253532499
296	-0.11560264945645672	-0.05705835655826923	-2.060464615388037	5.7190003250689685	7.110701066184168	5.6965846871555925	3.1476442734402914	-4.211196411944655	5.277628408458717	7.9186486997949315	6.584688170020768	5.1220378746413395	-1.0903302403578374	4.829590785230772	8.461719491575666	8.09751222473397	7.589554767520345	2.840797893981239	5.234414087431348	9.682047819488284	9.731986974940813	10.211873028721893	5.884534820958407	6.865023595643556	11.04887768816872	12.599362341541719	11.683302849835991	9.284643149776302	14.026838267197942	12.985871282216268	12.094651191692945	10.927869769162712	11.511198968434575	11.71686074159697
300	-0.01731146122614826	-0.5950860366101925	-2.8249833512507814	5.76649521325472	6.5363216235120225	5.0160293452459	2.555385106310724	-4.706335532703827	5.015158163760062	7.351087551630718	6.010662063681959	4.544009674043836	-1.4204934799569948	4.573264110462896	7.947352389297657	7.532245140132079	6.9958143057625595	2.6296801500684595	5.129950987261742	9.209388709658684	9.1846256024214	9.781178449731168	5.873223766757229	6.8370742625232035	10.764050456526999	12.315249411961183	11.488347024522543	9.468785262043323	14.081762278289741	13.03368374394858	12.346881835282199	11.162982912490005	11.78683277968935	11.99374100518014
304	0.4104574312337447	-1.1348456115680787	-3.6651022341699684	5.814498886686989	5.932374462408669	4.276112068824216	1.901644821134172	-5.323061929614759	4.8500733253096735	6.780931932495271	5.351254449685182	3.8813698193783397	-1.83626222146862	4.420938480659492	7.462998371355495	6.928874475151537	6.320011599796678	2.3236660898669497	5.021944987015632	8.740262963162449	8.604787804813085	9.246686912079165	5.780196175286779	6.745871050015432	10.425267193222188	11.954215019562161	11.161499948931738	9.530488943833337	13.986015284512925	13.004697766848912	12.488925902306384	11.247346849654937	11.946003883718634	12.159665077026848
308	0.936388788243298	-1.5926819999537791	-4.33860396243475	5.76752804253678	5.416459069881884	3.725478162896318	1.3966251576448199	-5.851086124906383	4.802153575217036	6.310553534787599	4.79770516137939	3.3233387386339124	-2.220950597877746	4.407384861308946	7.077362042678254	6.43062017724569	5.7484068725411115	1.9936135956975056	4.946093546777451	8.357209184527516	8.129512766340188	8.763212181854508	5.647317395257275	6.646404726414021	10.115789387912235	11.622637719373921	10.808331462274575	9.49481103407234	13.805343593074545	12.946480718350877	12.544650999821942	11.231524439111388	12.009085624892375	12.229260413765198
312	1.2480940787275274	-1.9091288995225641	-4.645909297657414	5.567416653881857	5.067726122459128	3.5216231257217934	1.1822409599973063	-6.134459480056412	4.823103415709797	6.004204258064719	4.493606079200389	3.0151204986741735	-2.477605813446795	4.500792491993525	6.824625951702581	6.140165313477065	5.423165307657921	1.721660252039029	4.906167494784748	8.110482195404348	7.852447966777258	8.454428651445147	5.527883038869365	6.578250868401279	9.89683530216133	11.397570581270287	10.527605983857361	9.411686873515606	13.612150157893367	12.889843908191136	12.541853873058985	11.171775789665071	12.002988785002984	12.225028007159674
316	1.1016257973514136	-2.0663931317610085	-4.529845703132331	5.227579580460078	4.900841223741067	3.6469392684412894	1.2530379263712954	-6.155221446709316	4.821751105532548	5.867587074724341	4.463774669821361	2.985759489150525	-2.581135743300153	4.6180872800579795	6.701612455614235	6.07857941046483	5.381782994987743	1.56261550985635	4.878709303936105	8.007723788071015	7.791236380933267	8.363417604311646	5.46066855005591	6.553156836177037	9.787110303964239	11.298235864724209	10.371340725462831	9.330717063234196	13.452271427523096	12.835653272646802	12.498209921753158	11.102492304427397	11.947533577318287	12.165538757126765
320	0.4609274852559477	-2.0912065453183555	-4.103338231217215	4.836949813074741	4.8777589674822055	3.930274953455916	1.4692305289367287	-6.028544887580901	4.722351539133117	5.8618678898632925	4.615249622136678	3.14656709830263	-2.5803608829200293	4.673401820781361	6.684473020843055	6.191349013909362	5.555529103557866	1.5263915023413002	4.839139449299681	8.025194147829152	7.897290209858622	8.450300195339848	5.458693013714463	6.5620150400426125	9.768304800166502	11.293950052357099	10.337111446984798	9.285573935906765	13.334739651391612	12.76639172191835	12.423328368292314	11.029610606003008	11.856126755344478	12.066321342521308
324	-0.4567281592281894	-2.0378608652162242	-3.5874733834290726	4.525753009813807	4.941399084966793	4.1544647111906725	1.646841521873619	-5.91926144059119	4.518865573918109	5.93643282345189	4.802061545645736	3.3532712374902247	-2.5533735687639227	4.629271972412553	6.748924238331698	6.389865382274123	5.819725498764858	1.5875413377734597	4.7891874192439134	8.12780759666676	8.093873003551751	8.629546143678798	5.514029012109909	6.591414911794557	9.806706403768278	11.336434335697103	10.388392422197123	9.290811515239245	13.243092503490676	12.66929146428997	12.328614203797558	10.941757174523156	11.743224114333144	11.946052521108648
328	-1.2621263233744116	-1.9563480566222804	-3.1958360591309964	4.4070596583678725	5.047831522594806	4.181977738312371	1.6665660100821813	-5.933441147128876	4.288721550603904	6.056939586605891	4.910825716971474	3.490288964042482	-2.5484170849354943	4.518447387731421	6.880226594720162	6.599726183441053	6.0626540030953695	1.710237856361691	4.764588820825794	8.284935930315457	8.316659906370615	8.8208131567457	5.610673413416198	6.6363296341237845	9.87543389688089	11.394014329753388	10.48570630287184	9.347006774191604	13.15726562992807	12.554681746256577	12.235543220145821	10.828334781010692	11.63050553246441	11.830857247046461
332	-1.5729550083501425	-1.8625765991869114	-3.0297071857253584	4.522763240839422	5.176110254570738	4.023772706363167	1.5375865659040389	-6.050315364820857	4.153666962627013	6.211106761509625	4.915484415995357	3.527980557117486	-2.5470685894555003	4.420883644386437	7.067271691598993	6.786679250748583	6.2337474665611055	1.8725565624643268	4.815875518084003	8.473061540192049	8.532600381289287	8.982839561671096	5.735536083999388	6.699663145316422	9.962319348932034	11.46425148930506	10.606938335341637	9.4465198278344	13.068665471460358	12.454271285084308	12.172030418182151	10.690595599839895	11.543242425384923	11.748889893432608
336	-1.2051827877134316	-1.7319353775166269	-3.0398383063815424	4.822459685547848	5.3147029742525635	3.8148090743071315	1.3791587317932275	-6.138212665319153	4.208725441797085	6.392391665531905	4.872622000789853	3.5211369902402327	-2.476717227404727	4.4127678759743105	7.288410168366111	6.949834329224595	6.3471331436124805	2.072669739258589	4.973012434801528	8.668202378322412	8.731508232959944	9.114628768796857	5.879355892596239	6.780709249542952	10.061517690051211	11.560177773852908	10.746513339566881	9.574855780269173	12.98047920764492	12.400732009096435	12.157517402471724	10.53993413171442	11.497701615868555	11.716587990743166
340	-0.27398934891189636	-1.519172664621489	-3.0721065920514157	5.191534506088192	5.44575069959919	3.7221314813099187	1.3408218588355143	-6.037411674515302	4.463329303916724	6.58215664155426	4.871940123655344	3.5608146100741385	-2.2595763149433115	4.522110450771489	7.506704788328887	7.098840218740969	6.451360686226528	2.3180646837836796	5.218506323036697	8.84197137507607	8.908113457123433	9.23525617175158	6.032010540037971	6.8649964159256065	10.162529919715613	11.68789383798358	10.903247805723899	9.711241697588406	12.900746312948765	12.40761658396919	12.19157120487598	10.390801403514283	11.49272057492654	11.730298966355521
344	0.8482496120971146	-1.1992744177103434	-2.9674527570190103	5.511364446076597	5.54307507069136	3.8440127275689706	1.5116324386578601	-5.661212906849389	4.830961215219988	6.747284872185935	4.976864802192925	3.7131345178316573	-1.8686338615922726	4.714674937742586	7.681564311660602	7.236016732066507	6.589856607965483	2.6077854567491046	5.486793027376427	8.967350937137446	9.052424407991994	9.361209845749983	6.1795554005053	6.924670678775432	10.2468499878621	11.833815544768484	11.069980593388877	9.833065008132882	12.835381475467312	12.463690726283671	12.255309073977752	10.255379650926503	11.512625665208317	11.770343750800317
348	1.70468270348265	-0.7973185161487379	-2.6554963521669763	5.718580708370809	5.5878033496922015	4.161878575307696	1.8744659376502408	-5.0518517366654665	5.173146711639988	6.857766134114027	5.193170057536699	3.9842131037256188	-1.3544849123135918	4.918332087496956	7.791114310621075	7.357701759835454	6.778722745946894	2.921133510843841	5.691221222813665	9.032232261741704	9.15763089728936	9.498155569891532	6.307360156347175	6.929771405843852	10.296181652776612	11.972571342758004	11.23494717622433	9.92484376308915	12.786889997623433	12.545780150209715	12.326143233649988	10.143199895045178	11.540573090980041	11.816299408643275
352	1.9658373544651435	-0.3894981434048106	-2.1905007307060895	5.830540642322757	5.591428742596866	4.567626464755693	2.329613679726201	-4.35961912961802	5.372038827684464	6.9128851716030395	5.480462060442949	4.329825390374394	-0.8257151225223559	5.068039881308433	7.850514868942783	7.471597175807661	7.0125031294203755	3.2221341051766608	5.764724240053624	9.051391578709932	9.238772368947291	9.650270437671542	6.408986552269792	6.864233476474408	10.306575749124882	12.090038269036134	11.393986673198281	9.987592671927308	12.758684126112614	12.641039816412079	12.39684578626689	10.063985799175839	11.574136704786904	11.864345520582516
356	1.5801010091942223	-0.06462567283288002	-1.7126612620028503	5.923923477475172	5.604906068002292	4.941289889257841	2.7657229830532315	-3.7585809135909396	5.392766462062064	6.954143983449554	5.791345104854577	4.6959657550505645	-0.39256292482445615	5.14044378890151	7.909962634143033	7.611521701668986	7.285771351539277	3.477650633614796	5.690253720222113	9.064940429688908	9.342914557710236	9.834232305493217	6.494058592612867	6.73494671074858	10.295852635138283	12.202266662307473	11.561502427475052	10.041178677956566	12.757639852738786	12.760444608896256	12.48393055624966	10.027152036146276	11.630508393487352	11.932971924217846
360	0.7931953648568103	0.13033445146556147	-1.3642373050578291	6.079394802003298	5.6981682633539865	5.223839269800576	3.127985707968684	-3.3566770468840916	5.295786844234404	7.048949223841298	6.105127319180762	5.057106482135598	-0.11275055230999394	5.156991468760854	8.027708986995167	7.830047110815748	7.6070604132281	3.6740269568189445	5.503633485250169	9.118701911791945	9.534268355139712	10.079748128237606	6.58541248566225	6.566379530540626	10.29497144007215	12.351424186039774	11.76616093525912	10.113458607888823	12.788110700745351	12.929498639841505	12.6151733079935	10.033777211605624	11.733508080422126	12.048935859777115
364	0.026605751298250137	0.22333231511950496	-1.2117892473143665	6.324137194879036	5.918736919718491	5.439099298096208	3.440403452770115	-3.1523725906890956	5.192034708265884	7.2508992965736105	6.4317469434476795	5.424944863927842	0.029158011005217633	5.156008707380279	8.232122400480538	8.166567781810597	7.990498999448732	3.8204028509958894	5.270010934875653	9.235923743771378	9.856380437761516	10.409839603844635	6.703487379315556	6.385043604942547	10.326217625295994	12.5758981387201	12.028651207118369	10.218659375140307	12.839076009759742	13.159144368326647	12.800785986052704	10.064705823282909	11.887948006179665	12.219270675326065
368	-0.3210279337407214	0.3067889205816336	-1.2166327207365861	6.6080698800142255	6.254726394120444	5.658159718533123	3.771741619124118	-3.056876174838282	5.174302564908554	7.5611347961260345	6.787290079146699	5.824053272801782	0.10110608462794472	5.157957540840934	8.497422196868825	8.610995270922901	8.43127248542695	3.937447537971498	5.050293432836393	9.399000144116485	10.294496510263778	10.813465091106828	6.847841245528246	6.20590971333549	10.383936855802123	12.874165502469001	12.336219756451696	10.339457485797235	12.876391378317873	13.418656315303279	13.008800473747733	10.076726888010858	12.060104339668351	12.409408538005193
372	-0.048183187720718224	0.4788596319983168	-1.2682923046515684	6.829472047729165	6.629169924211441	5.935332283293535	4.169714917145821	-2.9665725156271896	5.265556322154967	7.917245368041883	7.161781292953397	6.252541049429916	0.1723592426001512	5.150153623929485	8.751156784851254	9.089067436158755	8.883265472872203	4.036437501253067	4.87784718235625	9.554825758652262	10.764538737775766	11.230340929287717	6.987408620358978	6.0308236923542005	10.432767841701786	13.188148465238282	12.632197348172685	10.425657246016613	12.850084272366226	13.63244339362094	13.164097752713555	10.015200589643248	12.180213897470573	12.54487034491416
376	0.780041752276342	0.7713519911364772	-1.257134076759208	6.89479063200639	6.933839780467371	6.259684070041764	4.607669341851861	-2.837835304724803	5.413128362340244	8.219305017700398	7.504341106541641	6.656824095131611	0.2647151046268399	5.100530611512046	8.911417938621438	9.483707404034456	9.258792853821062	4.1033630267493795	4.756978976637243	9.642401670906741	11.140595407968892	11.56232258738509	7.067634564675469	5.859614834296471	10.426595661541587	13.420307125540809	12.831050840407444	10.413331005508184	12.717001882870685	13.708016360959434	13.176772084346595	9.840549444149142	12.16992661264547	12.540422407913672
380	1.8790270042662278	1.1082508536014717	-1.1391084165423626	6.777968389564521	7.086165410270773	6.554908259054695	4.981080996335113	-2.713327639404999	5.5292029241199385	8.380938508808425	7.739654044637719	6.942128163930331	0.339452206231436	4.991593348298317	8.933499313687758	9.685956930501364	9.458417868575845	4.102155675067857	4.679050910580331	9.6279287095175	11.310549707466556	11.711483925814646	7.03516386163245	5.705327019592016	10.338505718831865	13.4791478770402	12.855784383740994	10.258028004496477	12.468358962050694	13.583034481086994	12.988202062239681	9.555898642255512	11.982969253803528	12.344367949790499
384	2.882144920701799	1.3282879557452112	-0.9560869908035806	6.543170435598003	7.075010758657091	6.725114805408412	5.156906591746909	-2.6882080963928585	5.549318299587951	8.375308969332893	7.805892447790796	7.014466744832898	0.3254313758739977	4.846242892427499	8.83674523983536	9.646994566402958	9.41585919863935	3.9954333204483894	4.641428935730249	9.524944281371749	11.22901055361969	11.624870270942992	6.867041093654819	5.599078164269448	10.181364033742769	13.326795544356006	12.677028623999439	9.963078473685977	12.142903297284011	13.262687649620402	12.607740370390195	9.216024375535486	11.63439080161964	11.97170254545795
388	3.498146286715515	1.2687203852092646	-0.8041462877951653	6.318210109017535	6.964886170922433	6.712445242146943	5.044695364613222	-2.8423552441359985	5.471453176035762	8.246165254754164	7.687570552490164	6.828288061068335	0.16801615016955762	4.722728717324303	8.692872979151238	9.399318671337362	9.130761123492455	3.769803037662338	4.6544494511392696	9.385357833054737	10.935646029519054	11.319085092576842	6.586315138400449	5.577280030474386	10.00347802497558	12.998792615496633	12.329375235900129	9.584312414766782	11.813554733967587	12.822016683630938	12.115726440357998	8.907324768465756	11.198587389328823	11.503884286446207
392	3.60967277569175	0.8651635624976788	-0.7711878399451803	6.231391891005529	6.853272420746467	6.5282878710909	4.648770797436566	-3.179729930479034	5.352872358158881	8.075958231563291	7.421455364563408	6.41238592436204	-0.1304379251286303	4.68160151253312	8.580417611393168	9.03317830666119	8.669558503196917	3.450608960022791	4.731565463517812	9.265675521345187	10.527581188325197	10.869579287742496	6.253799422687237	5.6576332903117965	9.860150312324752	12.583058325469601	11.893837898742918	9.205901122692392	11.552055329720583	12.369027106527556	11.627849549499924	8.70641610808433	10.774887057756963	11.052158327808874
396	3.2890052712370754	0.213672965225527	-0.884122309836745	6.343761904912496	6.8053703136286385	6.23935602520173	4.070306767677565	-3.617392292426411	5.270141588256672	7.930745104793688	7.0719022572306125	5.857662662975716	-0.5061783181762157	4.744337546768037	8.532646157656359	8.641699769136395	8.131210306619105	3.094270459945897	4.872202384091694	9.18921182219742	10.101995442634562	10.369254086063803	5.938257679251725	5.819411263078395	9.77811906253186	12.169987647801566	11.454822511362556	8.898765541497621	11.39054963097063	11.98869892908203	11.238659830328725	8.639050461892108	10.438336346021222	10.702805492082017
400	2.732735388532025	-0.4517612147846293	-1.0962966652847903	6.61672638176239	6.809484464619228	5.921020969700518	3.459010115473382	-4.031551827742453	5.2713756428189855	7.817630271247489	6.692939264565576	5.274132238423598	-0.8694883563023725	4.873928057762874	8.512958505118174	8.26892755328068	7.597322444807863	2.760252230350979	5.052478777526921	9.129590965109179	9.704071974095765	9.8805713404104	5.6804799890151	6.004762634375565	9.737009977552644	11.804887741801968	11.056130381326676	8.683894135484943	11.30468556410978	11.70208546545019	10.976310702267948	8.664998032627377	10.204442952141532	10.475716564432705
404	2.154875988288099	-0.8655033685766854	-1.319594975954537	6.930722695972066	6.781092149780023	5.609932885311379	2.9413311407214358	-4.33059834340589	5.349980817638837	7.681066493668695	6.301249011343073	4.740826117943895	-1.1584712237673411	4.993396269588931	8.433959939643799	7.891467074497347	7.094866734711695	2.477565520707029	5.23165510764095	9.026518798926539	9.310571647025293	9.408058142750843	5.4701118331131235	6.1435022199017455	9.68052480160883	11.470952005035212	10.680747005199233	8.520067193454718	11.229682894011058	11.46464535679674	10.793619128632521	8.699820496528718	10.02767274232172	10.319310162239704
408	1.6929920869044999	-0.8665931798990071	-1.4796556197002029	7.1447610674714666	6.6150283646463155	5.286598192219029	2.5652248794639814	-4.510781276758345	5.455433831746373	7.440733890820886	5.877251610222401	4.276792515447254	-1.3782967294226622	5.034021841690952	8.21126268221045	7.4450335314655485	6.593451960129257	2.225901598078869	5.371716485766333	8.825754143366527	8.85828778891427	8.907689072053705	5.249541746237148	6.1890973888540115	9.552422499380986	11.113018007830998	10.267064068621613	8.32459829136034	11.101992579086863	11.205149622283447	10.601047489104069	8.663342454018276	9.834938978159888	10.145515416279567
412	1.367848750475652	-0.4938262986589854	-1.5600683649729492	7.16621587851349	6.257060988841111	4.89886234953952	2.2887306155594014	-4.661485183390793	5.530262456282791	7.049392682397307	5.3927588326675515	3.846566905800437	-1.603189106708257	4.982933031852897	7.821379641812973	6.879201394832614	6.037380680100097	1.9426349352427181	5.458066449690166	8.519296624609007	8.298785188703343	8.326474168735974	4.943012225068922	6.145107730609362	9.335623717579718	10.686039897641924	9.752092336828529	8.01632306936034	10.901764842165631	10.880429240412857	10.322114918397173	8.527314164566793	9.573692297606094	9.884314512092844
416	1.113128063252549	0.02357679227002411	-1.608997698536243	6.996667844273588	5.750527844215443	4.41145228225815	2.017496103915101	-4.914650427807765	5.546971783938358	6.534986956309582	4.846437441987555	3.3954145822629735	-1.9376912068082395	4.897129523310985	7.32797287044518	6.205726131030046	5.393270478937012	1.554832812198387	5.505741582321263	8.158799150848767	7.644133548510476	7.647721271279739	4.496485698791508	6.062808975171395	9.067543960566125	10.195111248979057	9.11605355822197	7.557346324913675	10.667200061568886	10.509000751665566	9.937596296015938	8.331298807090493	9.244270301367493	9.524559950623209
420	0.8526255466868965	0.381771652926729	-1.706558223230417	6.7314190694611	5.228269086989099	3.8471002481605407	1.666753883922039	-5.36646030978473	5.522294984226491	5.999616607777229	4.282273281729803	2.8917088435597327	-2.4574263033811663	4.871623980620254	6.8586592501090875	5.50927923718904	4.683927047347805	1.019755122471142	5.545545087164616	7.831930140748738	6.974426728759673	6.914438230223386	3.9076325794743862	6.009122833339165	8.819785095835211	9.70030496055547	8.402512529139699	6.9724211516773344	10.469512913020147	10.16100022611596	9.492901778095716	8.155637720497861	8.897056557126936	9.117423034536872
424	0.579664884534259	0.36635231879245655	-1.9115565966981365	6.514869196655784	4.851303565174732	3.2924554264865433	1.2116790979310998	-6.016956790991506	5.503531442098571	5.575581536521154	3.7786667251552184	2.3518042505014742	-3.1621763626369996	4.979115473573962	6.544665320085195	4.913933264723638	3.9887449640657398	0.353084891143077	5.5992693759694045	7.615649204099971	6.403358920142887	6.218050464189847	3.2319855608402652	6.023509964040146	8.654377915466691	9.28421304266069	7.704025249103894	6.338052256794587	10.363006565632798	9.911096547852864	9.067113853450511	8.066667536396318	8.597673394430657	8.742435433249739
428	0.3907552351622721	-0.024109106450007967	-2.21878885662649	6.474524958476394	4.7257432818308525	2.863927595537222	0.7019836288848578	-6.761985761736221	5.535451875062414	5.3624744279893735	3.413900366746941	1.8357169581795914	-3.9671347041105345	5.21753166788779	6.456381304652574	4.524016845725172	3.410149565669985	-0.37070551421031406	5.65945051671712	7.5333161163866995	6.021972641045981	5.658305153866008	2.5618121559313383	6.088932498817597	8.582517602232594	9.002246833960966	7.120896798275126	5.747275337967552	10.340408299088292	9.783689474199926	8.723170258432654	8.066707590717506	8.381832101640642	8.456890084849578
432	0.44993233567128105	-0.5669016823760838	-2.5507581169577818	6.662955744133464	4.846979605835062	2.653623335814283	0.23783017634903755	-7.436622124016082	5.631236062137476	5.381177888635512	3.2299246706477143	1.420109029999164	-4.731810080979353	5.5004472593671005	6.571217043498383	4.375006664674385	3.0269968433249748	-1.0426782343288552	5.688549981060155	7.5426029968564166	5.855256065844341	5.298619733784136	1.9910676429069973	6.1366944158112675	8.55313203559536	8.848751045774286	6.717321855751575	5.271092878384885	10.32366940752899	9.727437948463042	8.470759370398056	8.081246355634413	8.229262331212857	8.260463693743944
436	0.8946517087283127	-0.9286313033500114	-2.7879259515945867	7.034664613129071	5.099916922090989	2.6848280362054697	-0.07957535216983053	-7.889724711525672	5.7664627883280435	5.5668730595228775	3.21396493100295	1.1628367871489582	-5.314719663553058	5.698022828021102	6.788350088146708	4.420388210580315	2.8594105171489685	-1.5593795736996638	5.639214501448387	7.560096721635247	5.854817852497058	5.139862524407127	1.5818368156549887	6.083034023185516	8.47885988002116	8.760064102944	6.496593935776632	4.933871733606404	10.198363278389792	9.63709924172091	8.2632608205069	7.993304232443358	8.072736719730603	8.09576604706504
440	1.72838651697566	-0.8471742250987921	-2.821654312639191	7.462995033495395	5.312066064774357	2.8993689940683467	-0.1960687036332395	-8.04865835065077	5.890788540272452	5.799670204778627	3.305750600097996	1.0772176953775157	-5.625612721544984	5.703874573611796	6.978292924428623	4.558342445308918	2.8622779773925835	-1.8587595177451326	5.481721387374583	7.506078701141746	5.92811869078245	5.124052034792505	1.3467999662728136	5.875104412504434	8.283606508321744	8.65160367688727	6.405393584291803	4.712129580998524	9.873495077000532	9.411186194500758	8.028434733148119	7.706662158582099	7.836724261525208	7.8829951087289425
444	2.7672266890278285	-0.2802664928512788	-2.603813403231301	7.7885393899732795	5.333770261649492	3.184180013246729	-0.12582977084338978	-7.94035051248428	5.9488544313917195	5.955978855354445	3.4259967717456976	1.1293169231512512	-5.6500267839833445	5.488399968595514	7.039734345782287	4.6820101619766685	2.9505319520843143	-1.934761876943504	5.222135053801461	7.343618374403482	5.9858321992426955	5.164534555747425	1.254084226303041	5.519599423777974	7.9440073766413075	8.465929963671968	6.362644179492508	4.5538082007830125	9.332779860775375	9.01140210737535	7.712912540036045	7.202010136540793	7.482257824126693	7.567332248655553
448	3.6857037451195414	0.5646987543153921	-2.170217746977392	7.8804502288220375	5.104287134634887	3.421175709669857	0.0596560685320535	-7.663380603515593	5.89887236059506	5.953349575270751	3.508863440237651	1.255120751073068	-5.441200719447103	5.1067242493443095	6.933866006511005	4.724290359013476	3.039576999619507	-1.8293539239473042	4.8993372793478915	7.089571458083219	5.979279503031212	5.184059606815072	1.2473703591324918	5.0775208345010485	7.500531177657217	8.201808908735783	6.295517428715942	4.404564369525296	8.647736527544005	8.487702348260553	7.313214283598898	6.55353782906548	7.031248551736329	7.150762539929459
452	4.154640664101605	1.3363698687191912	-1.6284966427695446	7.683087329540058	4.6723952175429355	3.5342314154085885	0.26576957039489907	-7.332978230082201	5.718421921597529	5.770722851488675	3.522585859941775	1.3870667184141918	-5.089910971188517	4.659128177323746	6.683574182802111	4.675940024968068	3.0793280523755904	-1.6105050999988069	4.563798416059304	6.794608098995166	5.910433277466506	5.1420001853819555	1.2702113357899119	4.629977214567756	7.033729535464197	7.908626059591965	6.165650829007203	4.229578961184132	7.945745924915727	7.95455501455413	6.87714574984879	5.896541580571648	6.557360632553142	6.691718084606501
456	4.012337197664012	1.732939000522821	-1.118237015761928	7.235243302197855	4.169020165408074	3.513884058663696	0.4162816692809448	-7.0290818036949245	5.403843866056313	5.444216237627966	3.472813359075617	1.4790872298090598	-4.689026820741912	4.231579293057744	6.347580893702903	4.574068057909596	3.0677490156921783	-1.3475850786518129	4.25272225259909	6.5094938113849325	5.815252766232205	5.041235434202036	1.2839804855354215	4.237691868573317	6.622672064273012	7.65257404302652	5.976887211014547	4.022912968969098	7.352303486381066	7.532529811914808	6.4778461292748934	5.364830480382107	6.150119289129424	6.275257094752202
460	3.36644362553375	1.6672395425664426	-0.761516151889765	6.656302912119012	3.7492184544318383	3.4098148259857717	0.4802604603562913	-6.773735982958995	4.971522318685905	5.04750202811932	3.3906884107813755	1.5185133180426482	-4.309043873398053	3.85511707286259	5.990035041944487	4.473072040708532	3.039701930954641	-1.0953811379433518	3.9764931101538012	6.260420783449328	5.735218987289984	4.915444838511325	1.2736130920679443	3.9183604618325547	6.311077578823141	7.477017860608429	5.764673218477826	3.8031031989399575	6.93999431765276	7.289078217223067	6.177443965574107	5.0327606074106885	5.873526558351923	5.972340568722559
464	2.5597741539223233	1.306884285488276	-0.6232473238468315	6.102958663790729	3.5350751787578987	3.300824872266194	0.4763913440597549	-6.545211775467116	4.463681209738589	4.6714796902014974	3.3178751384890153	1.5248382053023752	-3.9906976122236513	3.50992511816771	5.6656994676595955	4.419825542735056	3.042990438407886	-0.888841626784211	3.726658334859891	6.051006778698507	5.698867783463305	4.809726702944498	1.2440612284722066	3.6569039729296806	6.102875217288254	7.384775143098399	5.578465924483843	3.6028661636941646	6.713842851854108	7.214882832431145	6.00421522531933	4.8952894087221255	5.7444476936265465	5.813658699616356
468	2.003715271659245	0.9697257851912957	-0.6947442871672955	5.714478478309145	3.5808734803390463	3.2584917463049594	0.4573239970581822	-6.31409214332969	3.9524862666475182	4.407291401226175	3.294951430584856	1.5388710459957056	-3.750893344945798	3.1682569900630537	5.421840654035778	4.443845737681735	3.115728132010862	-0.7451152782701319	3.4982352168452953	5.884404644414547	5.720245346885894	4.7645091890205755	1.2115969627308067	3.4379794510825095	5.984067424924641	7.349852066556933	5.4651632170977855	3.4571292313075985	6.634545309482293	7.245526295488543	5.95246456550736	4.89182614045084	5.738716110999416	5.788616165805071
472	1.9596457431907979	0.9310680008269221	-0.9033077336393196	5.568137154826083	3.863255252621096	3.318512669767923	0.48156458017836185	-6.075519069591209	3.5332202822171714	4.327584732573655	3.351835957647657	1.6049178798209578	-3.5922377018832305	2.841697685696497	5.302031503642466	4.5574030761096305	3.2722368157740407	-0.6681712252913318	3.3081998741549223	5.782321438495524	5.805054173118306	4.804399478226503	1.1931571930324896	3.2734367764796293	5.9482292978788935	7.3434715085591264	5.454575524863775	3.3901700887917174	6.656794531227877	7.307932835247974	5.996552452206352	4.952676760566982	5.8138460966190575	5.861684784395004
476	2.394596809063477	1.2591122357050193	-1.1414482564717578	5.659614071861971	4.2948799024865485	3.472724667364415	0.5887539371884659	-5.856682285780925	3.299831858886743	4.465794075181253	3.501423826914149	1.7540180638851288	-3.508203497612364	2.5969285899399677	5.340138421881216	4.7588305353178715	3.50154446671487	-0.6509065611617947	3.195752612628522	5.783631787002958	5.955143436655382	4.93303965276744	1.1985561817426134	3.2043402114074993	6.0056238022811055	7.35501525929292	5.550107465082784	3.4056775483930677	6.756153089631806	7.36178777743378	6.106312259515905	5.037884699499802	5.9317822306596755	5.992456897864885
480	2.996718160692681	1.778753633776596	-1.303003069448881	5.915493950213739	4.753410327354262	3.681393852476004	0.7868844250839255	-5.698419556535725	3.309781543004689	4.799178111357361	3.7356028462508823	1.992840761875299	-3.483282318857535	2.5275278027616723	5.543172822308545	5.032988058734577	3.775299062733911	-0.6748600585111385	3.2035221972646672	5.920279011084227	6.1655039631628465	5.133056627665278	1.227389809370621	3.27546428807119	6.169056399982491	7.39402959864144	5.726743683661479	3.483206740168151	6.928242665918513	7.411878090265078	6.254151805346259	5.145922647835431	6.068640693601495	6.14749000904573
484	3.354321709747094	2.187879080016908	-1.314583894271632	6.229018195637987	5.113178240264294	3.8940105339918105	1.0520181629322884	-5.622767911066327	3.554845562542822	5.243398653143527	4.022063721992482	2.2984294833327654	-3.4915485293926953	2.6966805389984208	5.8714127392349456	5.346041665884867	4.055850018751662	-0.7131734472388693	3.348086587082172	6.183369620924137	6.4137244062617365	5.367206083098277	1.2682626215385453	3.495841971154316	6.424907668104839	7.470892410489617	5.934651836670497	3.5807857423021585	7.162527066266944	7.484735946831618	6.410049422292744	5.28888939475841	6.206835254257226	6.297768576934136
488	3.2048904814866765	2.2566835823303757	-1.1561335296051523	6.5005779102233605	5.274494634662918	4.066812028153917	1.3368678059203876	-5.612250313894395	3.953075398954991	5.668443665498126	4.305320728876204	2.6200139456403497	-3.50121711800659	3.084983102639023	6.233439429757683	5.641725049079988	4.300246704688575	-0.7396339755457813	3.597838869547922	6.5039200618567685	6.652312261952084	5.5816435672980855	1.2993411985017054	3.811739435108949	6.712097151022334	7.571783523516141	6.108954414202838	3.643623581270095	7.412873726248892	7.588592986974677	6.533137304977582	5.454647527274481	6.319808944004953	6.409421427756976
492	2.6079490118939552	1.9811164090682913	-0.8635382034434024	6.6671557258123135	5.189860807667125	4.17299651046029	1.5856777389546175	-5.6148853160239725	4.3731846698974906	5.9393806307564585	4.518606651341859	2.8913273738341334	-3.48486422612588	3.5811154751962233	6.510827048075902	5.851437553891091	4.465455997636941	-0.7399712186250689	3.8762454888706475	6.769799692227967	6.818056089353446	5.7177581642749855	1.2935074535136877	4.115985859969463	6.932193738601409	7.651756744139424	6.188712104431156	3.6207513717788915	7.593273143670625	7.688826064724543	6.574606878847491	5.5873288967209875	6.367283805030111	6.442636950439228
496	1.9282721232367444	1.5910959203603103	-0.5128607736990475	6.708717329253523	4.8805942412177235	4.201914776683665	1.7489138797473198	-5.570674405338475	4.681467044454846	5.967656120492198	4.60428952008305	3.0504743975869886	-3.42879628269444	4.02501820501725	6.606028063307955	5.918797954874587	4.517568100013914	-0.7182639819130592	4.09201382557564	6.875390035436719	6.858661634294872	5.731710419488783	1.2279610602847062	4.293189991602143	6.991404515734631	7.654428939567247	6.139624103303871	3.4842159660109395	7.608397464616327	7.717745284622232	6.495403750232762	5.603631005444477	6.308297141360678	6.364346964980153
500	1.6270290572095905	1.4065575564158246	-0.19193106841266794	6.631464941448079	4.430309761305998	4.149105061546001	1.7931412413147336	-5.448192105843026	4.787387835813398	5.746118054187515	4.53278397369376	3.0596921366689407	-3.3393080150218166	4.280315388363165	6.487486346077947	5.825261578157619	4.442459572066339	-0.6953144055931327	4.1796121491764975	6.775536520063825	6.760574323751503	5.611992821829615	1.093940493682768	4.2753262411894815	6.849846822610584	7.5448694038636335	5.968107685279877	3.240866891307954	7.401400547414334	7.611211757516936	6.287098391871964	5.435638890847864	6.123146518506606	6.165955527950525
504	1.9833630273334932	1.620824332913427	0.02977514445714787	6.4480471448225405	3.9591624636826643	4.011598100070663	1.7115894512832053	-5.266040788706478	4.673511493327471	5.352997289494014	4.315752018522719	2.9223179743418273	-3.23915456907717	4.297300327895477	6.2088742099405545	5.605058655892533	4.257337082604528	-0.6965277773437618	4.130671013893568	6.514601214173551	6.563182814240103	5.38873241971385	0.9043054557856959	4.0783390895872165	6.550443155916555	7.3363275342729635	5.720887169699215	2.931956045377674	6.992448789108459	7.350698452510606	5.983358368072183	5.0765032640080126	5.83132837730612	5.875298962064489
508	2.9099447653734325	2.155810827534396	0.1241666522467434	6.167541488334704	3.5853907971458785	3.7935132884569676	1.533149953786029	-5.081187712238373	4.395600784648025	4.920719611142051	4.007114400283399	2.6894600323485602	-3.152696363118698	4.128912915295712	5.889113888177071	5.338671193949129	4.016245355002778	-0.7335221748905882	3.998121013083815	6.211460574680118	6.34840772933314	5.1283779014808015	0.6954303962315728	3.797430028864559	6.207124694411524	7.09166238901666	5.468565927050132	2.6200473242413396	6.481889708366247	6.983234387886606	5.651464448011697	4.599119651626864	5.49125622316594	5.5518135884305275
512	3.978224267452287	2.695448868621892	0.11276911915679459	5.802419170988728	3.386223307643235	3.518221369443761	1.3229911293959746	-4.951321112529634	4.05663536954924	4.582820880763474	3.6898131277385606	2.4500424800050333	-3.0881783884280747	3.8964829346508516	5.660277829184514	5.12450407641734	3.801232328354471	-0.7897871712771583	3.8702211282291192	6.005069240667515	6.207513316694479	4.912497031206756	0.5199557529673282	3.5615777879439157	5.954439148174494	6.8950400178395	5.278707967782163	2.3676931798284238	6.011271938405761	6.604562742724496	5.364470468328572	4.132061947880535	5.1782116759216335	5.26351069075144
516	4.65056418198404	2.8789784835607457	0.055257316539251124	5.3878478867876165	3.376496068059029	3.2395825304255768	1.1713843316067478	-4.894175993960532	3.7684252166971888	4.426090706140869	3.453913679939374	2.305739396949564	-3.0275597495888125	3.7258465196000996	5.610894189019889	5.042009817745003	3.6984753515326085	-0.820717869117004	3.828356733193215	5.989638313429863	6.202021583157319	4.808717238683131	0.431240766151746	3.4710068615063254	5.884790882511716	6.8097209758491	5.190497385271719	2.2164721432992094	5.701460347085909	6.314303382190241	5.16880987769708	3.8035635852150405	4.951824175730268	5.057756411180588
520	4.590488899085178	2.545578234921299	0.025205118518015834	4.995177256370323	3.5132653624524894	3.039399139359946	1.1689584225705143	-4.8690996047111	3.618123999043826	4.468508709116049	3.3722705755922804	2.3375487268558253	-2.931397192229671	3.6894299890829116	5.752789959688248	5.123122202336356	3.76670884135057	-0.7711647133430658	3.9082512756855925	6.173060401589813	6.338314517230937	4.845817553683456	0.4643425929743762	3.5494298845322034	6.005922302341387	6.845784646870108	5.202331529834126	2.1754591410071273	5.598649010828149	6.167766078635651	5.065012919035802	3.6808597948601647	4.829857337201535	4.941357600134134
524	3.8723330399974687	1.8786823702110067	0.08367925861212495	4.725742804993695	3.7240202332887926	3.006572477379227	1.3752146924583977	-4.7921867249614385	3.648011436788802	4.669314849508721	3.482045403272279	2.5769298011568416	-2.7559249331512112	3.7845661544616127	6.025977596327617	5.34524344048405	4.0120758909019765	-0.6011061057173078	4.084527005373595	6.478857500884889	6.5687126947498236	5.0042843692318515	0.6218100174463465	3.735289087401577	6.240554316977269	6.95645044477796	5.277569280651249	2.2226972523838344	5.655911431337872	6.151271327700734	5.012337671976412	3.736704101664972	4.782791602457083	4.881032931402163
528	2.9546234533099462	1.3400926556131734	0.26041787797028515	4.6776571155704225	3.942672719537896	3.2018558898195333	1.7906011297793987	-4.581967342252446	3.8485455415834053	4.960061060780272	3.775515546803189	2.991578094558808	-2.476771586840625	3.950170268575973	6.335481150844047	5.64655540948039	4.380668152239437	-0.3088396481822757	4.2839369665705735	6.787870389966767	6.816689950898643	5.225407110372789	0.8701937176668637	3.914219131124016	6.4670147732536565	7.064586144730773	5.363982663916962	2.3171119631439954	5.75928877330099	6.194040282823465	4.954380976566098	3.861416568543707	4.7519030451009865	4.824020850399864
