time	FP1	FPZ	FP2	F7	F3	FZ	F4	F8	FT7	FC3	FCZ	FC4	FT8	T7	C3	CZ	C4	T8	TP7	CP3	CPZ	CP4	TP8	P7	P3	PZ	P4	P8	PO3	POZ	PO4	O1	OZ	O2
-200	0.07287105154474371	-0.8931730963091027	0.8095511177604622	0.17106717781745603	0.8511496164766946	0.6824879629070105	1.1803228825332768	1.069913146178734	0.07742499540569789	0.3654808988880405	0.8895400740099255	1.073025581511757	1.1174055309694106	-0.23788434206984044	0.20881657249658492	0.8393565395144345	0.6633486134947308	0.9071842409117894	-0.6296231134730681	-0.10542535755243007	0.7264790516631312	0.4747945058279315	0.5474563823229447	-0.709925172920746	-0.20265982993934478	0.4440746594184463	0.5280060754796569	0.611451564675563	-0.29351884052556826	-0.01270435467880153	0.2597140663265543	-0.599038241781336	0.01896935696580937	0.14565086327972787
-196	-0.25877591902248065	-1.5826637704945146	0.592529354983652	-0.27985373068725133	0.8543625452405554	0.6213762744474111	1.0333572600024128	0.8484662153756816	-0.1920739258446727	0.2782794826157407	0.8272719958399584	0.9950373147637732	1.1137731047166797	-0.30560588759511853	0.09716464554573663	0.6998020392869416	0.7044554334974525	1.0553263399182597	-0.6999680978268666	-0.1952567840653202	0.5792762622513047	0.5128008710311994	0.7509631495589258	-0.6480692012637154	-0.2233043605411759	0.35924920349018447	0.5910674914695816	0.7822704891481563	-0.28534310984094874	-0.011433649779301221	0.3163239053846017	-0.4365655470793118	0.09502030140013053	0.2150588775211841
-192	-0.5421907888074915	-1.613124008874336	0.2646388404840423	-0.5451157675331694	0.7653819303262024	0.39456266065162166	0.694162784254335	0.6492699368296841	-0.27143102815762854	0.17194011764031006	0.6154926403718423	0.7493407707368805	1.0216276619866782	-0.3062913112059826	0.05416329936419304	0.5117697702838333	0.6443678720417981	1.1214410038290952	-0.6031579956085201	-0.1794530148743783	0.4286514807845956	0.5424180613174462	0.9499114727832837	-0.42460399758901923	-0.1035595980652202	0.35826879649307175	0.6821882111491918	0.9956182812349322	-0.14787477217532763	0.13639858330621568	0.47279709458190633	-0.13557897473913977	0.28274094987055937	0.3841945221260867
-188	-0.6814057809792008	-0.9744835471345447	-0.030242893768486944	-0.5681646451910409	0.6386532767383856	0.11995712637417366	0.30443462652591685	0.5738841876799574	-0.12953744795995958	0.08348310717724498	0.3415739229638264	0.4359741497953435	0.9203774905809333	-0.27094918421048086	0.08062485585122467	0.3354107729072891	0.5230972157622837	1.1317354412115515	-0.4055904735815428	-0.08862785972630177	0.31516745606958935	0.5700719342143933	1.1229075165054463	-0.1410613056436103	0.09019849426623203	0.41945263637498964	0.778108654441867	1.19634318049698	0.03680216139204021	0.3480074694907046	0.6531580074032112	0.17300906733701307	0.48531097051161554	0.5653309211762838
-184	-0.663726626150942	0.012084844491666873	-0.1844367529265615	-0.39366075297147995	0.5430369363425865	-0.0770433245144229	0.006295397396137538	0.6430670602775043	0.14089056813908227	0.03950637196460804	0.10550473603790929	0.16327451128267964	0.8680854417818362	-0.2376471304853945	0.1409303542393694	0.20621585793882766	0.3883134712905683	1.1123200626900138	-0.20519217796971725	0.0037378419561935067	0.24099038480472762	0.5819548949807478	1.2365610568297656	0.08709136374658044	0.24785642263300411	0.47766578076880234	0.8300071337725059	1.3128881421320535	0.16485735732417742	0.5069013225155158	0.7601766567111096	0.36238023547233067	0.5954249486195298	0.6588569266850874
-180	-0.5379607067831067	0.8500468709464893	-0.17809346273280657	-0.1308685388837229	0.538669048379829	-0.11869236796929725	-0.11397643358541375	0.7882274369366138	0.3730486323951636	0.050950161984076064	-0.022205376941526876	0.003908023693976544	0.8681088068025292	-0.22826172353811258	0.1884392942200907	0.1278302517286131	0.2742351882686518	1.068505403681983	-0.0793955249569972	0.025600561807489465	0.1795343752142913	0.553562401327609	1.2524423567622034	0.18810257268144348	0.27471959521551836	0.4639804947582799	0.7884721736074437	1.28835856589241	0.16476528304939309	0.5231596814298507	0.7242447119547221	0.36928772833094375	0.5486191497302872	0.603182493117461
-176	-0.34797197492483045	1.1296998233883218	-0.07518423329683044	0.11371971638101429	0.6522067768796423	0.0018330437550607443	-0.04710417601494447	0.8954745508473594	0.4208235432013624	0.11680935293746846	-0.01969418855999623	-0.021829051841816684	0.8701634385073942	-0.23240679443810108	0.19847625443892858	0.08913023747352278	0.19701623866884158	0.980236647038385	-0.046362977357872634	-0.046379472943272576	0.10833653035229672	0.4728808987122489	1.1398743362257926	0.16812169509402716	0.14719660542994664	0.35323297888264754	0.6357426627320623	1.1037477227000603	0.03655664986083024	0.3830607523783541	0.5402765856453626	0.22060663942429162	0.35572287350488596	0.4071469892712775
-172	-0.08874204732424193	0.7499244194170477	0.027259116923531737	0.2925472848181823	0.8573378898909414	0.2298511558928414	0.1518146540861949	0.8699598886460002	0.24377684233629723	0.22750963213223555	0.08999291039634016	0.06247177704297278	0.80118989742177	-0.2119394386424175	0.1843907977455557	0.08575729259058586	0.1612743731241629	0.8153719285405964	-0.06162072330056696	-0.1688152696400437	0.036924879904742317	0.3579809060595335	0.8898438192789341	0.1023330313363872	-0.07032635045177271	0.1866600061710704	0.40383139150705033	0.7833824137936339	-0.1473189588642004	0.15871219296915565	0.27266824176610766	0.014031880499758244	0.09762817596582334	0.1473838385198746
-168	0.27487084200125406	-0.03379704422166415	0.06226617827191975	0.42821913849480886	1.0737788650105267	0.480258046368184	0.3958940197962858	0.6823870522436605	-0.06868389976565004	0.36432960537478815	0.2576391392401945	0.211255788269731	0.6080412849333492	-0.1234124076230793	0.18592940223958065	0.12856888738596606	0.16895267324706525	0.5535988197654749	-0.04964087145908428	-0.2549147599460017	0.008646066278741746	0.2554724210011123	0.5249631391622663	0.0895804537061164	-0.2583931677970218	0.05380297066098406	0.16696059661673407	0.3841960122422023	-0.27995091606031225	-0.02809372350931137	0.026295283742915027	-0.134367927569651	-0.11351722450206234	-0.06729996187384614
-164	0.7418525796280093	-0.7536926846548787	0.029043914676889555	0.5773345813480039	1.1944805353524517	0.6733221394705268	0.6004115327934938	0.3781588067997574	-0.34655481489422874	0.49877011650043107	0.42932394038525373	0.37630423808457586	0.2894794039570162	0.051262423266685356	0.2398364388847895	0.23263810516272918	0.220745264926528	0.20712032861868826	0.04761264833707836	-0.22529430630546177	0.07339645158595108	0.21795324926184712	0.10030492369838023	0.19494162450686603	-0.3066850296860524	0.04273436952768806	0.010164258975950377	-0.023416547045595204	-0.27595877577727007	-0.06875225884245421	-0.1012563479370441	-0.14735527299393814	-0.1862611467904017	-0.14618244730281507
-160	1.2113095491344255	-0.9865239833719983	-0.017483547285760934	0.7747355083932546	1.1337313623414609	0.759010372629734	0.7051529270488531	0.045888550463690427	-0.42995411049055055	0.5961107596605839	0.5605085477982614	0.5152872191770826	-0.09993883942167466	0.2864648692527894	0.35149004966684844	0.3947060992289115	0.3090166441744894	-0.1743341381916693	0.23406480193647086	-0.05671231434331877	0.24821071264065456	0.27269899776273415	-0.30749052685351336	0.4126422692847928	-0.1730646784704481	0.1875768001112072	-0.010523119914785474	-0.3742469837753473	-0.11450049252211705	0.07655166070207323	-0.06251192822170823	-0.01881484496313532	-0.08942677058053167	-0.056751832222705086
-156	1.4841771088321587	-0.5888120517169753	-0.014352842197837626	0.9935397480675725	0.8723648168473258	0.7243357282470643	0.6829053146286741	-0.23406989813358628	-0.2541856163283053	0.6238624437793604	0.6199786051356017	0.5917547330221067	-0.4747239339286956	0.5172566758447787	0.48467257496536054	0.5760101065397939	0.4085071076569732	-0.5184041844630974	0.4545835841145854	0.19910901734626657	0.49144869918722034	0.39992892641184635	-0.6221539958504768	0.6680785400689401	0.09427701658049682	0.4437004614594912	0.10384049240359562	-0.6216595157186686	0.15279360076951432	0.3594897678358906	0.12149714647850844	0.19263486515523764	0.13802224362812035	0.16365909535096065
-152	1.3494511808657295	0.22742153646747995	0.05849402383102696	1.1493586272785072	0.47678074120308944	0.5878667220532243	0.5390900359848148	-0.4239887882495233	0.1182672154897684	0.5646327719737924	0.5896347150220882	0.5757086858519257	-0.7540923337970886	0.6651418788329158	0.5777836427406079	0.7072970849299448	0.4761044967074976	-0.756550846573932	0.6242866500351558	0.438489525403159	0.7111467701123334	0.536313294010319	-0.7921845296886165	0.8562076666195639	0.3833721568441969	0.7072104197766601	0.29445612356229484	-0.7444313745777058	0.4317820657319071	0.6701458675631102	0.37501430416792597	0.4010896374589494	0.4094352413807499	0.42895820628583536
-148	0.7184445243816281	1.0184955571209287	0.15731222887852822	1.1480731935125266	0.0776295138425671	0.38793304464624984	0.30734217089304194	-0.5329887257470758	0.532882689084288	0.4262585331168396	0.46501919509783574	0.45066529398623345	-0.8921942092304279	0.6741166097787321	0.5757947549587641	0.7162893396412808	0.46440094592146397	-0.8503629543769352	0.673894463268215	0.5569254145866354	0.805096087807263	0.6031981691389973	-0.8088145235621876	0.8940924979524418	0.5764448032130433	0.8671033956569963	0.47120952487232204	-0.7488870005773512	0.6335275157192224	0.8925967193955798	0.6033096894290905	0.5372619615341689	0.6303792579947796	0.6443476064626257
-144	-0.27504870226081474	1.3585413660081842	0.19783800790428513	0.9453499293301398	-0.1917171026396257	0.16749106305273453	0.03929964443059743	-0.5952513202897374	0.8213206508880957	0.23791304170622735	0.2551373534913534	0.22241124454611635	-0.8907453991335303	0.5383701906916798	0.4559319007806453	0.5607128725200355	0.34135481629018527	-0.806316016068801	0.5833430871540618	0.49743279689130443	0.7082474809884889	0.5428611026409431	-0.7105792146862151	0.7578796725211996	0.6039316042911067	0.8577262141506726	0.5508481846253248	-0.6678851826017769	0.7106853705582921	0.956463394134387	0.729949234073193	0.5736808762371419	0.7340584974829232	0.7430497985199451
-140	-1.2874635425487224	1.0706326934486456	0.10790070119079942	0.582332907636959	-0.26466906003886714	-0.0397493353972603	-0.21161264127710028	-0.6387522204484629	0.8786594249475833	0.03524119398041007	-0.01784188854660071	-0.07711043934427055	-0.7900488952717062	0.30552890819658546	0.2355139398589138	0.25031372841579386	0.10724597397191717	-0.6713150126674278	0.3876239647615474	0.27271529963303903	0.4233586479465488	0.34577685507258454	-0.5682973847346207	0.4887849676189334	0.4684723007772126	0.6853838545661114	0.49071320767487137	-0.5525765405055131	0.6673585755665159	0.8606649019446142	0.7215709072014935	0.5239561782959733	0.6998450738403609	0.7059540134726118
-136	-1.9050401401105852	0.31193396370333293	-0.1249978315654571	0.17558206573501975	-0.17768007472001054	-0.2175956809987423	-0.4081434597201167	-0.6660568697325526	0.7050608378729076	-0.15589931567885607	-0.32082962908805435	-0.39629658956608244	-0.646242020882739	0.05541115985231829	-0.03891550739715108	-0.1545677181156134	-0.2009842539719718	-0.5114046918355057	0.15433657130375802	-0.046520843984451984	0.018592562479522755	0.05451887087170291	-0.45532745007950415	0.16925582246962753	0.23110587836567908	0.4162448932152112	0.30246955079960075	-0.45640638355418184	0.5421389923713124	0.6604733450426702	0.5912364110324485	0.4229889501382628	0.55042308429986	0.5581567869399412
-132	-1.8451641751433492	-0.5244972096552335	-0.43865409382696835	-0.13663010264709996	-0.05282814787401463	-0.36815774347814484	-0.5414929972328677	-0.6535860879609072	0.39376580615763135	-0.32925143754800773	-0.6159546359723299	-0.6806769949893721	-0.5063971864312784	-0.13477612997836463	-0.31452631870968156	-0.568388222213029	-0.5228275047453561	-0.3848827471552481	-0.05260749893019382	-0.3690269282083875	-0.40641733901410176	-0.2584221058519872	-0.41714209212842757	-0.11648602754270067	-0.028847750203493564	0.13376964594922852	0.03955923010851946	-0.41700672998048444	0.37741240763744205	0.4273238469302205	0.3809241344848075	0.302134215068941	0.3314848533844252	0.34642487676894645
-128	-1.106125471183437	-1.0296342346898522	-0.7235598545879819	-0.2619419091286993	-0.030867379080802636	-0.5024542795846964	-0.6280371530888886	-0.5668758735649613	0.07643405328764771	-0.4921048867198959	-0.8660866000243401	-0.889163253446607	-0.390782027450031	-0.22184123042840723	-0.5496351705025634	-0.9122206545686599	-0.7950602153731896	-0.31945267239025216	-0.20043325373589804	-0.621111391406698	-0.7622497658558083	-0.5224618898552269	-0.4519472408805036	-0.3146637968225089	-0.2516426437700284	-0.1036968154077273	-0.22938165010713105	-0.4405435312592555	0.19838868031481344	0.2108752722184456	0.13906399870571326	0.17691384211219627	0.09020374692553959	0.11538103193716075
-124	0.01970889414341228	-0.9955702398913645	-0.8784535505050489	-0.1969978804382971	-0.1895016129000792	-0.626111803858215	-0.6912717801760933	-0.3805683543610414	-0.1355238553440229	-0.6480894668428879	-1.0396070454099124	-1.0023657058204052	-0.28897061871049806	-0.2108130151671349	-0.71886133966149	-1.1369488210583132	-0.9715267395286371	-0.3037897936780423	-0.2930752329579474	-0.7674182634051675	-0.9980329249933316	-0.6948407274822986	-0.5134305344970169	-0.41358867183214704	-0.4134908010056729	-0.282456486704087	-0.44853606706862037	-0.4984288203053089	0.01193540726568909	0.022986417578240166	-0.0962734294487245	0.051248609890293534	-0.13796867395376372	-0.10614932301662473
-120	1.0785714360662366	-0.5103355037202242	-0.8615904428663498	-0.02732011110143446	-0.49488347643837505	-0.7303113918939339	-0.7400960307509135	-0.09555728709413686	-0.1932103181967688	-0.7834874967821076	-1.1162757845351903	-1.0211080286948382	-0.17169187919660847	-0.1473449017857734	-0.8112909773370631	-1.231553909053406	-1.0346852514846556	-0.2976602606410735	-0.35741686730744804	-0.8119247535233598	-1.107758996074027	-0.7706153373335581	-0.5362036214642092	-0.4365459967558748	-0.5208047019207207	-0.42490762364873846	-0.5932058677001446	-0.5416308627758851	-0.181326388854939	-0.15362562200383334	-0.30452912968996965	-0.0720958037344299	-0.3336483231703753	-0.3067594758871889
-116	1.6632173019378649	0.10974667938657441	-0.7082961183785028	0.11524043203107118	-0.8163424113643791	-0.7940465787866985	-0.7567247729269475	0.2576668852022674	-0.12226850508576047	-0.8680255391139882	-1.092771408183095	-0.957388994660767	-0.009323470270936055	-0.09560674404801436	-0.8280314186171243	-1.2163025110053642	-0.9944589708969778	-0.2535459690845131	-0.4218280006725813	-0.7846497277476486	-1.116678473514276	-0.7733625154043199	-0.4699746656473056	-0.4244986165773224	-0.5921198710750789	-0.5613135085239207	-0.6698961837067765	-0.5251768814178913	-0.3731122007486561	-0.3397886744503436	-0.47803944228595585	-0.1850483710862188	-0.48912796254642743	-0.4830578851424719
-112	1.5907310207259167	0.5049018847115734	-0.5051854836106987	0.11457633198182166	-1.0016654704553518	-0.7991558293193006	-0.7065278273864157	0.6212587340882108	-0.005099321236997897	-0.8742734171728598	-0.9879933570712914	-0.827683446701804	0.2066218549756902	-0.11481935501911855	-0.7858258465953872	-1.130388018615161	-0.8799805618956943	-0.14174552226042073	-0.5016369210929551	-0.7277159672483872	-1.0625550720090788	-0.7366925459381869	-0.30664223355121173	-0.4202707697271111	-0.645074544708471	-0.7044521552419981	-0.7028668505089096	-0.4313185204106592	-0.5460556135696149	-0.5383486138103255	-0.6139128192660591	-0.27947398949634605	-0.6030225738559323	-0.63002562363822
-108	0.9567517614050822	0.4639188039510931	-0.3362853518578703	-0.07925631085889516	-0.9701899861636344	-0.7486805896930152	-0.567174015997375	0.9175577140530183	0.05333005623465921	-0.8034493306855662	-0.8435927012125709	-0.6535732133576683	0.44968199616385646	-0.2405253940708476	-0.7212653141885016	-1.0199699376103704	-0.7287200670917383	0.033162202602344884	-0.5980564340750746	-0.6852481943949451	-0.9823377703660575	-0.686779258901425	-0.08557700344175667	-0.45863810065822747	-0.6942728740329571	-0.8419422486029073	-0.7152888756812518	-0.2785683863282376	-0.6850856525290531	-0.72946268135912	-0.7085328084223083	-0.35877546577470576	-0.6776700002726903	-0.7378502469507363
-104	0.05125311749154329	0.01838801796562153	-0.23643824398427335	-0.430983423098578	-0.7650375942942043	-0.6744230968613933	-0.35853201060373535	1.067343947576822	-0.03543551257246783	-0.69617450061507	-0.7140964847655307	-0.4664489913130979	0.6617571694832459	-0.4741688358733039	-0.6844004971390898	-0.9267409420457327	-0.5760658368825181	0.23224021435753564	-0.7046565991730616	-0.6932863575597703	-0.9053189135582531	-0.6327922924277742	0.12670643595653286	-0.5589994178010035	-0.7530420999587979	-0.9455295181243947	-0.7135934215648965	-0.11015556724870125	-0.7883586267594332	-0.8805180765809216	-0.7553777675630693	-0.4414645422279995	-0.716704843618961	-0.7940863350846633
-100	-0.7950755337668582	-0.59908687917135	-0.1786535675783468	-0.8378594496553907	-0.5342144952637868	-0.624552009913026	-0.15021192989571472	1.015358087837163	-0.31069871704812646	-0.6172491296442935	-0.6467660649182811	-0.3076507441382651	0.7738548497689216	-0.7815235833463616	-0.7177159768103779	-0.8763530232238227	-0.4468532491369255	0.39877417582920577	-0.8115381577983226	-0.7668665032098748	-0.8488689043547674	-0.567326246259747	0.27111300757623236	-0.7175285202030326	-0.8304886200917859	-0.9875020359856483	-0.6825335604601486	0.03150503329429014	-0.8666077234322956	-0.9620515679865501	-0.7465269546734281	-0.5493487105804961	-0.7221440654642066	-0.7888361195675233
-96	-1.3548806871539012	-1.0987703772460131	-0.10073821966248098	-1.1730765074676488	-0.447674064698055	-0.6355357750105692	-0.03595596170288104	0.7574822287508408	-0.7427905779204714	-0.6193279012302316	-0.6586555821955445	-0.21781183724247452	0.7375854235146679	-1.0970751019435916	-0.827206907568028	-0.8671317674678377	-0.3488717964424103	0.4841756510431227	-0.9035130716400523	-0.8855339266353965	-0.8122471550461359	-0.47333326816262966	0.3264351478918034	-0.900443253627936	-0.9199550724644766	-0.951298353654416	-0.5929368123343078	0.1294609155962612	-0.9275541878169948	-0.9577705835956557	-0.6757922155484274	-0.6845093352201749	-0.6909228545864591	-0.7184718233088663
-92	-1.563511248455773	-1.2851247755029305	0.04344138492106751	-1.3337513174715299	-0.5917736872990974	-0.7032099348433705	-0.08358435311672095	0.3538847854739432	-1.2317568032637092	-0.7037972790115044	-0.7216684204000998	-0.217341839718446	0.5500428066671531	-1.336009975874946	-0.9623350476763861	-0.8636384584556615	-0.27059039405216123	0.46873181939990943	-0.9541391110172388	-0.9861978267566108	-0.7699828128447986	-0.3335161498709196	0.3182110182357485	-1.0439966890679582	-0.9855654214771407	-0.830525634576098	-0.41844287409039915	0.20057944902800176	-0.9549245810241058	-0.8628792144924294	-0.5410035834958526	-0.809925375324062	-0.6123039706983437	-0.5853118285660224
-88	-1.4805058203511323	-1.133149740219211	0.24195359586186607	-1.2732231584828082	-0.9072614885312233	-0.7723371367028377	-0.2873492829697337	-0.08461027571058537	-1.629213090597936	-0.8063306192067341	-0.767014739961057	-0.28830984162018636	0.25952461296361407	-1.413804169900031	-1.0243003342516588	-0.8038299063414962	-0.18545973254109757	0.36845058109718704	-0.9248776412501135	-0.9763281320717516	-0.6736187917868248	-0.1390452977484622	0.30066755338097834	-1.0694174739540332	-0.9621378159073224	-0.6221380218057173	-0.15339907965077523	0.2821254425078403	-0.9007575489190431	-0.6761563403224409	-0.34558257373342965	-0.8512096979584766	-0.47003105164112075	-0.3950439681569678
-84	-1.21244656733529	-0.7640646676799919	0.42038547886569166	-1.0119023297511005	-1.2121046750937217	-0.759042320719253	-0.5555646405498488	-0.43826484569524543	-1.7875554516483554	-0.8237893560591699	-0.7143170219506427	-0.37363508249362803	-0.05528072626342755	-1.2746058670288167	-0.9091857052736491	-0.6251395924997382	-0.06515477581263471	0.22238752189755565	-0.777724442902615	-0.772132096725328	-0.47046115875673405	0.10267684582774479	0.320918589020157	-0.9132530666182078	-0.7794370631566223	-0.32545739330137646	0.17527840987297816	0.4034500409907402	-0.7037981134765291	-0.39722180266227247	-0.10103080396178346	-0.7266607862245925	-0.2517442994914362	-0.1562900539266946
-80	-0.8555650689458629	-0.3494299343346779	0.479788004140672	-0.6269579513933101	-1.299127217827502	-0.5974575862105282	-0.7474461178981888	-0.6361874325902533	-1.6185545880461107	-0.6709556562649842	-0.513361571923186	-0.4000690271290372	-0.3262213758338562	-0.9193900204334325	-0.5671184644685847	-0.3004915110630787	0.10186584268123662	0.06654786301738853	-0.4972150313221674	-0.3468908956829463	-0.1349351849725462	0.3636593809483034	0.3859528591425213	-0.5606446848065847	-0.4031620909525573	0.04834100591852381	0.5092108832854415	0.5599682316947366	-0.32824909604167307	-0.03404128170359527	0.17060063736281575	-0.3934530307849622	0.038153085761302497	0.11636254162019903
-76	-0.47880437849274954	-0.0069372346449583676	0.35526731520601784	-0.2254244679481614	-1.056597706988109	-0.2843732528659346	-0.7424709182113481	-0.6990091186994966	-1.1369538278484617	-0.33625510250072316	-0.17658261910201567	-0.3150469652804801	-0.5335643278002185	-0.4161337901576304	-0.04529167700299722	0.13454055752164587	0.2967271201271483	-0.08904097206761641	-0.1104903441858176	0.23630636870804075	0.30316141171208427	0.5979744776887154	0.4526518869892592	-0.06516502781151019	0.1290528323968368	0.46191134932244865	0.7746690492144978	0.7065844517988095	0.1983044738531196	0.3832499375203935	0.4361846435978363	0.11498868436391732	0.36903676297475063	0.3977760960549618
-72	-0.14349712395201275	0.2435111695340429	0.06089293941382602	0.08863177873168586	-0.5421393499991801	0.10333231810468486	-0.5082725273651116	-0.7343597393568574	-0.4684545683954367	0.09659426634957918	0.2152195567419317	-0.12013090371557757	-0.7177044135093207	0.11496376962246412	0.5137991296193773	0.5806026444081427	0.46899744749868033	-0.26762920550487374	0.30940309088791496	0.8307571986204657	0.751796899327939	0.7513843159778454	0.44661864525568185	0.45998602989409737	0.7010655385437004	0.844492075695316	0.9066436863896862	0.7749904374583153	0.7728582601107932	0.7922676781678683	0.6540852768596408	0.6846147162318716	0.6841175538910553	0.6495584829143133
-68	0.07622264306374377	0.44266226775941464	-0.30756303590369954	0.24615566370327713	0.038826919994077315	0.43674602994323597	-0.1250086572590371	-0.8787103273140929	0.19202026676334913	0.4817095982787343	0.5438513742067412	0.12221003292938344	-0.952904877640991	0.5441294894785611	0.9291065907862504	0.9096764899174905	0.5546919689478955	-0.5095886575230741	0.6660646183363539	1.2603682247765553	1.0852264138478962	0.7792269567843195	0.3027986578448971	0.8823917485847055	1.1557878226663278	1.1057125302054756	0.8731366969952182	0.7081538420917831	1.2470575539575004	1.106488225050624	0.7831215838687553	1.159474250727089	0.9152015424509959	0.8257489183558582
-64	0.10672051432606518	0.6162523015675866	-0.6170480831779737	0.2352997654696154	0.44189929850589355	0.5972349032582096	0.2512536638592063	-1.2113310068064904	0.659058330779275	0.6852912289483644	0.7088379842027878	0.3166302732579737	-1.2936758962393975	0.7868919352691482	1.0681276294443502	1.0235441897299473	0.5079461919357904	-0.8394528010155037	0.8810035564113915	1.4001630509311758	1.1994472711797557	0.6668896658272517	0.006579905266093359	1.1060088844985505	1.3638825382130217	1.170162317182648	0.6891496760135128	0.49334269637482125	1.4897557459411819	1.2440034119669203	0.7963546494405086	1.408314820548656	1.0079131100956449	0.8875923134328729
-60	-0.08103919753833469	0.7202292662556316	-0.7644798140298045	0.10512410822791524	0.5206077085702354	0.539733706542119	0.4680096197233118	-1.6891030030520142	0.8376148917984947	0.6606858952054026	0.6783233863870685	0.3848636736689682	-1.7228507952107668	0.8424188473413281	0.9178649163914151	0.9058458186167372	0.3307278445953666	-1.233586785062983	0.9322987771337817	1.241353389466897	1.0670502158881106	0.4427261043338079	-0.38714823029047374	1.1144348354813054	1.288658734882741	1.016581651982023	0.4134127487235366	0.17567884877672943	1.450706478270912	1.1650129527242135	0.6942104679700348	1.3853167260480048	0.9462211108159774	0.8216293433426081
-56	-0.4323849071076434	0.6472032053819602	-0.7306421976716022	-0.053613517298043804	0.3128241292684836	0.32019761123877416	0.4550915646984011	-2.1449532454695235	0.7615258078421943	0.4805840837742822	0.507219253689945	0.30997547429024785	-2.133792156554221	0.7927528003704704	0.5987233504437827	0.6373527629973148	0.08268821963652727	-1.6091760356329607	0.8670092203184889	0.9031851864899708	0.7595477681056721	0.17429207221372525	-0.7689348439830036	0.9767453049794813	1.0100438569316958	0.6985985023026756	0.12773841587240728	-0.15640650650113053	1.1896088093286799	0.8977343417390233	0.5095591532239848	1.1519685954573426	0.7633502464095179	0.6514362080339315
-52	-0.8116585591804649	0.2993220977378604	-0.5866556748837355	-0.14294995331435614	0.024892665382956657	0.07087048125255346	0.2604022615533934	-2.3623578488787595	0.5746176824367115	0.3044157318535708	0.31234267275152594	0.15048475525532407	-2.364611142864159	0.7601575832248295	0.3092646292984513	0.3635193696380795	-0.13626934553550774	-1.8455612612858403	0.7795412520754267	0.5803354367862892	0.4220968176198396	-0.05235918598068647	-1.017590043359787	0.8125072101106343	0.6912197453213357	0.33213975941724133	-0.09143042541308126	-0.4065669764744326	0.8521530606689549	0.5363475070763337	0.30099043174091145	0.8472453334398297	0.5324469195274354	0.4354685533973127
-48	-1.0548846695015892	-0.3149702839051702	-0.44602358228606914	-0.09584398543478265	-0.08269561061246075	-0.06502433849845368	0.022932691441691393	-2.1833913271138097	0.4553656268543864	0.29367133900884107	0.21576602702501396	0.014301525392783301	-2.267873281475098	0.8394790270591386	0.22596536519697125	0.22715012671818044	-0.22564929666768654	-1.8299312545351412	0.7628460507206358	0.4479636240616428	0.20876614696723225	-0.1637794818319418	-1.0506721708473687	0.7303593140282124	0.49997621648441604	0.04985258343150165	-0.19796223888484457	-0.5099793659685904	0.6007343515487823	0.20608726091804944	0.1335259225573573	0.618209300864556	0.3378602555804718	0.2473360144807841
-44	-1.0464186641976465	-1.0278925869739124	-0.39212196966352114	0.0945289281604234	0.1509165163998257	-0.006547071023146901	-0.103660970664566	-1.5996279676104976	0.5214592801279915	0.5191141949898692	0.28381606864798103	0.003200481172021195	-1.78668391253465	1.041464087717846	0.4106355895165285	0.29875394626529583	-0.13025106456773122	-1.509782668116571	0.8572009184175934	0.573088942511372	0.20903098530446185	-0.12900617686125665	-0.8596720077744526	0.7716515640803621	0.5249385224440363	-0.05773675427164814	-0.18901787650546464	-0.45925688627640093	0.5345239625786794	0.009095834545178117	0.052342425899676005	0.5467724786305185	0.23839829801927984	0.14478442036313796
-40	-0.7687727789542684	-1.5516293009683768	-0.423716633442166	0.3705706587018502	0.6833434683713118	0.22502531054426958	-0.03345425418513604	-0.7686175088550206	0.7697442750570098	0.9131633020234028	0.4945084142120728	0.1576784249139425	-0.9956529711381039	1.2805895773027107	0.7759147266825136	0.542026876034773	0.1306913640775754	-0.9266818738429093	1.0252432797296247	0.8800867177677713	0.4043731977266907	0.025707876244846314	-0.5138665424724481	0.8892738200623861	0.7311428766864514	0.01546926326869409	-0.10192255650059723	-0.30574119013841705	0.6403062327431234	-0.022706627788435435	0.06081594138884152	0.6100462659692417	0.23939000009654898	0.14109855854650086
-36	-0.2985740892501402	-1.5992218215620235	-0.45204916482281216	0.6343538745123021	1.2768591610142166	0.5214628564066689	0.20967690593710078	0.05766291901811904	1.079333302633832	1.2956253257464996	0.7499840836663172	0.43265241275271993	-0.08055532703326973	1.4165126049517867	1.1281164856085057	0.8321290591211525	0.4666214275499978	-0.21051074511308085	1.1670926779844655	1.1894115179549714	0.6773508770053686	0.22476044240471765	-0.13081954386584124	0.9727772449728675	0.9783037876224886	0.1870488519714421	0.0020722709543837263	-0.13592644001498067	0.7997674325777967	0.05663290605551725	0.11448272288743824	0.6946138126002116	0.28790488766460476	0.1942515219313989
-32	0.24443331299103477	-1.033563968909972	-0.3540702453256936	0.7869136909644363	1.6147664744616197	0.7457956652885253	0.508436797765698	0.6530616266928527	1.2744767633685592	1.4606596194582462	0.9252079105859801	0.7157315593768809	0.73460721784134	1.3272078003753187	1.2649935451994478	1.0160131428815908	0.7499234657427336	0.465388058441097	1.1702488631266434	1.3091515269605183	0.8680739976900682	0.3709090640717081	0.17198665396660093	0.9075980163547755	1.0924800606801686	0.3236298552925323	0.05962905272687726	-0.034672267647465366	0.8501847364895068	0.13285128738717034	0.1365663256773513	0.657747684248618	0.29571887776099576	0.22235031369814853
-28	0.756535110947751	0.036546677258726436	-0.053293697401438016	0.7643464784397785	1.4651533328258068	0.7981277684088103	0.7128307205322761	0.9185024476703231	1.2143647640086086	1.2788791624205547	0.9249426103127546	0.8762553908159271	1.2751423088304408	0.9759449338114581	1.075309393075205	0.9817340349206518	0.863560674394426	0.9461507177306754	0.9660308932709979	1.1296997041790324	0.8470190742088335	0.3791841556989173	0.31961667456993753	0.6346738918492931	0.9515643095787323	0.3008509568724892	0.02282064774831259	-0.05291915299048599	0.6654102785476617	0.08572046437078824	0.04910322638869679	0.4015961279266495	0.1790689672478989	0.13895043695654166
-24	1.1802104681735144	1.278768178572263	0.42234378946484286	0.5611575231689373	0.8069972971568636	0.6577652080141377	0.7147490364148841	0.9128264165719828	0.8654090740288888	0.7637303452282909	0.7241798024967255	0.8241738060170005	1.4777628146054944	0.4364136148401629	0.5912653192850916	0.7052414399461211	0.7449968438412623	1.1488294572435274	0.5663257226950734	0.6748785359509722	0.5708832130323828	0.2066872114685214	0.3002706162500988	0.1827328647529917	0.5434005842794432	0.05953588694203825	-0.1292495128229378	-0.1907832915734485	0.21925221328215763	-0.1518534269075234	-0.19044801544743342	-0.07519307713597666	-0.10028170023871825	-0.10468370440994298
-20	1.495658274689097	2.2676711025205303	0.9395902133107461	0.23198923410018132	-0.14924018047323376	0.38343700669754877	0.49840527647068206	0.7973604778185539	0.317660718354249	0.06935147923602952	0.3753834059297657	0.5515765533826411	1.3993250096277496	-0.1366912272101628	-0.02983970373785722	0.2559123628830887	0.4101320494787373	1.0858340235952026	0.06339191629378914	0.0864020136797517	0.09817332749614328	-0.13027363982688292	0.16003259976037	-0.3416593662218962	-0.029964765458151132	-0.36621951964423227	-0.3838381459558744	-0.39901804823268855	-0.3980540027105254	-0.5570470676663147	-0.5622460827937219	-0.6718396527494161	-0.5105032907948434	-0.4891562449503019
-16	1.6863158898693538	2.6657583646227567	1.321139332296768	-0.12825415996118542	-1.0577747795101615	0.07503700237402634	0.14123840594395204	0.7322159987082781	-0.2590826147213981	-0.5781686887448847	-0.01846576104866385	0.13605582679730016	1.171883580110126	-0.5779231772136748	-0.5819445237725831	-0.23792535006534238	-0.052928108588340884	0.847721038108581	-0.40878316656855346	-0.4469954956213228	-0.4395818997251996	-0.5592580423540309	-0.024542802882814775	-0.8009001592442484	-0.6012738331872823	-0.8616973735988068	-0.6953335386840573	-0.5993890747195982	-1.017264959628003	-1.0223790381368196	-0.9830085014320215	-1.228190538166512	-0.9562711691554716	-0.9265295839758927
-12	1.716379042106684	2.370833867762999	1.4360741340619445	-0.4154265512468336	-1.5990158279101998	-0.1758327181668286	-0.2270787203539198	0.7887372950667352	-0.6930345279362301	-0.9787529086197373	-0.34672334702690566	-0.2912655465401684	0.9325197315514062	-0.7852871398172673	-0.9018339491963242	-0.6410480721501249	-0.5145440684678994	0.55693024256285	-0.730236230437062	-0.7747910003174003	-0.8916279651064913	-0.9722221469174759	-0.18042412354692955	-1.0843540402691663	-1.0108419631232233	-1.275736447928062	-0.9926291083069932	-0.7143888455474158	-1.4586700164206667	-1.398245331095014	-1.3321900334102252	-1.5912135799287999	-1.3127738204236628	-1.2905280557474672
-8	1.5473318060909214	1.5497782191249059	1.26575910725501	-0.5490044937577873	-1.6238385397921085	-0.3196097902334834	-0.48369806882806565	0.9222803688605833	-0.8817390181214182	-1.0372576687373773	-0.5300033079117482	-0.5979180320902556	0.7632933239739011	-0.7578416447579289	-0.9304956174245892	-0.8567066170997191	-0.8470733144354421	0.31517371455727494	-0.8406577089065961	-0.8407271483175841	-1.1411131591596766	-1.2575982777315469	-0.2633337371853354	-1.1482284040071298	-1.166398045456007	-1.4762726984898717	-1.1944227188471654	-0.6951103788945816	-1.5988726575538108	-1.5523115357307535	-1.4952212534347071	-1.672155376027237	-1.4720214568166452	-1.4643434249146436
-4	1.1843976944584138	0.549909351867838	0.9083833075477086	-0.49633133286095854	-1.2082319229138632	-0.35424035698145306	-0.5610026703022019	1.0201472018234847	-0.8218848088494703	-0.7894791344737367	-0.5420883284233813	-0.7008777839131319	0.6709380728948199	-0.5818002209279463	-0.7206752878113597	-0.8509361722442929	-0.9673614477529596	0.16839155512256643	-0.7553468923571536	-0.6884219629072874	-1.1389318675849838	-1.3361947502732832	-0.2666719847145201	-1.0218090985249164	-1.0665854188693256	-1.3965125048664788	-1.2330687014919033	-0.5390713797310471	-1.4094407522856205	-1.4208105766663992	-1.4072754347556868	-1.4717721901928238	-1.3829313481701162	-1.3862838710116885
0	0.71022009670235	-0.2640338533410995	0.5184586035036399	-0.28633600401111037	-0.5995787963034392	-0.31086695115758023	-0.4680578696831356	0.9801749562311982	-0.5926591142950004	-0.37243431712533703	-0.4136045862722619	-0.5985071047930836	0.6037293657318944	-0.3800991465985542	-0.3983499993757327	-0.6555705649990488	-0.8666908719115474	0.09897789334103196	-0.5486620054697726	-0.4244951297056118	-0.9127833820185636	-1.191385623784948	-0.21634752993797451	-0.783502040315396	-0.7859939316932294	-1.0567688915274718	-1.0819272967679079	-0.2925271384482991	-0.9570296978629681	-1.0311009857847817	-1.0794045897888034	-1.0680831643794602	-1.068793651743389	-1.073438760908297
4	0.2726498239309186	-0.6677304489443306	0.2180859739042656	-0.006547523180255735	-0.08932188875773357	-0.2339914286189376	-0.28099444437608273	0.7690008263246033	-0.31092509548841185	0.0407648793323794	-0.21946972553155505	-0.371153711335571	0.4903108763236533	-0.25258013542301117	-0.10275799755140161	-0.35413080364463245	-0.6157292112063585	0.04547249514304745	-0.31501099387744896	-0.1638511415159421	-0.5531879649500754	-0.8802862741179754	-0.15651173850121577	-0.5211741911127505	-0.4351581622104285	-0.5553141222284903	-0.7734353522800516	-0.035384751766989145	-0.3705611219587102	-0.4872509526825446	-0.5947349056487072	-0.5772894606320228	-0.6151851400102224	-0.6126547440319613
8	0.019776929119961317	-0.6565731747262843	0.03462063884934933	0.21845546309629538	0.11821607470468022	-0.16916380779948784	-0.11093201460248812	0.42794769894318707	-0.08205178359296428	0.30674141567986757	-0.056323952830684636	-0.15104421935093454	0.27657923032549303	-0.23815359115077228	0.0635162143295738	-0.05856500178690435	-0.34193783912158376	-0.06369616820227697	-0.128611996445191	0.011926588572252322	-0.18546661687755175	-0.51960033047143	-0.13375003602114693	-0.29922521038802263	-0.11945022612454174	-0.03552568694920473	-0.3974540223577311	0.14636367522479707	0.20428977855125738	0.07003974151809386	-0.07816173861558401	-0.11126428069394965	-0.13695798779718155	-0.1258947548071921
12	0.021475393270870252	-0.40878680245187554	-0.09817706023701292	0.26928168467245456	-0.018260080321224465	-0.15615357419166473	-0.06003477036696811	0.030317807493554724	0.032011091628316724	0.3547329297646333	-0.011859821125724136	-0.06928372365625217	-0.0551594233610353	-0.3122646204693896	0.05887763187325226	0.12158346890508645	-0.18221038533937095	-0.2771560840761728	-0.01812347578896991	0.06985776853805403	0.06693959219244397	-0.245454117036042	-0.1832047398233259	-0.1438926305714213	0.0886012313513156	0.3600328257530681	-0.07411207239989825	0.19193495761572973	0.6458706243420812	0.5107641803243665	0.34685924561665044	0.2511476868010632	0.260056554614569	0.27331608464853574
16	0.22974540235211569	-0.16670328336588836	-0.27783805061764866	0.08349552729506869	-0.3832329501966754	-0.22161532882527885	-0.1806046511143372	-0.3713837256591785	0.01878160419788607	0.19719104419036526	-0.13245108690199758	-0.19925910184143206	-0.4859160768638476	-0.41412293806424233	-0.09825065707196352	0.11359419645001481	-0.2260427171245332	-0.6005932673549551	0.03492081529026092	0.018177350937130243	0.12038025974636585	-0.16021612246117006	-0.31896734157139384	-0.04814811038735647	0.15922607441278924	0.5335203991771299	0.0908484158606414	0.08808767028264686	0.8818013645796958	0.7515676598647116	0.5952992424240159	0.47194224476869595	0.5062863217922761	0.5124759661133491
20	0.5058123456582188	-0.1036194709307459	-0.5515478239439319	-0.3057628266244159	-0.7777296881113419	-0.3676650216833531	-0.4505730259963541	-0.7668184022616625	-0.09717158203625485	-0.08731632657655598	-0.3998505165018423	-0.5196496831171794	-0.9688795780515559	-0.4823228704672799	-0.3460012963619196	-0.08940513409453282	-0.47271770119526596	-0.9939771269498301	0.0765050349688154	-0.11059322180244018	-0.03991525982673487	-0.2881662838336073	-0.5290440903657997	0.01122573760297869	0.10161587570284093	0.46011614683331353	0.04996230440638523	-0.12652400104049719	0.8964720941798018	0.7701640109644583	0.638530848798326	0.5460854158919273	0.5774579033577327	0.5711541757468476
24	0.6982741934312715	-0.24498683152334394	-0.8681594111458157	-0.7636805157453844	-1.0146230433596488	-0.5596351013359281	-0.7743816356181165	-1.1628525227751392	-0.2696348719941794	-0.38524806402215417	-0.7279429417351188	-0.9143576598923966	-1.4380397760323844	-0.4781235444395216	-0.5993459209568898	-0.416841297289328	-0.8234994390677144	-1.3841365540844317	0.15179957411110478	-0.2723285846987127	-0.349907903979925	-0.5612501487866844	-0.7757565955603237	0.05666699246166211	-0.04561653349207381	0.19264170478820836	-0.16392540890314472	-0.3774988641744705	0.7251877170373326	0.5997241124270348	0.5012199866038038	0.4894090878528008	0.4886710333407329	0.47260784983522225
28	0.7220684867748222	-0.4747449743682482	-1.0960859032613968	-1.0968112917864818	-0.992790279266059	-0.7269772868875507	-1.0134938929718746	-1.5363568028761379	-0.4414190638841507	-0.5844924435163639	-0.9885183547811476	-1.214408394608474	-1.8155441238341605	-0.3912804414883844	-0.7718995194020016	-0.7390483599123415	-1.1178185911566612	-1.6869193272915362	0.2813091568997022	-0.4182543445994506	-0.6853460056167746	-0.8455356338134089	-1.0031810973588737	0.10042794768488604	-0.22652809264687496	-0.15948849876191154	-0.45005848890162964	-0.5847182855148476	0.4394703198304618	0.31124168555833703	0.244480072834743	0.33059820449330746	0.28252026367383565	0.266365229410958
32	0.5968959316442277	-0.6125053747925313	-1.1004060479038096	-1.1342974872561082	-0.7232503872730894	-0.7857193927000872	-1.040597436185	-1.8069020464099956	-0.5526134953851806	-0.6086763128171829	-1.0617055866138847	-1.2690747944262042	-2.022985453266476	-0.23436768293813232	-0.7996864298657514	-0.9160007215261267	-1.202802297416402	-1.8321067048546609	0.4510071862278019	-0.5018489944185305	-0.9078391171422833	-0.9997877453357334	-1.1524372071733835	0.14359486066803645	-0.38209807776301724	-0.4699452209528609	-0.6828204972193728	-0.6931520682954304	0.12729601529884008	-0.006947680824590168	-0.0535860470074523	0.10923279049236023	0.019560454363909394	0.013636207173609263
36	0.4178676296651242	-0.5181614743501848	-0.8334413149772144	-0.8117362836370559	-0.30753075998863516	-0.6799768192289634	-0.8002989271939169	-1.8579554510891427	-0.5525011406300626	-0.44313266761479436	-0.8935566521972639	-1.0189905140898938	-2.003453726478631	-0.03396598241098257	-0.6649086458584985	-0.8613582827755357	-1.0085499261188173	-1.7879363253275085	0.6181777700075495	-0.49202221507780114	-0.9245909429094678	-0.9425793266340404	-1.1843918532032405	0.1790048028479602	-0.4676604557150991	-0.6419634802822742	-0.7682941536579305	-0.6939797979953365	-0.13042797115297794	-0.26962011984463474	-0.3154542140148797	-0.12634754149008515	-0.2298834914125504	-0.22231480423111324
40	0.27523380448469736	-0.16743968384906788	-0.38042041563308243	-0.2187517130812423	0.11048435391903279	-0.4228973676017967	-0.34765794785462417	-1.6072694022606995	-0.41529676213316286	-0.14476457201647785	-0.5314443098001999	-0.5339889512885263	-1.75016760384236	0.1744612152940096	-0.41049316421819726	-0.5897616729151391	-0.5895962104216604	-1.5750875433255322	0.7309990506789714	-0.38908961317055146	-0.7332756500804196	-0.692988155522712	-1.0983874770089428	0.19650824318386467	-0.4677577304951269	-0.6424412711135874	-0.6851636154042224	-0.6241434796787668	-0.28087934780731205	-0.4125165332869566	-0.47689741729494267	-0.32481232203492344	-0.3952626277957742	-0.38243913553956094
44	0.18886609327792733	0.33542627011489157	0.07181148957956912	0.4216524649941609	0.3986474265524109	-0.10652637454794128	0.16108879406312326	-1.0772734853248846	-0.1575992401435583	0.17413423911475853	-0.1125070673367012	0.008462345206233776	-1.3238095011666744	0.3480482092653057	-0.13241745498126797	-0.21808090750947248	-0.10741604092419317	-1.2628523079459428	0.7530602793754084	-0.2325695747225717	-0.4268961240003922	-0.3628057530303079	-0.9366413927272184	0.18932920646550166	-0.4012140919569262	-0.5099880086420611	-0.49001341934465265	-0.5444741831384269	-0.31180825750781904	-0.40776568548248404	-0.49814978116149744	-0.44250202067234057	-0.42165049804088833	-0.42138898266259656
48	0.10697803619316708	0.8057534674328312	0.3269562712997589	0.8438891747149352	0.47948413966237424	0.13193340566226913	0.5286191092496241	-0.41521659388614235	0.15491604765880135	0.38724914095382373	0.1940138484109571	0.3980314721548572	-0.8439714291245175	0.44273850209988985	0.05368160442865689	0.08397708812015445	0.23990864991175256	-0.9477705931576463	0.6807500702836822	-0.09259232110249624	-0.15438520869377195	-0.10491046282983785	-0.7713122348385125	0.1584132905775229	-0.31422722260295377	-0.3368790141183343	-0.2881720952864582	-0.5100088702676797	-0.2533384555142515	-0.2772083871518312	-0.37805268073000275	-0.4579476106525703	-0.29325637147296246	-0.32531395472408664
52	-0.04378759104879068	1.0566006872203402	0.2818832688367293	0.8572373368554592	0.3483957341457912	0.17414802268882804	0.6028923973120716	0.15829996724692982	0.4202185560584196	0.405828564334497	0.26361373000346094	0.4850976156861807	-0.45103838925926304	0.4256068457348332	0.06025736391231981	0.17168061391877437	0.30743312758073954	-0.7206457239076257	0.545160947853795	-0.0445717534787662	-0.054316103321269564	-0.04348215822328123	-0.676153777322722	0.11315914959947822	-0.2632637911348681	-0.23283228219375596	-0.18558603478305774	-0.5454232678947892	-0.16777728455622332	-0.09592544263224315	-0.16511192876137037	-0.3828328838219531	-0.0529918296787352	-0.12941490081061077
56	-0.29750451370466857	0.9645175909486162	-0.02165565448002226	0.4333560753848392	0.0679188741518894	-0.016512336167726748	0.3491735151535016	0.4518216538942789	0.5303428755721763	0.21926803831530553	0.07479840498159286	0.2479925596413274	-0.24998731848066674	0.2880457036375311	-0.13076309826738147	-0.006360493118648511	0.0686069129165364	-0.6327484234093302	0.3982127000768392	-0.1358489092734848	-0.19248062323610957	-0.21982602719596156	-0.6937485319741918	0.06954110396232308	-0.29299348518784435	-0.2833569340704354	-0.24444083807741865	-0.6356299503490765	-0.12732362715046258	0.025146271969964756	0.04790611180488907	-0.2591786378038888	0.20059136995692675	0.0818799359519301
60	-0.6232320650578075	0.502311645670109	-0.429703294145969	-0.28037628460667785	-0.2611838572583598	-0.3729675402761514	-0.13204045560401545	0.3971460153566319	0.41074302688846487	-0.09922570710164058	-0.28433522510266396	-0.201275854794638	-0.26412051849438417	0.0535919366913993	-0.457198737897503	-0.38661155007027115	-0.3775104274755277	-0.6757245046721334	0.28843942211760093	-0.3622780433091213	-0.5353195653751326	-0.5796978459027367	-0.8139717558337128	0.04440370563382686	-0.41959327353398207	-0.5185952769537648	-0.4617721128726049	-0.7336626630379691	-0.18661406589122576	-0.020291246422558744	0.15442688724152592	-0.1407590504907174	0.3486780813473794	0.2034793640006149
64	-0.9569909548439619	-0.261693983609382	-0.7766618112982422	-1.032981750741276	-0.546734570076537	-0.761733530028712	-0.6568442566500383	0.07964192310729597	0.051113903393441254	-0.43026789914217833	-0.6674626452760309	-0.6786460263284231	-0.4261794377534224	-0.2281875008543934	-0.8060051778470821	-0.8281046131207237	-0.8609976150709104	-0.787179587284108	0.2385195636687692	-0.6677462441751563	-0.9713452433857543	-1.0049090360065498	-0.9750029420078061	0.04860461490995802	-0.6249433144049884	-0.900533197036675	-0.7753781060669557	-0.7787668089278152	-0.3569692066239927	-0.27850502659100135	0.0871713382785059	-0.06258124097282641	0.31452172915204546	0.16481359261386158
68	-1.2631814447935614	-1.1960780590376883	-0.997322735652626	-1.5914180238598634	-0.7507216911435504	-1.0597773763602691	-1.053808924875399	-0.3181028954103989	-0.4858591842305531	-0.6702100617653712	-0.9494035816064349	-1.0226638291288375	-0.6151604636873477	-0.5004916178464875	-1.066933033156778	-1.1849091023092955	-1.2251954047741107	-0.880004284544255	0.2374504351581323	-0.9643845533818135	-1.3642283643611355	-1.3669344152271061	-1.0873013707365784	0.08582855739381551	-0.858570096709272	-1.3278723921628863	-1.0868951054788152	-0.7144021373831672	-0.5872141704038708	-0.686193226035473	-0.12516546217788407	-0.007810615914711643	0.1277708407990832	-0.009661883091374522
72	-1.5787562092021952	-2.1537811701756286	-1.1869729727340774	-1.8477158499797413	-0.9121922231531738	-1.2285634248232853	-1.253986355476567	-0.6272998436348786	-1.0812934609769667	-0.78550678293271	-1.0905029746179604	-1.1725553244550486	-0.7224312406420094	-0.7198410612051895	-1.1834478348416713	-1.3740582431433852	-1.3959531748813188	-0.8833352901091177	0.25105836924109276	-1.1641323537045252	-1.6090308387186545	-1.5741224249197658	-1.070321199575836	0.15804822703035654	-1.046000954848115	-1.6578346449003685	-1.2897084918838748	-0.4994917499329048	-0.7606120686400945	-1.0574398014073696	-0.33138239300031497	0.11050049932714556	-0.047690112023349	-0.17086534158959493
76	-2.004969114963574	-3.0170335693480546	-1.571774597967991	-1.8572885943250792	-1.1306107015674796	-1.3391311134860844	-1.325781580438734	-0.7943163494082708	-1.5974494178494574	-0.8264718630905137	-1.1491473884179566	-1.1887186735658515	-0.7128472906234818	-0.8675020315202476	-1.1712437838547223	-1.4012525046256297	-1.4004211390424015	-0.776227233834282	0.2477711581888682	-1.2042924135320248	-1.6620922046659252	-1.5904416997809074	-0.885642705111837	0.27760484744555375	-1.0991765232944872	-1.7390910343131356	-1.2911598649804912	-0.11214854539928241	-0.7125930172095121	-1.1252983780106403	-0.28682246731821653	0.44074877985302136	0.05169802891076531	-0.07348065059706434
80	-2.6523201398642042	-3.741116752715843	-2.3993604122618994	-1.7957240297756198	-1.5142133197701184	-1.532471414511619	-1.4360914194088856	-0.9159798599005079	-1.9228768300145875	-0.893231508860835	-1.238199469301215	-1.20812594585572	-0.6492390616237684	-0.9478925442605489	-1.096143362138815	-1.3355469669954998	-1.3313609328034928	-0.5988744482179068	0.22279812339321545	-1.0581805679307679	-1.5362114867525423	-1.4253085815683728	-0.5530131445273905	0.47645979999410665	-0.9306901073800002	-1.4518285953106205	-1.0290502283818173	0.44837766772552967	-0.2716419689949561	-0.6348608120148368	0.25879412824141357	1.1513278455276248	0.6918537599262108	0.5344354496814114
84	-3.5733847527883733	-4.3803729900392545	-3.8069677256788577	-1.857150073130971	-2.1145141071338993	-1.9350547741671906	-1.7572992995717296	-1.183887240281846	-2.0092220255668503	-1.0718688937781662	-1.4525763951820845	-1.362480636971444	-0.6652840359103461	-0.974005041047496	-1.0266765330142753	-1.2541388241575173	-1.2839777437217688	-0.43698125967324813	0.20752347953376996	-0.7320021372433639	-1.2731693950933565	-1.1105450363730842	-0.14331743084962983	0.803728578445634	-0.47503071903457994	-0.7476902585225724	-0.48595934983584527	1.157763955054222	0.6830169541280565	0.5449036346029493	1.4458087646220836	2.3661980569226526	2.017166847858193	1.7934067204018929
88	-4.728516566735959	-5.0732054582302055	-5.732809052298509	-2.151364321045378	-2.8813936637609467	-2.576748603037182	-2.37024425861837	-1.7715300276852146	-1.88656830311346	-1.3775200809031996	-1.8105193330829918	-1.7053029494146168	-0.8999088383842291	-0.954487082932559	-0.9912049745329705	-1.193749543990772	-1.3035024371615485	-0.3860976090219929	0.25610130960654964	-0.2566458874421651	-0.9162222719901975	-0.6838270408531536	0.24727147755181647	1.3053121533816496	0.2838050119864031	0.3217627099973349	0.29804027005287953	1.961072201545961	2.162389988208093	2.3392724931783775	3.213237754338526	4.097955693389008	3.9564819236045934	3.6399607566486054
92	-6.010500415885736	-5.988183006426701	-7.9149584570369145	-2.6531882219085214	-3.668195715226001	-3.3605148707422003	-3.216629973873419	-2.7269325187499227	-1.6522942739731945	-1.7393618778183113	-2.2425417843466713	-2.1869895403005257	-1.4256337845094464	-0.8910254813586228	-0.966531751099781	-1.1375840873607255	-1.371347066277977	-0.5122185932578588	0.41533961787264817	0.31706771174487586	-0.4999789881003911	-0.18760019493422248	0.5299000726672579	1.9922546098000578	1.287726756659386	1.6017887551874395	1.2205535142600124	2.7707569529196725	4.031818379713215	4.460086334411972	5.282203184142967	6.2076926074655105	6.210686667974309	5.790871128720521
96	-7.308343868877307	-7.241809349849734	-9.980788205696928	-3.2249121584533387	-4.287910450599848	-4.1026573077570205	-4.125351418570085	-3.930833329766762	-1.436315890500543	-2.0361959882825613	-2.6326262884429794	-2.688427441485078	-2.2081420365850115	-0.7870712856448245	-0.9028227306460067	-1.0424500677492312	-1.4336652719540737	-0.8272376635646544	0.6943643671624563	0.9192298031486807	-0.059491824208499286	0.32118260779352303	0.64826631382349	2.8133447099227444	2.3979012905614816	2.8652017044207243	2.1288108771936285	3.4749476821903458	6.019439205230844	6.486219866588957	7.233251076555912	8.414732911799275	8.338453271794108	7.822463969507989
100	-8.556328751895881	-8.818227745680451	-11.58181378301459	-3.694325676173823	-4.5977134588508735	-4.621197211995929	-4.8951482649236535	-5.145974146248387	-1.354051228919301	-2.1629486029375173	-2.8840973304411324	-3.088335983108463	-3.118745557540353	-0.6608353836541219	-0.76733761832099	-0.8833252169241761	-1.448159094968933	-1.2895259824620333	1.0499365303234083	1.464073058246625	0.356079607302966	0.7663112859451938	0.5872896298839659	3.648609867420836	3.4183075341705065	3.874139775985339	2.853454344220891	3.957986821672083	7.777170638476104	8.005143145377335	8.651120164010072	10.360814068384917	9.908933614508715	9.31692025693358
104	-9.733612989646181	-10.537254306892084	-12.51162907302543	-3.941722144665418	-4.565611827767372	-4.8217921135280495	-5.3838901383845235	-6.116346820647797	-1.4638476334806536	-2.0868740029098607	-2.968201391355499	-3.3203477775666346	-3.9830484289696484	-0.5486912713502834	-0.5749301299838352	-0.6804094893442955	-1.4131448233211903	-1.821558590104681	1.3982790673238716	1.865007753431872	0.685037193952973	1.0677704784137578	0.36818385031249057	4.336117733498156	4.15121554280288	4.456315506174422	3.2600431359952564	4.129848946634901	8.98244187948216	8.759392716226944	9.276858306351134	11.71345230959874	10.657784435066779	10.014551137435415
108	-10.813938113566572	-12.089487998956958	-12.758020368790072	-3.9486486812079886	-4.281682003655124	-4.732116687271304	-5.55661057022994	-6.670303804722822	-1.7395882562585967	-1.8604052019832262	-2.92633461213381	-3.3889536772042126	-4.64509152193316	-0.49240943665160686	-0.3837110986558564	-0.48874294634447285	-1.3614008392294192	-2.3367998541007577	1.6488754707667992	2.0618019051948413	0.8762970544625199	1.1744137972744533	0.03471575668629981	4.725562560548349	4.467101085828587	4.566340911780424	3.2984995758700872	3.9522960086218757	9.445879912369707	8.734258629681515	9.09814641562802	12.271973578940562	10.576757404326528	9.903152440817257
112	-11.708309144023346	-13.14166733284831	-12.47485729882628	-3.7881240749085623	-3.9060611626234953	-4.468698967141692	-5.471888051522946	-6.774528486313929	-2.075946087364331	-1.5843372304970034	-2.8282337117314666	-3.340912095217962	-5.015098559115437	-0.5143659101851156	-0.2584163242014586	-0.35783684163347507	-1.3260862793820565	-2.7630827357149266	1.7423919395324627	2.0478701539787947	0.9213805175406812	1.09499847612486	-0.36287996081286583	4.734864222969933	4.357244003739007	4.302669037446131	3.0246789379048016	3.448796978826194	9.180135703751096	8.146525362427607	8.335645654613698	12.033077209609635	9.895818685342608	9.203178382525927
116	-12.257042853880602	-13.472056354841309	-11.895754784114056	-3.5703587441900564	-3.5815932660275367	-4.159405697811499	-5.221999155211716	-6.516255362271181	-2.32742094405974	-1.3448237146756303	-2.7153940132248557	-3.215586415755326	-5.08108805327256	-0.598689912238148	-0.2247959369705918	-0.28966584728540296	-1.3043169942349924	-3.0545380038389363	1.6732606845571611	1.8810751390648288	0.8726223089121053	0.9054599977520802	-0.7806270698865585	4.3825964817023415	3.9409296413104853	3.86851119018412	2.5793120795932096	2.692385666725329	8.396443345805412	7.340856533590142	7.333384972177122	11.186756105789359	8.968752838379025	8.257854440820843
120	-12.284788100697758	-13.05731293242652	-11.23294159914199	-3.375394097389204	-3.3577597056490585	-3.86647557236089	-4.865615832442064	-6.034242137932727	-2.365729564415901	-1.1614515752078753	-2.5649452144714013	-3.007572643316033	-4.887581336079233	-0.6904958469123662	-0.24453864929924812	-0.22355337384525759	-1.2449274031678956	-3.192430726574287	1.487690921842086	1.6675958591320104	0.8319499471640547	0.7229629736767081	-1.1876455515440247	3.7799210452967045	3.4193847093081677	3.4912719638416356	2.131021494253477	1.7777943566260026	7.424779873222006	6.6433310341000045	6.40805576613933	10.041115735451843	8.119020441537577	7.38301275296613
124	-11.699529618288675	-12.071682899514606	-10.603540393760861	-3.2111217894543422	-3.1700296321941983	-3.5558445363867355	-4.395764339792875	-5.440666661831264	-2.1341822093486464	-0.977850375090827	-2.2972855509931245	-2.6657624177385912	-4.49688433465476	-0.7169461828250473	-0.22860446514586694	-0.06006450563405536	-1.0698672506023728	-3.1773962894326795	1.260765191709757	1.5225459298793909	0.9115452147357705	0.6575678570357847	-1.5657929142520142	3.0852854173965603	2.995003454276112	3.335867396515489	1.809758181771132	0.7925076464671281	6.588611586148558	6.240371688346139	5.729953274565241	8.906725860996566	7.518958072752295	6.748577100881403
128	-10.565257999448335	-10.793607684540753	-10.009982083797048	-3.015033952730178	-2.8858516143417328	-3.1279973904790306	-3.760609140438236	-4.780897128432325	-1.6729959207257374	-0.6990568024151965	-1.8233813001373105	-2.1297290271394305	-3.9602262873799297	-0.62211614690114	-0.08283096530982333	0.28738719152371517	-0.7186764460538636	-3.023060791012525	1.0637724372708979	1.524062152829359	1.1836856573737247	0.7634800653255109	-1.9074150275710198	2.4414250789037433	2.791509144410857	3.4484918030457146	1.65969359455693	-0.20301383682493324	6.085709079636282	6.132298930898049	5.285061346062021	7.987513998845917	7.151602727000091	6.340547068800007
132	-9.092390037468727	-9.465856528225032	-9.371966338337572	-2.6922142437673875	-2.384371989905943	-2.4858388837995435	-2.9166736529144273	-4.042720784470846	-1.100395319067777	-0.2484506213352698	-1.1001419993281214	-1.3766170705371323	-3.3092915928258724	-0.3949059536023388	0.24333178935604424	0.8463069179148551	-0.18635179055371504	-2.751999371256215	0.9412439441758641	1.6861367183076112	1.6491568046894287	1.018112537674569	-2.211018795153188	1.9278352211916439	2.815049164340438	3.756255140357676	1.6355148512555486	-1.1764727801183759	5.92841766767989	6.175159915592081	4.928159224465553	7.325317841155009	6.863952619388936	6.012706741411171
136	-7.550419788371104	-8.191443422616933	-8.585360505362623	-2.168450588473553	-1.6259324509577815	-1.5989297588033615	-1.8789076757676888	-3.1960723319422897	-0.5578598366004199	0.3889355351641961	-0.16127517778686534	-0.4485460210442727	-2.563991540157403	-0.0740224270143824	0.7326856833079224	1.5706130226535409	0.46912497163585526	-2.392104381243842	0.9058708525674797	1.9632976005576763	2.2407591286352297	1.340190407230358	-2.475058310935527	1.5489267071717945	2.9726614877034914	4.118134488198901	1.6412469107198364	-2.1090488380589525	5.96753357334285	6.179614051475611	4.489159095874215	6.818743211696682	6.473762972699509	5.5912985660530055
140	-6.146847709395252	-6.924971086184342	-7.580372314388011	-1.4337696992914564	-0.6753856522674409	-0.5292465673435904	-0.7372605185968175	-2.241909021439333	-0.14586451612838583	1.1585119933442645	0.8915382005116862	0.5540916905718781	-1.7511011317864753	0.27166202595787237	1.3120650019897835	2.363049501174987	1.1515191764368709	-1.9748985717503107	0.9459627842861731	2.2813918532946045	2.85704731219888	1.6336755711317132	-2.693597786778421	1.2564579216705831	3.1335482518236586	4.3969340213389945	1.587125416563267	-2.9771065636810383	5.983078464661025	6.010349735344125	3.871495237112621	6.300459369011082	5.869391426526426	4.972931849321996
144	-4.943111407197578	-5.559346184999645	-6.355166419196446	-0.5549553022678484	0.3338017157233175	0.5972179755391361	0.3758101453829577	-1.2342901198695568	0.11907738417125181	1.9675638626013485	1.9336626480873316	1.5135525426798069	-0.9134753323380141	0.5760980233906156	1.8934358310578518	3.1226012627918487	1.7714225009063111	-1.5298385581492477	1.0384474966533797	2.57820605580755	3.4092671785109583	1.8355877353100445	-2.852308504532622	0.9909060572401766	3.200695983435133	4.518213260687335	1.4367386066402228	-3.7393045331006673	5.797893986368805	5.6408181048073756	3.0970499437340453	5.634077057918877	5.05768297825841	4.17117546935771
148	-3.8652982614202593	-4.057689179666208	-4.975732313945052	0.3451473704207009	1.2695952621830688	1.652767415642227	1.3471282686554076	-0.2633664005305899	0.3048824660233061	2.73325418735884	2.8715100215892453	2.3456838071728106	-0.10300937268952655	0.8042261580189626	2.4177381931298068	3.7881629371368577	2.285024398756625	-1.0768167945377687	1.1580411166517277	2.8308553624206483	3.855566491883062	1.9423668335511954	-2.9271104261882477	0.7162874322926528	3.1548402229765666	4.4904231911774195	1.2221695153850827	-4.336098183174719	5.359380231677606	5.145381914499394	2.2844154777071366	4.7837657807688325	4.146156300567118	3.2980663693129535
152	-2.7940075326949545	-2.53714823082271	-3.5470232874008283	1.1336801023470835	2.063380474603087	2.5671679908787532	2.1362428611226187	0.5827612266132336	0.5234161006110271	3.4181935700899837	3.6765122320812242	3.032428495380353	0.6355789287732777	0.9620130037814778	2.8768796848142135	4.356596458879801	2.7065293720576613	-0.6213136299659103	1.2795109716535786	3.0575630587629394	4.208558071954979	2.0045697638445876	-2.887189857822851	0.4316521574089471	3.0521120948027027	4.384689796821569	1.024721858298446	-4.7009749293848415	4.753913867392052	4.646108615589039	1.5840647180617782	3.825860490676324	3.2816457665559495	2.5022919114832236
156	-1.6699472623624627	-1.2414369551786613	-2.1737592165424253	1.7180690722003784	2.729330532812472	3.3500938330945607	2.7904505659223187	1.262737390191106	0.8679702856084209	4.03560589725126	4.383235443492721	3.621043196118975	1.2845531669609775	1.0841755839631593	3.3045830643190834	4.869778620822666	3.0918710153718765	-0.1532561924164482	1.3771443332234843	3.2973620808320656	4.5176706200026695	2.098271841473613	-2.7012596062170844	0.1589386459152468	2.983255378820543	4.292535771022741	0.9368588900754545	-4.777144896843898	4.15414570713264	4.251405228371458	1.112231847815969	2.9042820857154883	2.586169236329437	1.904430146177494
160	-0.5504168258121743	-0.41007202760160005	-0.9285227632921494	2.0788726754154134	3.3363158618616464	4.068062295179569	3.4126183900503486	1.8012344791711923	1.362823721305905	4.626393306495749	5.056959616291242	4.192295063878363	1.8590091419968218	1.210437056346406	3.7461657429527295	5.382939801930624	3.5061645419290355	0.34577467950305574	1.428040143222243	3.5832996277938585	4.8403267738206095	2.291187995847997	-2.3476123750542937	-0.07931850830556124	3.0217986030579476	4.286763180400108	1.0265450451682328	-4.53480528640228	3.7311737443180952	4.018784036026641	0.9161460972543668	2.1578268950341886	2.1217391437367517	1.5610051115678742
164	0.42826172601339335	-0.10758320215004372	0.16143619973431952	2.276126140569862	3.956275453115613	4.795688140205284	4.1015629664817075	2.2741615714830252	1.9530554960532007	5.2289733754699865	5.753693089263605	4.817641246076371	2.395361179026147	1.3660948242029196	4.230502117920083	5.936494812282299	3.9958035845007993	0.8903482533863946	1.4226703607879854	3.9276893039720875	5.220585333041213	2.622147791917921	-1.8244408323001629	-0.2735041373023273	3.1924574294550787	4.4041061290174195	1.320163485054969	-3.9840488333250326	3.579131594204528	3.953933944256168	0.9794055198737354	1.6594392019336708	1.8932833623769014	1.4671155177268587
168	1.1503900260490967	-0.13332968916609095	1.1037291260509372	2.4207205711282582	4.620420444267177	5.566975102674475	4.894519316713572	2.766398422886121	2.5350940163503575	5.858928188790392	6.490849955383419	5.524034963012381	2.9256095812365928	1.5564151963038888	4.7586731790560615	6.542035086327187	4.57475708760146	1.476675149050379	1.376223203045451	4.324248302986131	5.679856286013745	3.0970988195426377	-1.1590520114245662	-0.4237512339383707	3.4725139053410214	4.648927676861219	1.8036348774195263	-3.182280294013244	3.6863613035590435	4.033335675546787	1.2507479159248067	1.396266337684178	1.8740328503023964	1.5825664957144867
172	1.6100813109755239	-0.08312722274535084	1.9174462508428125	2.622741215759807	5.306822763395994	6.353113635235565	5.7414483879090215	3.318712941373863	3.0091960354170366	6.50677059438131	7.240396958190702	6.280905230876858	3.4488739880270494	1.7754207804677498	5.3114414080986885	7.183496933920298	5.226098047413281	2.072621578705732	1.331712838625358	4.760239589116805	6.216279014151596	3.6956498529588098	-0.41143494740559305	-0.5259170518948433	3.818142642871713	5.005664335964207	2.433267110403222	-2.2329616490253996	3.960187663570213	4.22751520996864	1.6708356099859523	1.2936586108924564	2.028640741948487	1.8571814251740437
176	1.9290641497545202	0.4559504974297683	2.610206597413768	2.9404711649087876	5.963187679493959	7.077679616224815	6.526394350740456	3.8931498429234273	3.3246414577468344	7.151613694254702	7.944953421560794	7.014779073170733	3.918307056070971	2.017699474962561	5.867895111527762	7.8282046120411035	5.91379354891188	2.619845622123929	1.3491764034540086	5.228253351362918	6.808136445976391	4.380672443773849	0.3337680390991044	-0.5593079910462265	4.195968140498728	5.448922143530392	3.1483995834969782	-1.2707370487555034	4.286316860821157	4.510482776698063	2.1834876482195233	1.2651516167169932	2.3206648768007967	2.241883033814277
180	2.2877869548257	1.6667838054536406	3.169027797327343	3.3557610427054962	6.54537485377481	7.658786277507906	7.124131184711052	4.37809656945174	3.4980456740753882	7.776982287799089	8.545592286468887	7.642103175895974	4.254253376710214	2.285199159574665	6.419502242093096	8.43861863866768	6.595139486827877	3.0502772254225694	1.4822940788991688	5.727785572849522	7.417421322215194	5.104985224232733	0.9873095129835099	-0.48942315454893226	4.598814475846385	5.946496471650358	3.881663551067051	-0.4320554722368015	4.587378490310073	4.855380522867075	2.733501427424744	1.2580230204291438	2.7064597538327395	2.686598294150829
184	2.8054776120879925	3.356598845590344	3.5711638837296498	3.786138286568239	7.043298226693699	8.050332049071837	7.458315830473762	4.634204375964553	3.595063438875608	8.374679544285653	9.004234291231338	8.101542452384926	4.3796510585835575	2.582694285547805	6.9674215140861975	8.978412605505515	7.227466565004354	3.3110880768148667	1.7522963241204939	6.254419787828493	7.993303278769044	5.814387306792251	1.481093998984291	-0.28808352278454563	5.036534773508337	6.457576258568014	4.567017066869049	0.18181657745233423	4.849003779566524	5.226003156819038	3.262250415195006	1.2689790693669367	3.1276979367444353	3.135383598040949
188	3.453392973763931	5.005696760890883	3.806564083025458	4.131721962987594	7.47958705921034	8.260959604387223	7.533384780937308	4.562320220872606	3.6897258665388297	8.937498070086354	9.313125586838181	8.374060609655869	4.261869419781807	2.906370155625988	7.508931617852073	9.416789984769812	7.772679786131485	3.388047686605914	2.133378977157681	6.788723928477795	8.48235414270765	6.454181178010179	1.7909684135995774	0.042086046082812696	5.513558373835951	6.936614019046791	5.15126513134245	0.5376139865653237	5.1066961159520465	5.579227910260728	3.7152085210460255	1.3270536627643188	3.5178332239979637	3.532530060432415
192	4.068205346326669	6.005429729558206	3.8963763615462623	4.334485043072591	7.886759738083451	8.345202424914277	7.428682308514888	4.165782441112049	3.83038996683066	9.449883437139873	9.49251172530129	8.486415841610969	3.9427196879978603	3.2372202791498026	8.026010493041936	9.736377691482463	8.204986551550025	3.318379155363963	2.5587935383089544	7.296425324138111	8.847857452942069	6.983566266547878	1.9480009029797196	0.4555162477913535	6.012024864276663	7.347589474246972	5.609896168850289	0.6847727281447723	5.408187375719419	5.881669506481999	4.062020291563233	1.4598157368996467	3.824502696871769	3.841417302923424
196	4.449245918484752	5.963737949573136	3.894133796396895	4.412775028531666	8.276645639503869	8.37027070793204	7.256062012472441	3.5699357896317983	4.025317658751844	9.88283440955752	9.577049231191369	8.495595910557519	3.536391964566952	3.542293539640553	8.483138062993756	9.940192197498643	8.518826463172207	3.1836411872593198	2.9454426691076616	7.739775638112754	9.087333656255907	7.390776615556391	2.0292761274601885	0.8744246341562731	6.491586191953826	7.679841499012364	5.9574031679424015	0.7398732285893056	5.775666222295286	6.128291114593471	4.314006317690945	1.6664328533060893	4.033892621346162	4.063017358058517
200	4.483157623416223	4.916320311531576	3.8654782674470263	4.449332226010168	8.623110749407937	8.377264955350904	7.103543263620453	2.9794020577548324	4.248203266862208	10.198860142707385	9.597429251281516	8.461008050537423	3.1885747829042126	3.7850403690142485	8.837368942836713	10.05141160334577	8.730771996389537	3.0805592459149627	3.22498821397988	8.093260744642164	9.2352370982653	7.69762037241108	2.1275637096094973	1.2196469276152675	6.905872327535052	7.952760199495185	6.241756900287221	0.841147301457545	6.1893367611068255	6.3469314414950695	4.521796215085027	1.9133070659014808	4.177932251872389	4.237362374097831
204	4.222461212941605	3.3337571536771886	3.85441159228881	4.5376114730712205	8.871153809084424	8.358890512343097	6.996712666966347	2.5894498759695916	4.456196773722329	10.365328762587385	9.565848326373457	8.418505647385453	3.014744750994458	3.9399969478313945	9.055451370264624	10.102392171149186	8.872021652710162	3.0826084535971665	3.3684811507056076	8.353387811551325	9.344867682705305	7.947461108169453	2.3127193392537184	1.4468610250182916	7.224593621133434	8.20259569004483	6.521383269057551	1.0918616028875405	6.599341375855355	6.581569178176836	4.749162661959712	2.1540653651212	4.316390503475941	4.422523487369358
208	3.857111682690318	1.906410093262644	3.8580953977452075	4.71715639830761	8.964929558054205	8.264769533271647	6.896057588332536	2.493351214789488	4.606455314450141	10.367297146371477	9.47079083912566	8.367215135429989	3.0464630050037327	4.001713742643226	9.12639997085454	10.11492249796081	8.971466995476664	3.209047309402817	3.3946089658862233	8.534264542967213	9.455214476555124	8.179539659829604	2.6020929747688477	1.5686340292427048	7.446171264922149	8.455684640516683	6.8336434191785935	1.51875614736485	6.955894452652898	6.862321836311998	5.035667883556913	2.3598983228229575	4.5018706208055	4.660871017132578
212	3.593724003301597	1.2091687887180773	3.8266951941196514	4.934985625205154	8.87472341204172	8.03026388048237	6.7275628873724465	2.6277952127868414	4.661793697031372	10.211417172399802	9.28265092413436	8.273644426437716	3.2111411013592006	3.982443561035995	9.061197258006466	10.081200574217826	9.03635499580112	3.415896645504718	3.3581163798424942	8.650536515329906	9.559953665438632	8.402219751125301	2.954109422854701	1.648382421146462	7.592450122737644	8.703173615416736	7.1710982141640045	2.0655128903691877	7.23728750308991	7.180231553069167	5.370213018210315	2.5394356186648355	4.747722613745575	4.952164160623208
216	3.5306816011933075	1.4338381254234858	3.6898643877329382	5.0647172799984626	8.61121652336375	7.617248515924546	6.432554705591636	2.7953693796153445	4.592174995272328	9.92286870358486	8.97160909294945	8.094228724070874	3.362901440712981	3.904392470992576	8.884080864410672	9.961892102839363	9.045300460866425	3.6173794178231717	3.325730792231999	8.702221848451366	9.601656889515471	8.583906152033775	3.2912328160159974	1.7695496037629075	7.692037086139776	8.897022224851632	7.483051757993096	2.626932137532673	7.4612240602943	7.4862017442522335	5.695416912958101	2.736436598544653	5.020567881306218	5.25263212785166
220	3.602317562545037	2.317871087897938	3.4001984510405685	4.977064120124551	8.218335130923062	7.0455932439303375	6.008611187069706	2.7643849779906917	4.379988182453555	9.53768346285814	8.530134179513286	7.804262141551015	3.35421752082829	3.7907066249508703	8.621466614890604	9.706279730132671	8.959010101587216	3.7280669118216667	3.351601115347835	8.672158219376877	9.49887273297566	8.668559052515848	3.5408844858416204	1.9954798171207113	7.763153056571798	8.97285649895216	7.703162650686882	3.105393401888639	7.673608760533227	7.716759662218715	5.942263588207676	3.0056040211133617	5.2625121937446835	5.501945958551548
224	3.634309521082429	3.307017318005564	2.9678738042286406	4.62648533606705	7.751805762746687	6.40007398896832	5.520048127542711	2.3936600624685522	4.035371293370017	9.097521758952352	7.990797022671857	7.419770222050572	3.11423634696519	3.661968698792748	8.297977426559386	9.288294768724603	8.747285820810735	3.708077898200259	3.4609773071645824	8.541374184978071	9.196273780492579	8.611041047289973	3.6750028040607434	2.3402137697262937	7.808576087310387	8.890738464796696	7.790886859297187	3.461189976536604	7.923596362135956	7.833705405484246	6.0766863669515425	3.3817460451575907	5.431395516987728	5.663924679761244
228	3.4775321395812813	3.8606355092805424	2.463383906820715	4.101944913044464	7.258616905959642	5.806160912159701	5.0708327165369775	1.7166907743980722	3.6116142181764723	8.648376443008699	7.427275162064583	6.998335343811615	2.691346400141649	3.537997713693147	7.940981368042991	8.737730004184469	8.416070916861814	3.586117020135988	3.6452505496497767	8.313397386542428	8.709691025678602	8.411846139650802	3.726801147588412	2.764212362939858	7.825056533130594	8.670409180685004	7.762732009362168	3.7300786877870467	8.239929178414929	7.853276232918965	6.129386409543097	3.859940757542794	5.534153447483905	5.756074890862815
232	3.130405179703298	3.723569860594007	1.9859090993332904	3.6058308987178074	6.764440042583296	5.381064878229303	4.750640380309253	0.933132348088861	3.2060553946612256	8.236127832599331	6.931350213670677	6.613808138361554	2.232847446526298	3.4391829880667757	7.584799747390749	8.14283655018106	8.014986971646428	3.4455602082044834	3.8680996797176297	8.028489092584017	8.135250071013202	8.128052690965456	3.7738709354486986	3.1945950904299063	7.816802481942938	8.395511606000637	7.691601256978279	3.9983138937138216	8.618164040741227	7.843263129459139	6.186965449925068	4.395750034678165	5.629877076240028	5.846661552926587
236	2.7685823370651774	3.0278494281616894	1.6136627156524557	3.3671233569010526	6.274928553951029	5.182502256660313	4.583226192346923	0.3071026198262945	2.9392423555552005	7.8972801962783254	6.574785215944209	6.317933066629319	1.9099020909726385	3.3834891233850013	7.26783369136728	7.618199329215603	7.619529704883631	3.380766383218536	4.079082001877822	7.756112555948704	7.613175372929459	7.8528680603125744	3.8966669937934535	3.55873750741825	7.802398185104305	8.180979708043742	7.673305015264218	4.350924480897296	9.024213768109606	7.888473967662864	6.347693427271954	4.92524384208766	5.799480423590142	6.019638523162469
240	2.6489269666549977	2.1774711553910855	1.3644722665669407	3.5300581366105312	5.789279923127614	5.179418073928842	4.5053415184712975	0.02073247725497517	2.9074010775594203	7.646326045758359	6.373752101064805	6.109055026842965	1.8230473949181218	3.3768365297891267	7.02008054868225	7.251699429323055	7.295326691328385	3.4442095669572828	4.229953755189534	7.565662364931742	7.262793045780642	7.6731076046812206	4.134127606444656	3.8144926928534626	7.808418731048577	8.119272211556472	7.777430514726668	4.822359549744879	9.409845328415276	8.043872812943127	6.666178209640465	5.392340646480863	6.098505958418671	6.326486094714414
244	2.9358630106235473	1.5913480480070736	1.1898230284214617	4.076968659598001	5.315306173256167	5.259556280208446	4.389846313837357	0.0640217585735405	3.131992809017527	7.465208988415343	6.274950488460251	5.926814064320901	1.9384562920266446	3.4028656396782435	6.846412164568719	7.058526974976784	7.064317208574225	3.611605396689068	4.290015209810843	7.49040220276824	7.122819882529304	7.6271924779966085	4.459245193667026	3.96331690741302	7.852817515573932	8.23380182094749	8.009607294841162	5.375951276557643	9.73097512649366	8.30290601541413	7.118938904908487	5.769098744131935	6.520616514909096	6.753101331827011
248	3.5568201452099557	1.4623604975972624	1.0059449647301306	4.826998221608167	4.875679480640532	5.273247228660208	4.105233658916287	0.22651617171794997	3.5355081468964538	7.304667931234	6.174731238987939	5.680022702181538	2.0937712139672757	3.4227251920115256	6.717213613716935	6.96994302897241	6.8940734689222625	3.786849727606482	4.256819714289184	7.506353836181335	7.131391030426365	7.687973003050671	4.788867938348724	4.0433268444973915	7.9301376142556705	8.466775872788485	8.307408311850518	5.922183975526439	9.961769078852857	8.601052262525153	7.612049083564627	6.060739501910017	6.99439523838333	7.221986752396119
252	4.187510003007876	1.668132062515056	0.7440565805723044	5.512871728329872	4.5045294647929275	5.098103510382921	3.5845460801222546	0.19795873711197287	3.9625234503837734	7.103694420999222	5.967679962350049	5.296776281335178	2.0729749150390684	3.3898174677141166	6.577882750116076	6.867946130578804	6.718997938358426	3.8459410570318755	4.158767212858276	7.54238317492704	7.1605624971801065	7.781236152076679	5.023509489727746	4.109089364167783	8.011504153051705	8.710758187235966	8.573833443929324	6.364872916364322	10.101664517647604	8.854089714584049	8.028597811455814	6.296439154940422	7.417294006694275	7.630393485831544
256	4.394000042311978	1.8723362636977932	0.3885361244405646	5.9015450328600405	4.236969937117621	4.694966304369494	2.869519226458774	-0.2679098241717678	4.246548641927421	6.821400625172639	5.60158060566938	4.770938384408396	1.7155027346214087	3.276750794720774	6.377074702374776	6.649104578396951	6.481723769035611	3.698221197327928	4.048305024416464	7.5192084122597205	7.08698270915787	7.828635195993874	5.096312986858388	4.209773053031013	8.061929682404374	8.866836525464953	8.729511238946431	6.649032099149087	10.175666783390943	9.008622146750044	8.289860704472945	6.513929827456496	7.708634357063448	7.903937319827191
260	3.868225803145656	1.7444446042840553	-0.019909465635220225	5.895093426125841	4.096671094088052	4.127824772903439	2.105406517435214	-1.2145130603644354	4.289033878941738	6.46555231369314	5.109366404031242	4.178154457987551	1.0033698056637563	3.098146907613722	6.100079521036768	6.282475455634856	6.170242293991948	3.3338909064997266	3.986137380072689	7.396507244509208	6.859351140823893	7.789956550003881	5.005646692989399	4.374481190127372	8.065209368370214	8.896659828612313	8.753732659173364	6.7843041248695695	10.228327725335623	9.074405647255343	8.395397165082956	6.745765192166578	7.851384143079993	8.034897783974086
264	2.6245257788198764	1.1597092122362003	-0.41723570122281095	5.565495000139149	4.089094151663335	3.5374972730968763	1.484224434919991	-2.4481747088610675	4.1153182879496635	6.1020798529103795	4.5997624281144995	3.6489107516669024	0.07803069035379559	2.9172627852219	5.789555058167203	5.829787239614698	5.828673348015948	2.8324832844746437	4.022168626167022	7.202610474521456	6.526352865907797	7.681986312544546	4.816038119554539	4.609285342976931	8.041656473837394	8.840286232563235	8.692984559045977	6.835370523361245	10.312999699303976	9.11981484971638	8.421100595193844	7.012774926599866	7.900183657727293	8.08495710239018
268	1.0402742598018437	0.2617135041304967	-0.7654542307601323	5.112933622802753	4.20224617850778	3.0803704184007907	1.1598893374722568	-3.6318213847972074	3.871401300192692	5.835887417364189	4.207808960781333	3.307932130091267	-0.8251700976519057	2.828844778548161	5.538034425104721	5.415166364349259	5.533072934486144	2.3259696901724127	4.179846276220585	7.027461987872599	6.209226592599577	7.563708763099516	4.6270460965636815	4.902564513226462	8.044741610243179	8.790084816674357	8.63264463152498	6.886478883522736	10.476549122108826	9.232105231818128	8.476583459433645	7.322985630620125	7.951203326177583	8.151028612538306
272	-0.29851558729144084	-0.6396324618402834	-1.0837793322856928	4.771781432501971	4.412898052518171	2.8616690563430955	1.1763148278101199	-4.455366123394836	3.7551801109872214	5.769318089224155	4.030298699693859	3.211042396067702	-1.4915316067231363	2.9201278612797297	5.4529604774130185	5.161931501707366	5.347085462421537	1.935161704899648	4.44992779561926	6.981636983410659	6.036529525774853	7.4996990968182535	4.527685630811124	5.233713613647716	8.13703344198038	8.838446594811533	8.650579430674036	7.002273065054114	10.743454906041888	9.467469191490004	8.648116089920977	7.672901611029397	8.092277506424432	8.315010049807398
276	-0.8801314212512399	-1.2648115126147634	-1.4393411838431247	4.711201179053846	4.692369926049634	2.8927819655815594	1.4421111308881331	-4.795603740028495	3.9186475178010682	5.9554591028533155	4.078963746262886	3.313074818829504	-1.832247967862422	3.2282307066474747	5.607973084596112	5.131660448469584	5.285214887626574	1.7130110220575092	4.79576348047609	7.141887646763389	6.079012855440542	7.525597076489196	4.560044277122249	5.579957947948094	8.357657411455095	9.030471778958063	8.78087423014976	7.205961209223689	11.104750605202947	9.820856069565073	8.959524132042462	8.048675516788423	8.361661889899576	8.606085755554437
280	-0.5309103117890054	-1.524736519778645	-1.9007087897949826	4.9759278171794215	5.010878073438837	3.0947532575673584	1.7679213240810445	-4.774358737335551	4.388976086025834	6.371493800289257	4.278425682709976	3.4870786578829844	-1.9233679722862966	3.7169215585325452	6.006094440555064	5.300858484236247	5.307313428830546	1.6242417056083513	5.167335020370481	7.513569336041047	6.322110636961789	7.637018184453734	4.708982455762329	5.9192261546415725	8.700904824223734	9.349540686843898	9.008293129111715	7.482302169982294	11.518833131318132	10.234312031655962	9.372179961383907	8.427837350547929	8.738298394075613	8.9963016282875
284	0.4896174656904094	-1.5468084773111146	-2.481657737188396	5.488211141081343	5.3403019770260665	3.3444335376224013	1.9506726215703865	-4.685995566934868	5.049853312140483	6.9263677422171925	4.509780872402961	3.586936226371713	-1.958861703695402	4.28643082490168	6.574458105654507	5.585487351620657	5.347533689349117	1.5717058142080937	5.5174155095989175	8.029762247793206	6.687914354605118	7.805906752905505	4.919800745940513	6.23132179594345	9.118957496508095	9.74109265729087	9.293131804845203	7.79867742476824	11.926426857400873	10.638003322445822	9.820623373032458	8.783431984659904	9.165899253591727	9.428605055845939
288	1.6168229539104682	-1.5637049635508038	-3.1117651383990412	6.097063049181591	5.653234944375636	3.5352847486883996	1.8636435223256973	-4.838788020314973	5.694308266568078	7.4973020364300185	4.674143302560495	3.521036377600106	-2.144991630860662	4.812678324946323	7.193256836849758	5.894973263162277	5.359940992174237	1.4539889060504054	5.813926205261433	8.58656690336983	7.088783246262699	8.010461787026506	5.130952822128597	6.500499232092456	9.54791543457303	10.156472180473095	9.607532476964016	8.128026941758979	12.276220290660797	10.998498888857437	10.25990388187211	9.092527366569943	9.594080900765068	9.858459447766032
292	2.2729203643633564	-1.7402887300422285	-3.656930437391894	6.646556837467104	5.923554405515654	3.6229813007435987	1.511194821357024	-5.393598066063871	6.123695358074312	7.979403475642517	4.742169368215162	3.298942796007518	-2.5912921363256585	5.198649870144934	7.746544818393515	6.182847007400066	5.352020250159323	1.222784277689744	6.045752986902689	9.095126129075588	7.478215198709654	8.25663469137324	5.3030514583212875	6.719967825135763	9.942701314618771	10.58724972912914	9.957861875188405	8.459107377629623	12.55055615117422	11.344037981002613	10.694834682165618	9.346830344443514	10.010457967279734	10.282537434366237
296	2.166378254189234	-2.053215975345913	-3.9810533423047634	7.033844453219033	6.133776649247589	3.6361832526908575	1.0247979138249874	-6.286244853360935	6.242832168076254	8.326300600010827	4.764305579554537	3.0278525276032098	-3.254316560158274	5.413791165988473	8.17057798230096	6.464664919743964	5.38496635984787	0.9103801227472875	6.222585662390068	9.522002196113064	7.868647555511993	8.575121857927535	5.430237756370534	6.897461873759899	10.300894711236394	11.067112894726684	10.377437565352222	8.790366150596986	12.777253118680479	11.749484032530228	11.172313661978166	9.559178328221352	10.44333741412383	10.736113521172728
300	1.431817289552123	-2.3071830214423787	-4.0189375775911955	7.232914906360227	6.2818674882596826	3.646150818202191	0.5995862468840174	-7.274251442663333	6.100553020333669	8.558910348263876	4.83298205109135	2.856507532537157	-3.9651217360522626	5.500387177885318	8.472096421786283	6.790687543890319	5.534914002749319	0.6099152549603561	6.368854983462423	9.893227552231474	8.303831079498709	8.99112603778543	5.528498158801893	7.055887681312793	10.658225986274159	11.636657685464014	10.890607806366162	9.11209676349319	13.01706406167853	12.28601452586556	11.739293068810841	9.759460424578482	10.932110758837062	11.259085626785943
304	0.5370125160964138	-2.272608989699836	-3.8171498679108407	7.28618572302871	6.384742243859323	3.7185282613330544	0.40579312937326745	-8.06805131782593	5.857717022411614	8.74278161702572	5.022828089430394	2.8991174624680296	-4.516996849099829	5.544779763527632	8.71076200193322	7.195934754323466	5.840591415917987	0.42404526365030537	6.515562517882062	10.263421986416452	8.809185959509431	9.48981187331836	5.614375100265984	7.227276783815869	11.059638949127876	12.29669472450803	11.474789590474742	9.394082045679195	13.332536663726277	12.966695752784702	12.394914595781044	9.98176667554309	11.486722917165805	11.85435292112044
308	0.009602764597132342	-1.8509165001868093	-3.5179603011003038	7.273631077522078	6.473767264233922	3.8751065633211548	0.5172140585238719	-8.473110177582063	5.702559933569949	8.946818329157061	5.343577371457495	3.1789164462891932	-4.766133296377315	5.627686963177931	8.955448128024432	7.6607327267827765	6.268865569499784	0.4099209000251536	6.690074903763481	10.668458911663363	9.35360524677016	10.001560185930128	5.68810747617846	7.440077286055699	11.521670312402279	12.980781522402458	12.046668022258427	9.588565802207214	13.751673663705654	13.719594920805688	13.066543546111712	10.247646305914289	12.06205269629185	12.464584319115888
312	0.14066776597747438	-1.1628837556089227	-3.292428008350016	7.273962002509035	6.578485472282522	4.084112157047007	0.8881611205565284	-8.468295075970685	5.757874951130487	9.201909042013995	5.730607495144644	3.6192624477561615	-4.692235934808516	5.77893589468083	9.235477424192426	8.105896929302643	6.7194766828640535	0.5509271011748081	6.903519613002417	11.087684603353944	9.847049688273355	10.419554684081337	5.73135660631829	7.7021550937741425	12.006144493308005	13.565829242788148	12.484875647494832	9.648203825433107	14.242888414662723	14.40403553187061	13.625410045555201	10.551756832185058	12.563231436481573	12.982339826231533
316	0.8334282615600416	-0.4966582047320815	-3.2567465223103422	7.334412556250455	6.7049517462247	4.282721508657382	1.3857732976258315	-8.184694269496767	6.024028762866961	9.481359457873392	6.07914827719313	4.0858030216057255	-4.390167702081175	5.9609789697827384	9.515877699668566	8.428893068013524	7.070636731415936	0.770967660387936	7.140306931587936	11.440853090011107	10.180134747552025	10.646816226781482	5.722465023851726	7.989173392152274	12.424145667179411	13.922321284429596	12.683860746784923	9.55268571349165	14.717923127208492	14.867620430602516	13.94022938069786	10.859490367174708	12.8847455653085	13.294300999455135
320	1.6793327289143893	-0.1467433568110577	-3.418956271122604	7.455381851446746	6.8195061511478805	4.413394916835765	1.855241174782214	-7.812909106556039	6.387517436113059	9.710085844319838	6.298949702572022	4.45312498875694	-4.005872239489416	6.088717445259791	9.709273313804312	8.557853677123965	7.239384156069236	0.9810700391795304	7.355612259413483	11.621715516312285	10.281052563459342	10.646220180335233	5.657909379025699	8.245977380914306	12.669395414790195	13.976434672354497	12.608900992030332	9.327693915658822	15.062622032283034	15.014209709407218	13.940769160359581	11.118343325200366	12.962480512316828	13.336200680440658
324	2.2097682897089572	-0.24516485569567736	-3.683468809364686	7.595286350147476	6.853882772307426	4.452628124439347	2.184077257364153	-7.49464653030269	6.685313684750844	9.798259710369194	6.357353671235602	4.658953654924284	-3.6557452586381727	6.074566825788682	9.718463873168316	8.48979566337978	7.221700650101919	1.1300282449802048	7.485074978050244	11.550174683973378	10.154558156124901	10.462856266308437	5.564368710774318	8.401862123257553	12.66390606543882	13.747924769977327	12.319218604456045	9.042996383723805	15.180983505067697	14.845766030022927	13.655816997382727	11.276310892245384	12.807949033825146	13.127097096679043
328	2.1660287325531535	-0.6928725821167843	-3.9091546436795275	7.691175918234236	6.734577161951905	4.416066635426431	2.335269445245369	-7.261531334663222	6.78515575603197	9.6833228820461	6.287470801691581	4.71897743941019	-3.3746197138462373	5.875402912564716	9.488999342802833	8.291087129640747	7.090795975902393	1.2307167022150047	7.467583637457198	11.216978998474284	9.880997632828757	10.205073330863085	5.493443952042252	8.396240213176531	12.394755332170606	13.344023670838387	11.945599525809499	8.789685227136792	15.034026107977791	14.459827386588149	13.206632580792201	11.300312967380098	12.507227866066328	12.76590248699527
332	1.6306595761136933	-1.2298079698030533	-3.988935460509961	7.689106444972858	6.42574499415253	4.3405718693816855	2.340703004649375	-7.0489997685799395	6.643712026988447	9.361858344283501	6.159774764721501	4.699886786992569	-3.1170267980079496	5.5185704091931695	9.044854141287473	8.060493448887492	6.955188256823383	1.3482735122972305	7.273846131079884	10.696911784821507	9.576010679863424	9.99245450358007	5.500198827208304	8.204828241613901	11.923331230577634	12.911199537104503	11.631629914480614	8.645297982323111	14.65495105858086	14.004172289777141	12.757052389361363	11.186605425247746	12.183817832703172	12.390150038908308
336	0.9481158232593139	-1.5956467349774217	-3.9042549034727823	7.57051561351568	5.963135704243846	4.257783879020637	2.2652323188810577	-6.764413816539661	6.316342814710726	8.897202469296976	6.037239536301625	4.669838416707106	-2.805906527110713	5.092992769734202	8.487997987297893	7.877491454262858	6.899980050786012	1.5557482203305362	6.926758748685931	10.122628186417918	9.33438394097152	9.897856687351622	5.614987836012728	7.8528251449684445	11.361659974976675	12.5697803179958	11.468070001258308	8.641630150911473	14.133402788718444	13.611715282406184	12.443211524064868	10.958188029279036	11.94290444219814	12.11598679344572
340	0.4890241312554908	-1.6847869115254357	-3.7262210751869227	7.3639755063100925	5.458213792371678	4.178930748879146	2.1675784533134013	-6.360683901940084	5.921755775759453	8.40102193618692	5.944615825903153	4.65951536909523	-2.394637817058979	4.710077750711957	7.9626173772046736	7.768822173531362	6.94649027024256	1.8842663717380461	6.502191527162646	9.633804296966044	9.192441917098932	9.917172406907348	5.824749931888158	7.40940044439731	10.830021830872155	12.368216483360657	11.456599206609535	8.751256920654223	13.580189670608336	13.351342167524011	12.320043532737653	10.654891940872421	11.828646629986613	11.992309540034828
344	0.41589817299742815	-1.592258210930496	-3.5676357656050124	7.134494763481273	5.062831865879688	4.099904050012507	2.0807633347429153	-5.870461449106732	5.585271821225692	7.996843794659764	5.870144352397328	4.657279479666061	-1.9040092181771529	4.456108082011127	7.600246887091739	7.712243537504775	7.053450089766213	2.2981178702506666	6.106655582268944	9.326259589490567	9.129310584860862	9.984346364562457	6.076212867654642	6.965507489738003	10.416278812812752	12.279692618838064	11.522891015524197	8.901283241686576	13.08953091177633	13.216839756974926	12.350763289740172	10.322408650085885	11.81655594703374	11.99186608147882
348	0.5915536865557869	-1.5313981732805029	-3.514903298086782	6.952575666040184	4.9057445402264905	4.019872178418914	2.016870016727961	-5.385077939742608	5.3899612290674375	7.779242019086109	5.794502720508226	4.636838901256974	-1.4135214054659304	4.3604535946427685	7.471422176571043	7.6714043423564195	7.156237107328967	2.710136406731782	5.8387489171433415	9.224023795681305	9.101839996246138	10.022043202846188	6.301315768545053	6.60316370250586	10.154176686399301	12.23814770469735	11.570149392480076	9.009181953572362	12.714547125186453	13.153644528557818	12.441164938987027	10.003684018627403	11.841691940927797	12.04058167278649
352	0.6827396137166168	-1.686632390532312	-3.582351198688587	6.858696443407333	5.033419596361662	3.9576454062676714	1.9842343280286199	-5.004058825256591	5.35615538198482	7.785131911649363	5.723670468184619	4.593729961241302	-1.0196422312742226	4.392219532367743	7.566016654939392	7.635897617134786	7.216153603454548	3.025965682972964	5.7506599281079325	9.284512496395285	9.08707711786544	9.995758985078076	6.45060728351847	6.368986113680598	10.026913617567777	12.18845841191509	11.540357560585077	9.022674537766811	12.46343037319595	13.10350986987092	12.497529951967278	9.733621572715007	11.844223946231462	12.066295593314829
356	0.39396932621670305	-2.0919713921181824	-3.7138752843550558	6.843466264612778	5.387687192665708	3.9536263842899033	2.0022089430802845	-4.783133494698651	5.45084665829604	7.98902318844782	5.702260479835354	4.565636146462379	-0.7837370018245075	4.4873056298449585	7.810117225001808	7.639798621916197	7.250411968999157	3.194158784431252	5.82886694390169	9.431213355094725	9.104876495261909	9.940137838062745	6.518204195731837	6.263695224206442	9.990615819502683	12.121639221104788	11.449779481590133	8.94560907012691	12.313392608071828	13.041242566561332	12.47744557091447	9.536603903534694	11.806783646338198	12.040523498653334
360	-0.3266516021587587	-2.6179923945132515	-3.8275732897442656	6.853864175658303	5.83408544974789	4.051342953943705	2.0984337276884144	-4.714905726926574	5.613480076922296	8.32051751897074	5.793360218680056	4.618458736203282	-0.7013874036246749	4.587470519881373	8.107306459938734	7.743383864879767	7.321828346840088	3.2332279600528264	6.003047451121838	9.593427633859978	9.204117751725216	9.939253781973667	6.54386041896418	6.249564631895927	10.001355145952619	12.074000328097622	11.376705140954314	8.835692383392704	12.230078666326609	12.98244473040607	12.405437438161703	9.423559165050573	11.761055916656286	11.989081352481945
364	-1.2444673745206807	-3.0711505335516325	-3.8739893338623057	6.824985963756116	6.2303395114000315	4.2689576041206	2.2890543879890037	-4.749907481598945	5.7834057661905405	8.695875145891705	6.036086544056	4.804567324905767	-0.7110360246826203	4.668544757500167	8.382976510817441	7.989764193389796	7.494389038237911	3.2188205637726734	6.178812011377539	9.733695959311499	9.422809577039772	10.072118733725619	6.589689714960533	6.270825370215051	10.032028172913751	12.094071357710034	11.4093846986721	8.77359960248258	12.181979148625784	12.9618177086686	12.34761425715535	9.388308501382248	11.761473626005817	11.967840164486256
368	-1.9767439315478976	-3.3242316162103935	-3.868531217344714	6.721193296629251	6.497830851361888	4.581566799040566	2.5592756206746805	-4.832792269902865	5.916665539108486	9.049949623147167	6.41051386168366	5.122107016029105	-0.7315490823395701	4.7447848200213025	8.610869385913453	8.366534211969793	7.784612635985391	3.2398972429491963	6.278299792651014	9.853027318873497	9.751018499550966	10.357972118929201	6.704640848398337	6.27718017900638	10.074633572891631	12.20266911286798	11.587459534953462	8.819996811532919	12.146426170199922	13.000941243726071	12.364260642306192	9.406440711114302	11.844776123659269	12.021562545942418
372	-2.224624866591004	-3.3916010770998724	-3.8782832524610837	6.562426073671945	6.655758840922875	4.925384509048975	2.8580486702285786	-4.927062022167298	5.990349277630949	9.352987265814688	6.8332199877831785	5.501169667659954	-0.7053764444661965	4.84798430172486	8.809555985143263	8.79715058966677	8.138549784139638	3.348348370681365	6.2685623010679326	9.97412679061365	10.121058438497077	10.733606311401227	6.895289880509767	6.239585383874247	10.129784558470163	12.371046988724604	11.87025925500362	8.98152635214072	12.107627838083522	13.085873570782146	12.467985121719606	9.439170813570728	11.999716728431656	12.150055854639
376	-1.9411816547974738	-3.3944044027458706	-3.9724559683640677	6.421781523703553	6.796093923576375	5.222749220059676	3.1129190843189796	-5.0161967150880065	6.001161083328749	9.605903601235706	7.189215165107033	5.828065380640774	-0.6248546226937866	4.996578680774744	9.013821579109964	9.169624305462206	8.44968793643026	3.528776636751096	6.1669707142577765	10.114842389318435	10.43274018514668	11.076999636339904	7.1174959956714074	6.154061301906337	10.192521069542236	12.529738394573947	12.150280921777103	9.202399230611391	12.051866500944032	13.16790291322641	12.610661474813972	9.442561125756994	12.164650886340432	12.300910918650217
380	-1.325718518724721	-3.437804451845891	-4.169383992158864	6.392861350131549	7.0117893041963475	5.413752065341599	3.258515349744231	-5.088804708984279	5.9627213327544135	9.818713163381519	7.383754711582421	5.9963021126989275	-0.5306380973770034	5.1744932997713535	9.238903976002623	9.386774039411025	8.608675934991258	3.7040045167865934	6.023303016714008	10.267508480851935	10.599296543063568	11.26462075250439	7.293022137348608	6.034800514243574	10.244216893081152	12.60180279411124	12.304099051881913	9.386270499373234	11.965314834902788	13.185899701205873	12.705506292689746	9.380149817625991	12.254634826237755	12.392579047386063
384	-0.6652622802150581	-3.4951472194165683	-4.413382042232525	6.541717035943469	7.31858156263808	5.474597440249015	3.260533801429809	-5.129986750048517	5.903813347215886	9.98497674328401	7.382709007697121	5.954455360637832	-0.4886519002498083	5.33353375041962	9.457771277390954	9.407583212942471	8.55559823737136	3.772215356839597	5.891593441393467	10.394338581544904	10.585575077033758	11.229455919524327	7.3426446729288894	5.904008850450256	10.255107853747013	12.538844076924004	12.251131026808125	9.438079810155514	11.835974663415376	13.095089879352628	12.670361486870275	9.234666801025528	12.202204673477063	12.35372254113651
388	-0.13180935349564354	-3.3898646745926597	-4.598850715470317	6.8697461908464765	7.619174938038823	5.414237008730268	3.1232137601200143	-5.125696646146995	5.862885937193486	10.068883870452535	7.218147259607961	5.724154457898973	-0.5586355314455684	5.419117437032155	9.604450201581173	9.255452132699125	8.304454782500065	3.654783478092505	5.8064493986396855	10.440160724983901	10.414808247020567	10.986039133945047	7.2183737572575355	5.78347252339252	10.1948690157033	12.337357489908296	11.986707657114403	9.304143882148944	11.65679451860409	12.884183851137555	12.466407744404252	9.012953735484226	11.987954109442798	12.155657737559427
392	0.31684979716412726	-2.9050609992114467	-4.630791175594753	7.306586723953765	7.736965636746557	5.252716051191292	2.8742258476169344	-5.088704096344152	5.879159435687555	10.015153859601863	6.956677419264691	5.376767621770425	-0.7760954479650164	5.403377519316767	9.603202795578463	8.990532852362122	7.925116995829626	3.3275008117587803	5.774743065559336	10.35605904825532	10.141632054472966	10.609169933236393	6.91788576286849	5.6907353257506825	10.045593236356066	12.028377502590251	11.57230660377834	8.99021051044399	11.427725763078918	12.572528807368744	12.11186310571199	8.742804505209255	11.644913644000297	11.821029633240707
396	0.8556146004055462	-1.9641514966965727	-4.483094204074342	7.736718158262074	7.5064692307733285	4.999243246808056	2.540536874078925	-5.0816802850215534	5.981506809391555	9.77912042056156	6.65345381010594	4.986790167615864	-1.1484825582118106	5.305426107363143	9.40887830266088	8.667658783963434	7.498000126027866	2.825561039466486	5.783862576186945	10.123573277663091	9.812778448125506	10.184099171675317	6.479333384367574	5.639430508680507	9.811815237068368	11.652762383604506	11.094909639956796	8.553281762462657	11.157246561491306	12.194513290134665	11.668022126302795	8.46435354003093	11.238293619392149	11.408177346990579
400	1.5890303810054789	-0.7584978918952491	-4.219433773831817	8.048900583926526	6.876007062717876	4.649606216135629	2.1360304301691753	-5.208078848087437	6.175403102542151	9.362633681500782	6.323782904871385	4.593122947540442	-1.658990736587513	5.1862201559734356	9.03831098181913	8.308871248248192	7.0706386387645646	2.223923915970215	5.817267880057684	9.7689313641908	9.442900633812776	9.759902929460177	5.962619766439973	5.6394615030957125	9.52341077307484	11.241147012939633	10.621907207374157	8.0736970697648	10.862990351907081	11.783754319003764	11.208291025473757	8.218914964905974	10.834169360463735	10.982514353680509
404	2.375509017668798	0.27594652702279965	-3.961655129920878	8.181260088292058	5.965481743056282	4.207446087704857	1.6705573755048433	-5.565643296494977	6.439723952247119	8.835500694855591	5.951966270678296	4.192477215672337	-2.2712767066831803	5.1200656761599905	8.57670209626583	7.909486273823191	6.643215639508011	1.6060682494622183	5.866689667194868	9.361641860214224	9.023230529891872	9.334748244559467	5.4285845619472175	5.694779381679193	9.230539298594543	10.813218089459502	10.17847344689704	7.623409251992976	10.571647617352124	11.36844155302352	10.789573642192538	8.038786867826573	10.475566837565408	10.592532131154377
408	2.8252842354968477	0.6409689767867077	-3.821689596064052	8.14239309162505	5.040198313385562	3.7144203092255057	1.1754507988816372	-6.180718883168378	6.7319831678178295	8.32523057743052	5.5298952916719015	3.7685902023535105	-2.926909200907994	5.15677116999432	8.15205953447174	7.470829944822049	6.19176720009605	1.0417895290774979	5.93382023266869	8.995907760795816	8.555538155889577	8.880473114480816	4.9277434224646495	5.798820957802011	8.99103829974854	10.39402291534697	9.758472417989179	7.247404557049963	10.316274616898246	10.978790255484345	10.440963718756288	7.939469794255303	10.177440617614979	10.26217648776237
412	2.510632747033454	0.042635489147545634	-3.8368186853813233	7.999685744115479	4.403930652943644	3.2632050431833184	0.7239980679352642	-6.962073308533294	6.998684388610538	7.972381094831389	5.095333086500755	3.3342540179947817	-3.542247763273481	5.294289575561426	7.886544684525645	7.032070142157839	5.710570797807536	0.5807291850686813	6.022419914299246	8.759832360085698	8.084070185278161	8.386651017949276	4.499698627555369	5.930959209726695	8.852986313402752	10.029970143744142	9.355839705687858	6.963072282377208	10.129044507202499	10.655552837172023	10.170126889300926	7.915108183904212	9.938020681085668	9.998433087854528
416	1.2732650009433348	-1.4069483244659855	-3.947473992871721	7.841236094704735	4.260658253403029	2.9736521168971572	0.4230823804187124	-7.706174831007646	7.18723247620823	7.869785288968592	4.737038123568693	2.9520749971243636	-4.016146172874121	5.477020249843728	7.845065097075439	6.672653181395358	5.240992532849309	0.2546942823655342	6.126741870670379	8.702159859620956	7.696872691748905	7.890223960029051	4.1740908517356035	6.0568008269932045	8.836306549650919	9.784851049514376	8.988907791331068	6.768747789459627	10.028336499644263	10.445112202022182	9.97486398085837	7.937001208293518	9.752236341649942	9.801547025729548
420	-0.5674412236192286	-3.1823148647071267	-4.030500878648426	7.7363009257497	4.615546214848331	2.939491502969733	0.37383973504094764	-8.165150621779995	7.25858400419581	8.017021158958187	4.558300960476259	2.7174789836938347	-4.252326000921624	5.624632344350194	8.007255533982843	6.47933243069326	4.866795527568479	0.08246783146302669	6.22794674254621	8.812478996915669	7.490504245919838	7.470330696318672	3.9684803385675864	6.1372375333330895	8.923027016045742	9.713552450451223	8.700472809759493	6.653475744615163	10.007401441103369	10.380125973243384	9.8501729716517	7.959269503525381	9.617648100412596	9.669550871277648
424	-2.258845085163053	-4.553529251046168	-3.9716231722693682	7.712176303465638	5.266762243325018	3.1721517959614234	0.6170371159233627	-8.152489641587353	7.201845150884472	8.314790704715179	4.616368282106998	2.70842694552394	-4.194743145842397	5.675569519972322	8.275809267130493	6.494181139762216	4.673909175516409	0.06721851957754678	6.30166099864672	9.023512817488816	7.514934520821536	7.208600026050523	3.8811564347505825	6.143568977103725	9.060899711620497	9.825979207979874	8.532075860416587	6.600394709135166	10.031439755862014	10.454914066621457	9.785367940992563	7.932639101981289	9.529360747119876	9.593653654672396
428	-2.936882250046633	-4.915867793069584	-3.735380640135721	7.755793075053514	5.895662769691298	3.575198879752177	1.0924885245397054	-7.639117221618845	7.042949658731933	8.606222130981338	4.874340521903679	2.930107824557145	-3.862188091063732	5.620659813995233	8.518200852822224	6.67670009834681	4.696964728894478	0.18598489416372643	6.33254097293399	9.236232734249114	7.732616405037567	7.138617497540689	3.882476081582578	6.0719418372394	9.18089006013347	10.065048192361633	8.489616372608747	6.582638247082828	10.047644589805476	10.61249634924362	9.755643819973859	7.823051432885412	9.469859099320885	9.549978232114208
432	-2.0775928444860274	-4.07926653785758	-3.38912724592936	7.834226588496846	6.2157883487170436	3.974489202001512	1.6441326099847065	-6.784252149619457	6.843871576196227	8.750563599427947	5.203276144242141	3.2935490525061213	-3.358664742573043	5.511214242372143	8.626581170236578	6.9118928734793235	4.889050948197104	0.3828475763668531	6.327878459212852	9.36176488420073	8.024380663639311	7.2200193222863405	3.9160687824560165	5.950249180075942	9.225636458946276	10.32080266254111	8.52803132765092	6.5612406564996455	10.008837674620251	10.759425136104106	9.720998739494924	7.629124145319612	9.407067275138598	9.499894118165951
436	0.18001909508554217	-2.3646280705832328	-3.0687394064672655	7.921111086873675	6.109016403033247	4.197538842093883	2.078555578706009	-5.886671051421764	6.69135902622728	8.694007851584896	5.441560731500638	3.647382011741563	-2.851496689272831	5.437743173221702	8.568139054600438	7.0665449917717265	5.136590467835799	0.5747443423065394	6.32094572378724	9.361940360274506	8.24546525780769	7.355976086164274	3.914875735889204	5.8323216291041495	9.17671868868404	10.47949788308771	8.568997361483037	6.492825491724867	9.899740194121769	10.806747409239023	9.639448141556288	7.389015179098436	9.30697152648995	9.404340720274877
440	3.0342276019737113	-0.45170575266280577	-2.901301853484243	8.013507822785416	5.680409893953021	4.163699616410277	2.25235914615355	-5.268420206119904	6.6702585051929075	8.49929330587289	5.481873975264823	3.8502912424151794	-2.5162081654916677	5.486835942720557	8.400367715607517	7.064062577532388	5.315233217171146	0.675917325697495	6.359869940913087	9.268007255042914	8.302856424349802	7.446209411894708	3.828446855415888	5.779154286098735	9.065964675902144	10.482413265465603	8.54351327646437	6.346877082059172	9.749691938580195	10.71646783030436	9.48963544357027	7.168756943723138	9.15442750526864	9.245956397554641
444	5.369339929375848	0.9456188058820427	-2.928593151327937	8.129295328596596	5.205207334727988	3.934897651274445	2.144323582003706	-5.145738111855672	6.8263139552383585	8.316513994200575	5.336044774888378	3.8453464410970977	-2.4722733435200728	5.697369084278856	8.243397691894941	6.933287603039565	5.356191621608752	0.630388735133275	6.484209521135048	9.166478133900325	8.209008196132157	7.443794708531664	3.6468682197048965	5.832078918991236	8.962463356278205	10.359768841336773	8.433178880380634	6.122833236494457	9.620880102662738	10.525402042517712	9.287818885241919	7.032718163854201	8.9672727358437	9.043855644280717
448	6.283048613897569	1.4059095347194626	-3.0770862024819587	8.288419702584495	4.992512690337012	3.6924066450354793	1.8696122122291459	-5.545565591162367	7.135887127979711	8.306934335716461	5.135924803164628	3.6921479608778074	-2.7378823688046747	6.036878570573776	8.221286752924886	6.798503381730693	5.284201608667951	0.4361915577366128	6.701283437975905	9.156794524915984	8.07765386449358	7.38113449140471	3.4068517598921786	5.990961536540536	8.939297653516869	10.217010472251403	8.28357217604644	5.854849800586577	9.57514855828357	10.329689953473263	9.085974670358459	7.01014898437627	8.792392708514233	8.84937474877564
452	5.512780175595728	0.9701164340321673	-3.192934266612078	8.488921144033842	5.2316794263359565	3.6443676856535925	1.6227349001922338	-6.301623805348474	7.499075393816899	8.55589673743164	5.063137518497324	3.534468880312774	-3.223426333872129	6.407659514461863	8.398376443639888	6.810365182848205	5.202244268634395	0.14772784672632724	6.9733986678491835	9.29829022920962	8.05892846933822	7.347277145909137	3.174927465052316	6.206323607987766	9.033136344991375	10.175855610905113	8.178494432781463	5.598455891779564	9.633840536589977	10.233092282208359	8.946799255670781	7.073812466881551	8.680984475152934	8.720374085344012
456	3.5399138838085484	0.07801446298929646	-3.125339500165917	8.694565751058585	5.89715145529545	3.9097993275157905	1.5754691322604208	-7.134553414451584	7.769370536261911	9.02115247356167	5.243931280247895	3.5183591753821335	-3.771106233612417	6.683085901553344	8.743108727315422	7.054508668254751	5.22866295448078	-0.14895205162111697	7.224382382272883	9.573599791197637	8.248465517199529	7.428096275648936	3.0137958450520297	6.391754134252997	9.217848754498165	10.301297161796901	8.187931993792791	5.403232560821039	9.753426527193813	10.28534314419802	8.906411148472946	7.144041520201554	8.654963471495487	8.68585870457178
460	1.3229883875823218	-0.6868929845633693	-2.812234156184093	8.84381005915346	6.759448988060985	4.4435415155755695	1.7838966801427003	-7.770483474186347	7.814103106797165	9.546339964606304	5.669515118589903	3.70674132364919	-4.218812455016247	6.758447630031287	9.138819671445741	7.4917230416931275	5.4234075409336775	-0.3741933991998295	7.366239052294368	9.889657949274177	8.623723961991839	7.646493415600466	2.9504966661346965	6.454517825043021	9.408843016711263	10.557522747087493	8.32166002079891	5.28627394295227	9.834778760875137	10.44697472795742	8.947211242974427	7.120682698391633	8.685841538434127	8.722557045848754
464	-0.19021989357129276	-0.898837206478518	-2.320483678681137	8.87481687212449	7.495592575222177	5.046862589491783	2.15681600026135	-8.046204546640853	7.57910440438755	9.934010480595305	6.189136012663728	4.039401997858131	-4.4616136438258405	6.593885881942127	9.435993170756486	7.966395834836735	5.745680794514547	-0.4883513140269649	7.333958607276991	10.116650555817776	9.045592285206508	7.93851850412709	2.96312426772635	6.330833895911933	9.497647261482172	10.819573375087987	8.51645658250192	5.221365915467221	9.764680837773309	10.602322551661885	8.998398758103981	6.92784593740389	8.700616814580906	8.758631684124374
468	-0.5044344054837803	-0.48346349474914435	-1.8166513397127126	8.75795362168712	7.845025996428565	5.464824185879159	2.506391757359103	-7.9519390859108325	7.1244020282162275	10.044350598724925	6.585711462559688	4.364944446987387	-4.479901779308232	6.233205302713597	9.523791289126125	8.284579256122022	6.071422084738272	-0.501146076844469	7.1157645999543435	10.149867985848656	9.329781508732164	8.183311441741468	2.995472662038599	6.014148696973938	9.404061293700876	10.93903443435669	8.667846657803292	5.152677046164325	9.47296330921295	10.618503543747495	8.969078994994412	6.551829321531952	8.616556145847825	8.707459427783844
472	0.24881951448085332	0.28620126771193577	-1.482565160822923	8.515328385788461	7.731538753062749	5.51976059473704	2.653731577848922	-7.603751163358526	6.60868738413254	9.867051099660845	6.69318483570143	4.527253616346883	-4.327492226165197	5.789689049408319	9.384282088428547	8.319182374931142	6.262004359647722	-0.4548744547803549	6.762645704361508	9.963273976920346	9.348922705888427	8.270145395379656	2.9904847069578087	5.562114224696026	9.1194686659404	10.827772113165434	8.68837735843505	5.026085364049856	8.97521302818205	10.419014904419614	8.79740331335998	6.051974758127215	8.38705728320704	8.514404275378196
476	1.4802987538157055	0.9784352158638866	-1.418884989017147	8.218297937624815	7.2919072920755434	5.211058603481526	2.533749573986198	-7.165657502202643	6.226005061642909	9.528318381094676	6.491904719174702	4.459829319184349	-4.088682164359687	5.404489503566889	9.101746536163365	8.08463476047205	6.247194274388484	-0.3915483643659734	6.373085005882164	9.627098059190008	9.10856435383414	8.164754846939687	2.9236462042426483	5.07910345702513	8.718687989156862	10.513119671027725	8.559036233273323	4.820997225987332	8.37727353841973	10.031394933169256	8.488910653616388	5.538098321283759	8.033048609479245	8.191017130198576
480	2.53133391694884	1.2552285162705499	-1.589442725936994	7.965250471985623	6.801599962228246	4.725962626923072	2.239516729422668	-6.763883096783921	6.1219024503639945	9.229833579602184	6.127692207124279	4.2326645744270746	-3.829105844366861	5.195592390294255	8.823881127013834	7.737645606532438	6.07332752601764	-0.3244121960555565	6.059569820363898	9.280670142584185	8.753102280451811	7.935214976303398	2.8170421052381163	4.681269633871849	8.333060243548447	10.131971333672162	8.343198755180564	4.564177501599118	7.836771945240908	9.581274962076696	8.121107080936605	5.125307547026884	7.640715579769106	7.816356639201143
484	3.033817045181535	1.0424392197039094	-1.8387428475686192	7.844201544984113	6.534302694989288	4.348413933265695	1.9761817405397955	-6.445294840752341	6.331045611609641	9.148379302769262	5.838758930723639	4.020008553845815	-3.572970381298941	5.2165083753488695	8.691760041226802	7.4991922189203635	5.884183391973699	-0.2344843441288244	5.907946571692755	9.071073509202233	8.494306542884992	7.719010810436909	2.724531405245853	4.456613529397546	8.095067003792877	9.8637847651354	8.152854898849613	4.316865433284312	7.498361091755714	9.233753181032718	7.809352855039139	4.888440596636145	7.324390869721802	7.502579670083686
488	3.054671041405739	0.5437144623380379	-1.9711563537421808	7.898799876297682	6.6289195847040165	4.3161773572667625	1.951956147987739	-6.18687294351661	6.767599565585573	9.349709487197476	5.832916245038927	4.009020795237082	-3.3096024906522357	5.442516313163264	8.775866486326954	7.5425357628172796	5.846814617653983	-0.0886007917670615	5.949646457909495	9.090040183959035	8.50380800007536	7.652240733853778	2.700422280169394	4.439299572226904	8.083775499915136	9.841610883660621	8.08946512087245	4.145852078460952	7.43680522948437	9.115908599726243	7.654246787773273	4.840354907212872	7.17598198032599	7.344936352305428
492	2.9724986478143762	0.10562895211730759	-1.8510290337558613	8.114228228109734	7.027984601396669	4.699729907567916	2.2639074268403356	-5.941993221539657	7.271624069928268	9.757884000937441	6.178424819606055	4.2962136160146756	-3.022754661557731	5.787446007421795	9.046875930833151	7.903751353335962	6.058451160393578	0.13021273878123743	6.155642017081789	9.336502051622912	8.82393262542679	7.79606340347357	2.7671408583395687	4.605194080169878	8.293924310724893	10.085478757190423	8.189144113845883	4.09087942997914	7.632062892718198	9.258201575746382	7.694799880627429	4.939103590893	7.224224072336759	7.379121761765016
496	3.18212198407712	0.01941001037823099	-1.4699819050868703	8.424466111847943	7.51265523921108	5.3644695146542585	2.8405451702880296	-5.691896901065133	7.684617976814025	10.19178006460026	6.764687997904935	4.82749985429733	-2.722165339272823	6.141318782559846	9.391042685640482	8.459630944828008	6.484181864579942	0.3987407972282158	6.451336367531521	9.718506788512446	9.342070555942348	8.099039057310682	2.898868076634919	4.885861861291094	8.639939286352755	10.490913364626271	8.400367715607517	4.143963803319235	7.983867625106344	9.582503294593126	7.889463881600794	5.114216791592239	7.4220585635670115	7.565292816135067
500	3.8213524721940533	0.37629690671328697	-0.9454353427858873	8.73541162192714	7.814407805740488	6.037398323074906	3.4734272869152534	-5.4658636908814175	7.912560919811522	10.450416538556642	7.355345230605564	5.417076097163041	-2.451943629749989	6.410545332936023	9.662502264422887	8.985953308306302	6.963594895901279	0.6549971683177572	6.745785696164329	10.09366128280453	9.84358785051354	8.418212869371056	3.0321242732741873	5.194813715216876	8.99346635455198	10.879731150815012	8.607948281489676	4.252278317205924	8.357820489762789	9.942675565412294	8.135554293119368	5.297419057822812	7.6689629361125835	7.807255248385499
504	4.681723582845311	1.0407147381256217	-0.4539140749438361	8.95510671262002	7.745439509863591	6.4396786527172045	3.91965793573675	-5.322635637196402	7.9455694951676366	10.402482006512136	7.702640037162811	5.8351244779129905	-2.2705707492722427	6.5432195498251735	9.744688009454645	9.262680030324919	7.283905964581097	0.8254147151134464	6.961375695772604	10.325962994254157	10.112471554973835	8.58585832335453	3.0952005308206236	5.453340993464304	9.233728385500553	11.082648249301718	8.686895348551095	4.339179028046091	8.63662049974004	10.191370938319555	8.313251474372386	5.439869866941918	7.852765540323819	7.992873171653431
508	5.343756185391369	1.7514524415618944	-0.1350180801320583	9.021126724355192	7.283231240003943	6.416452868474086	4.019528378828717	-5.302890287362222	7.83549879003172	10.037927602220146	7.663020114624902	5.9172835200639575	-2.2139487210643694	6.534750445079711	9.593077635386742	9.171828246801855	7.2816633994317295	0.8624575712363528	7.053341370894417	10.33368203415166	10.027518247082853	8.487212159663157	3.040537588072282	5.606978879123768	9.288040137682765	11.010788889741935	8.55796907171596	4.333270538833713	8.752665497615999	10.237728093048705	8.33133886141168	5.5107583860500515	7.889412383187838	8.0348100459372
512	5.438107476809649	2.2745327892097493	-0.020515864663182545	8.915338493726285	6.574066145511454	6.000551208604947	3.7681851291886397	-5.389395223362079	7.651403884643244	9.463607764192625	7.258275490555231	5.640560135905439	-2.266328567504999	6.415141566292339	9.244984603428676	8.743667580463423	6.922175866770012	0.7716466764995028	7.016237718033993	10.112289403179862	9.609830832060752	8.11190412380652	2.8647136615905353	5.632543072784811	9.149639106538054	10.684911700928465	8.219321230163736	4.193624485872077	8.694791771871003	10.072318051657243	8.156344393164535	5.488324628324709	7.746395568363374	7.896325568290012
516	4.876993167008065	2.5146186288288104	-0.027656609122664353	8.667592026761453	5.862319931488128	5.384390817399372	3.308635941734998	-5.50743435422861	7.446994762692286	8.853079773485524	6.65683696973485	5.129757391376	-2.361046308278433	6.230615600113935	8.798662163454459	8.134466150727096	6.316934092785405	0.611712334995797	6.87916849306878	9.727701162573705	9.00347421280308	7.555657844540741	2.6074538165064114	5.537135110226621	8.869527794379056	10.212978337251817	7.741775016312051	3.9222280880129756	8.493209817423894	9.752784704380492	7.815240363416608	5.354690061401361	7.4430317690804655	7.5942597197484565
520	3.91960548364948	2.536908620151318	-0.017457611814768525	8.351301172152295	5.384271131272966	4.821902262911316	2.8537757324647086	-5.560901150968619	7.255307656090068	8.378560045069314	6.090402110935469	4.593021381226001	-2.412328237165072	6.031149848969588	8.37546346457176	7.552150230413854	5.670342907894454	0.46532940747078605	6.6947970221292445	9.2879743341551	8.40470216536464	6.974138719116846	2.331707710101163	5.352648244695091	8.530734994331105	9.733387922508077	7.233962517594154	3.561164131710219	8.197111109065027	9.365365004736073	7.375905018303899	5.102318274013637	7.033989888551917	7.183702450734965
524	3.0369894427870507	2.494390004536011	0.11789599031246392	8.069609621655003	5.276975618390784	4.515165317579796	2.5841264659488523	-5.489105687587873	7.10577152365511	8.156328180701196	5.75236223675842	4.224493969741893	-2.3634045064383726	5.865513786765709	8.083419779396014	7.1707043466723235	5.186141477842531	0.3958467831154206	6.5265588595596205	8.908343292633107	7.979539374232262	6.515194876434015	2.095742697192889	5.12922190324869	8.219895342100763	9.357295966365333	6.798049432757229	3.1774637618903947	7.860046843711197	8.988015152173165	6.919740659409217	4.750143039154502	6.588977320247976	6.736568910756691
528	2.6719267300856986	2.520617240263861	0.38849577209615355	7.93118331814097	5.5381159642585684	4.54006813810408	2.5752603942701873	-5.305101858096384	7.041053754195705	8.221475580439058	5.725633606759985	4.123714913447263	-2.2212128583140958	5.779973015497303	7.991081694454585	7.070548993379049	4.980159746947789	0.41367572441562167	6.434251769033396	8.67912099554338	7.806557158787652	6.261507495330129	1.9302688788316786	4.924836623155582	8.004075983819972	9.134881950203242	6.495800955584542	2.840870373229103	7.5343041229760015	8.67085645393827	6.517896635765573	4.353899467919814	6.1756982647423335	6.322275145780954
532	3.029129974346811	2.663300507497004	0.7020950299656616	8.020277003066177	6.044530376432143	4.839758860766623	2.7864558626395577	-5.08701990750563	7.11138103597005	8.532169320499358	5.9684214441291825	4.2689123045906845	-2.0536394067413286	5.811992153752644	8.114582994954542	7.226070862645817	5.042117582942485	0.47236943125672265	6.45845077791395	8.643568970791833	7.865701655556052	6.208810790598673	1.830479498056401	4.790173041647431	7.917219141998248	9.055191017176902	6.337155802939429	2.6013436251766233	7.268401604421267	8.436570146241213	6.216859324971663	3.9970950979405315	5.847995743291871	5.994180664187438
