time	FP1	FPZ	FP2	F7	F3	FZ	F4	F8	FT7	FC3	FCZ	FC4	FT8	T7	C3	CZ	C4	T8	TP7	CP3	CPZ	CP4	TP8	P7	P3	PZ	P4	P8	PO3	POZ	PO4	O1	OZ	O2
-200	2.2141489926703093	-0.6058477744065082	0.7611051778650763	0.6300881489104315	-0.1378052827216857	-0.6542706473044242	-0.3312428883295704	0.2751225226131827	0.8934696294161115	-0.27268955042656107	-0.42007857455051806	-0.310912518908396	0.11697372764618279	0.5877137169304721	-0.17295731560431749	-0.9663747524658389	-0.7098968607145492	-0.2966181926390963	-0.14068619871382462	-1.010213730168877	-1.1297756404962846	-1.306833144703188	-0.9328005290322342	-0.876273510627893	-1.276343580838211	-1.6751911597872726	-2.011170143771771	-1.8365918351533956	-2.2346150818672945	-2.724416249072438	-3.278200141259473	-2.5572779114054325	-2.9726571961690786	-3.4809098155828853
-196	2.098719114726878	0.1171026375913453	0.9321781969377055	0.5127749430107876	-0.34250509652447897	-0.43899300583630557	0.1570945825186804	0.4810258137955974	0.25914549762147737	-0.6165381654432076	-0.2890326671455526	-0.022907689155916393	0.18610227061015402	0.11393239320361652	-0.7384333591891018	-0.996829626427644	-0.5506270513937664	-0.1418705281013603	-0.6677151901553067	-1.5972951610291681	-1.4303042852529646	-1.308506247077809	-0.8078806379902047	-1.4468879663176621	-1.8642474365850368	-2.0586576409815884	-2.1180214828422073	-1.8282743646238582	-2.811162941510894	-3.192868939921569	-3.497906199206966	-3.167001477828675	-3.4798216731906133	-3.795893421126129
-192	1.60398315978395	1.0704334947263092	1.1730617255157818	0.30277302784770843	-0.4775598931176262	-0.17084117190619955	0.5537400231685913	0.616532383792679	-0.3364775470344633	-0.8854009486732384	-0.11577805847500723	0.21837432627379974	0.23393657744472154	-0.39762395519955673	-1.18316518961686	-0.8996762014562582	-0.36264738348953945	0.05831276983201292	-1.1448023290340905	-2.0062847086797353	-1.558403845667154	-1.1888478964353983	-0.6157711132715298	-1.9289449404652703	-2.2377235832937723	-2.2118558827823	-2.0046470114640216	-1.5932377536602615	-3.142721406631431	-3.3398921405391406	-3.345125428337207	-3.5406832605613667	-3.6791565325353637	-3.717265358122742
-188	1.0444570753430409	1.9904628941826332	1.4713503085181687	0.10008342538837352	-0.5651701674497305	0.05741808176445139	0.7174462657934502	0.6473060233939382	-0.6649219376942498	-1.0548102829050974	0.024847667601555143	0.329685448767844	0.3020469240668879	-0.7700573782552244	-1.4432525598327	-0.7281902414056676	-0.2255326205758333	0.26089262896472254	-1.4333872758915431	-2.1762714331040756	-1.4986646137546877	-0.9975379680243665	-0.3678418984662775	-2.1996362153784594	-2.3367619455467765	-2.1101443714271584	-1.6892185168532974	-1.1542924613419783	-3.1597182670926687	-3.1172280232882033	-2.8227262425681254	-3.5804269223415166	-3.507027617183204	-3.2197525419960282
-184	0.7453142385738899	2.598118060228102	1.7629117921188997	-0.005614389651249853	-0.6227002128138194	0.19047124635767598	0.6370629056105039	0.5817967042539134	-0.612770317437889	-1.1167429657397603	0.08092084506585137	0.30317205114114987	0.4187499274171843	-0.8901303984102906	-1.4971256218304727	-0.5508608804146299	-0.17109315054135132	0.419090508356571	-1.4597077332835864	-2.1020634121274924	-1.2873939243238004	-0.7777246813211934	-0.08964584000126992	-2.1944625322250175	-2.174159998172883	-1.8022143795288257	-1.2350110976509396	-0.5988551363130483	-2.876753322967609	-2.5825433665876147	-2.037469620328906	-3.278382293053447	-2.993162862850095	-2.3988616405956784
-180	0.8612418152999387	2.690265171888153	1.917140598225176	0.016894293906353997	-0.6561675055149672	0.22002135161639738	0.417092441459455	0.4604625094232288	-0.2449659102930806	-1.0805369588273874	0.03893885379139259	0.1968947793042572	0.5723404869888171	-0.7693408112175438	-1.3695059980148028	-0.42671796571760834	-0.17735934212728394	0.4993374633102932	-1.251653787313816	-1.8348888112471728	-1.000149485923962	-0.5564427361744628	0.1769455517831367	-1.9399341295854746	-1.8306273175750707	-1.3941744530764224	-0.7334919553357634	-0.0489059201138272	-2.3889596401934323	-1.8827134323269887	-1.1648890942726828	-2.719065897752328	-2.252367252385219	-1.4365231954545485
-176	1.2882934776204795	2.213667863978897	1.7694474414020205	0.1209408265279019	-0.6603775603787579	0.17002768771635887	0.20489381201988616	0.32956188833953654	0.22098138872620954	-0.9698691343616186	-0.0776907203620163	0.09253922081471604	0.7074683886785967	-0.535618244249348	-1.1212575407329397	-0.38541102312055864	-0.19098472546995837	0.49284374589466623	-0.9272163486912608	-1.464225288508997	-0.7223700266719796	-0.34535518201418564	0.38406044147800295	-1.544965144071445	-1.422314640268864	-1.0069664691297122	-0.2746678881863062	0.386755376077751	-1.8340243054815333	-1.196194288094707	-0.38274052642510675	-2.04185795268477	-1.4409964048243582	-0.5288261161804063
-172	1.716448302703738	1.2903040614929668	1.1973412006665793	0.20375551231916206	-0.6244662984340553	0.07156932335903872	0.10375405821830894	0.216160818388687	0.5185352550766276	-0.8167105296495825	-0.22482553067664807	0.04589208203888445	0.7503160219322332	-0.36032515673263094	-0.8297770598442538	-0.4201425601365229	-0.1632003780059274	0.4193207909010793	-0.6391042454796175	-1.0871854993074277	-0.5159203397122885	-0.1476359214631545	0.5001298176536144	-1.1524878711213147	-1.0542881462181832	-0.725955007627589	0.08370196798172705	0.6572961790655844	-1.3363060917494425	-0.6604158265606072	0.19656529972993186	-1.382365819301915	-0.6973592025316346	0.19013577651656585
-168	1.7982386305230553	0.18377073062752283	0.2088692779035945	0.16217279393259407	-0.5415207729972629	-0.05653153718146173	0.11932069033061067	0.11957863688080551	0.4625009882694005	-0.6550209505709625	-0.36074736623283143	0.05710998535638526	0.6509965045705337	-0.36406925228706655	-0.5676680788966709	-0.4969764339297339	-0.07937813530192789	0.3210073403360035	-0.5035774099033634	-0.7779891471293942	-0.3985641588638699	0.03383395812313841	0.5305272327380011	-0.8755617119617825	-0.7822793106355608	-0.5684597477865788	0.33225089227714444	0.7871868590507523	-0.9598486399258583	-0.32005491771954214	0.560429631248778	-0.8222556093436819	-0.09547963714335177	0.6894576532122897
-164	1.3373835053056822	-0.789477823171555	-0.9987675522383336	-0.047575522094057625	-0.4206254173626292	-0.21323621219203803	0.16460192161963738	0.021783817504481814	0.04166011501761342	-0.5166268335650274	-0.4664536404753787	0.0737130938099403	0.4165193726037089	-0.5535902963012934	-0.38659578464176786	-0.5763403758756604	0.03171987451055031	0.24546714065089256	-0.5496776090095363	-0.5697810039439791	-0.34659263404124324	0.19034857999903793	0.5196663724176743	-0.7508357148287178	-0.6009498223391013	-0.48623651143335106	0.5017985092845332	0.8544301965122048	-0.6933754665034846	-0.12245745180922141	0.7802032808632754	-0.37204342986588695	0.3657931080165857	1.027963874128884
-160	0.39100929995998573	-1.381513472883779	-2.074038261899177	-0.3803603341513005	-0.29769992753207136	-0.40724873439965226	0.11765891283846837	-0.09283616370365672	-0.5758815393213379	-0.4283231784020016	-0.5514831529045139	0.025115435879597088	0.11412557930742641	-0.8234016278458849	-0.3065750293143971	-0.6318521483681055	0.11601733387027333	0.22509577813537737	-0.7108502370053245	-0.45062026267721933	-0.3132303647239246	0.30975568216319355	0.5303865061720417	-0.7290621381472406	-0.4578254211310892	-0.39602500100284904	0.6394892914838944	0.9429394578968641	-0.46821007014318533	0.04390973214149797	0.9599761342607109	0.012417945979475719	0.7408993225465232	1.3014959064048957
-156	-0.7578143458306907	-1.5151530465972747	-2.6430118017224222	-0.7179983240119661	-0.23401902556939894	-0.6411724670434571	-0.10064706180910776	-0.2201012665436782	-1.12400650694304	-0.4067785431605287	-0.6410767419841895	-0.12949195471494962	-0.15680688580023713	-1.0160058711149464	-0.3109965614573171	-0.6552059633878782	0.12981507149346122	0.2638927989495947	-0.8600766041021665	-0.372713594687727	-0.25073301728840774	0.3861134936597854	0.6095188840736006	-0.7060992699915627	-0.2838810377106222	-0.22109085265606318	0.7825311402591011	1.093953487495296	-0.19828689048295528	0.2896779470282618	1.1786811322017285	0.3926028301340325	1.0969637604674323	1.5816138942840914
-152	-1.7357476905868356	-1.3100467887227842	-2.478048079909912	-0.9235882735775875	-0.29576244875621654	-0.8978750087003382	-0.47252336025146646	-0.33338490044345553	-1.363962885273976	-0.4520454097302008	-0.7526804785798585	-0.3687171032656273	-0.3104280225545625	-1.0060905192723046	-0.35115429670367637	-0.6475694759231803	0.07011446339071176	0.3350941530350416	-0.8712941982205733	-0.27313899924935514	-0.1272893395786421	0.42745920907816365	0.7554460148811648	-0.5789986238166419	-0.02794243947067279	0.07390432786163872	0.9398884749524492	1.2791672912726713	0.17454631582537278	0.6698824746385128	1.4515918456621704	0.8066068867345705	1.4722211323761385	1.8748418045392456
-148	-2.2464377823379333	-1.020423648165255	-1.6327086645866082	-0.9076082087490064	-0.5160171972598039	-1.1356259555755082	-0.8813211895625976	-0.39742401141916245	-1.1896406382089095	-0.5384993539565819	-0.872534332456639	-0.6075449570575576	-0.3126839689466481	-0.7600264530066547	-0.3567078402573125	-0.601142464550529	-0.014549162202103186	0.39338555832724675	-0.674359260287	-0.09442284679415222	0.07172030192387359	0.4600017059156337	0.910262940015955	-0.29490053579261816	0.32458203949041514	0.47439312815102735	1.0947774621025907	1.41346585393714	0.6545631272955986	1.163617846412123	1.7323846773278093	1.2481386630017068	1.856693382343855	2.1251521056879734
-144	-2.1814224664925597	-0.9084303356123177	-0.4568953204540399	-0.669126687744669	-0.854521212804547	-1.2931505409016737	-1.1613534659628229	-0.38668268821363094	-0.6626184565980758	-0.6096795185908647	-0.9470370387962477	-0.7286127787314135	-0.18936791968218555	-0.33999749932278694	-0.25426384742437547	-0.4862716185690351	-0.040277264910573936	0.39966696399871987	-0.28137412596234335	0.19729082236546736	0.35138064534163943	0.523650168050469	0.9882878040157385	0.1254181709699325	0.7499808650155074	0.9310202575065776	1.2230850427265212	1.4029041493281857	1.1907836168742367	1.690861340068449	1.9483780811709062	1.6687555270978325	2.1990637723714817	2.252411836659398
-140	-1.6302038390008913	-1.1037534447459443	0.5405570851029675	-0.29327019975051544	-1.1862828701586101	-1.307011124172038	-1.1771424979053813	-0.29971092863707094	0.028966084049525442	-0.5889363274010182	-0.9001625753563973	-0.6358643754163863	-0.004383556068052029	0.13651500607832925	0.006235060731970835	-0.25936475330673003	0.07156939041426391	0.34228384408363133	0.2217053914433071	0.5985845312264513	0.7100905162049355	0.6550223214777889	0.9225666499687167	0.5969165548512679	1.1958789795246412	1.3825150693320558	1.3104273047740698	1.198196765735525	1.6948401885157396	2.149034017859123	2.041484112353683	1.995705837933129	2.429070466584472	2.198403114490459
-136	-0.806158540597702	-1.5285053214582778	0.9219205356209828	0.09186689532450827	-1.3378866877156057	-1.1366896600634842	-0.891827759875274	-0.16124796826659407	0.6589682085566021	-0.4077681292729136	-0.6715209467146067	-0.3045780353008844	0.17646689668447643	0.5521981702214342	0.4261231113642518	0.10920027615871734	0.3494047215700016	0.24373134909128727	0.7096900922023454	1.0635342571109767	1.1319115133317734	0.8648515917877121	0.7040704470978203	1.0049915288347107	1.595121379639698	1.7724434092594465	1.3566800321658377	0.8251318910747012	2.068727964900255	2.449169391170568	1.9917068431159548	2.1559448187755126	2.483332389283777	1.9549997995608652
-132	0.05650787786283593	-1.9236104439806307	0.5418480621008983	0.37563717270425623	-1.162594315454624	-0.7842363099325302	-0.38814887306443663	-0.00987001599114668	1.0562214824712366	-0.04045179476061623	-0.25320830877271305	0.19941481897551463	0.3157210044042208	0.832014081761671	0.9461532807303943	0.6046552046768531	0.7475147228441521	0.15053459963939161	1.0634587976308816	1.5109066925049073	1.574526186782455	1.1232928009283016	0.3928796937083152	1.2481718031841182	1.8797500086055279	2.055468792494156	1.3680318559439397	0.377930997848001	2.233399385535525	2.5389277870926312	1.8166156961352269	2.0992913193152773	2.3271181524650455	1.5652276238023917
-128	0.7818565348912364	-1.969086880480804	-0.36448424962526743	0.5130169378679648	-0.6211795791201489	-0.2989785663685648	0.1695081736338082	0.12091219394674022	1.1626546353549845	0.4715531158462623	0.29489454552583333	0.7410524468785646	0.4112551201927597	0.9557145213793197	1.4562571011969614	1.1537432641464045	1.1550285787030958	0.10761379423389744	1.2082213132871198	1.8432861520005077	1.962486142925753	1.3598583902358161	0.08902783669405719	1.2720909086535135	1.9925473878144553	2.193512195771118	1.3398854698684572	-0.025128040399290112	2.148647064506218	2.4051039158179552	1.548707958126021	1.8135403348911605	1.9628959844621938	1.0973544093083039
-124	1.2765396801190272	-1.4445240461118385	-1.269851562154956	0.5373929725430545	0.17614749029509272	0.23691761433866915	0.6128861292623952	0.21837359611690307	1.0351264450641693	1.0212335560764183	0.8629357793001784	1.1699067324664965	0.48090445873914106	0.9435402131100386	1.8274724437350747	1.6409289795454072	1.437573786920707	0.1326126750935757	1.1316797704734718	1.9745751569485759	2.1988613549983356	1.4836138449404535	-0.11911089688269216	1.0831509801220571	1.8974101495521511	2.153106684017053	1.246541496944338	-0.2982435814956951	1.82153331773536	2.0643026776647235	1.2107983797021222	1.3300704922473636	1.4279092514226468	0.6119117721367119
-120	1.5117299518564666	-0.3500509849293471	-1.5851681192430744	0.5322393165502068	1.0009224389554576	0.7381950598198914	0.8492100217359557	0.29523137137260863	0.8033625463229924	1.4717100821531246	1.3366295065511773	1.3839360440599136	0.5395973907198619	0.8345249274164951	1.9581663559112077	1.9529187629984313	1.4959032497785052	0.20642505534029992	0.8805459119499615	1.8597004366651815	2.1989071313654076	1.420411106338123	-0.19736485133409148	0.7403892259978233	1.590711112774612	1.9142910193749487	1.051068780152703	-0.4234521974362876	1.304658528848693	1.555219407923424	0.8098123649178531	0.7196341138790519	0.7865878919769166	0.14403493666046327
-116	1.4981529674852276	1.0684603425706465	-0.9411880350192059	0.5802661165845905	1.602463241346015	1.1460703582438407	0.9012035108701266	0.3803738942079527	0.6072292312549795	1.7109464363769917	1.6446249443493082	1.3715440000238175	0.5847400412101357	0.6712183339338461	1.81342601318277	2.027643437034623	1.3120868172897162	0.28391137647473624	0.5373883233807737	1.512533780093878	1.929606671229896	1.1496669025005073	-0.17689458981198242	0.3300691536676168	1.1074572773629356	1.4858337603248633	0.7307575922635959	-0.44881701356105985	0.6826017481735994	0.934231815363612	0.34966835291317755	0.07600319366339603	0.11794675856852319	-0.29399418756645185
-112	1.2767919269750796	2.406203740720574	0.6159712060635356	0.7176343780518863	1.8225405170202316	1.4416631423791324	0.8840566255183683	0.5011197315915448	0.5381817208053759	1.698279495719886	1.7808655455449454	1.2098665206880566	0.6006778463456779	0.49130606527263293	1.438586350623595	1.8795856189956524	0.9590892171486924	0.32172155299022137	0.1865612859784104	1.0023790572608011	1.4329556190551695	0.7220980506785561	-0.1267154064555489	-0.06694611145044982	0.5165163861585375	0.9162545777075841	0.3039007477240116	-0.4512859869530349	0.049419958019652946	0.2722430818359982	-0.14717733822857162	-0.5089812265897018	-0.4987700270934642	-0.6952342373461122
-108	0.9251624322421312	3.2631397164928093	2.614209406928198	0.9142420268818242	1.6662236410034559	1.6349893767085355	0.9305946803439558	0.6644512994202916	0.6045107826229269	1.477816101157789	1.7892376139289594	1.0197803948404631	0.5762594327682599	0.3222179404706576	0.9402726268870567	1.5870125253663474	0.5681352004965963	0.30621468943531727	-0.11620114714371595	0.4309740949716942	0.8178963640543949	0.2473896884632688	-0.10568447384377569	-0.40144970911712846	-0.09487394964583465	0.29077389762897987	-0.15977860946846212	-0.4864372598764477	-0.5152519332274648	-0.35175809175372663	-0.6263789518754238	-0.9707807277965118	-0.9977329348169345	-1.0397651169274578
-104	0.5569341764693951	3.4061710748505623	4.33543061115492	1.0891616316953217	1.2907868591144285	1.738120551489353	1.1073870630915676	0.8465573170269244	0.7321158629053083	1.1520918578624268	1.7213685469082347	0.901131627668709	0.5189027773153847	0.17461883977672013	0.44378250725281737	1.2477847306219243	0.2686109238041682	0.26261332564807655	-0.35890608935340124	-0.10097666059272233	0.22066217605192087	-0.1462527956846336	-0.12624995378567302	-0.6659136993761636	-0.6432774050683856	-0.2902545325580408	-0.5568516836412343	-0.5560770616796891	-0.9638406013949666	-0.8645945765600895	-1.0101563905007478	-1.288023587789618	-1.3379471268252554	-1.2903177705612305
-100	0.292416005588396	2.856212847174132	5.1056461205323345	1.1501574487257702	0.9182177162829499	1.741754527462844	1.3690848315958832	0.9955558751720099	0.7996069768744665	0.8307658412939364	1.5957937200310668	0.8820562936447566	0.4521540987996743	0.03790655722584361	0.04784668224890776	0.9294036007304163	0.1299080398379149	0.23785737096814769	-0.5647661671684628	-0.5217444883525216	-0.24763272640172687	-0.3636448374150149	-0.15291763803497874	-0.8827894903782875	-1.0674146386853471	-0.7422011475897758	-0.7902958373143872	-0.6118895992089114	-1.2826410499614107	-1.2149207561336697	-1.2248116700720155	-1.4773312769784102	-1.506695147525001	-1.4038815462907448
-96	0.20563080854951193	1.8670939159937436	4.575375068556931	1.0368992064046032	0.7187789064379738	1.6131972033779354	1.5777714212637024	1.0480565998319389	0.6942986232394351	0.582209108790073	1.3862570489216073	0.9090291238722195	0.39806592363945037	-0.11326714576495797	-0.2025625998628004	0.6428197010023109	0.1348484155111335	0.2673228376315017	-0.7628635148815109	-0.7986413816315431	-0.5396848903381712	-0.3811723878296702	-0.13417378034094654	-1.075895902778314	-1.3344513144180048	-1.0218278143833286	-0.8126555064664611	-0.5907256588326577	-1.4779162369607588	-1.3842960561134479	-1.2332709996557603	-1.569118495794216	-1.5148065051934256	-1.3524868454164758
-92	0.27494811942301023	0.8073204735400199	2.8673717903222276	0.746739266417582	0.7338082771847878	1.3234462704623302	1.5814722736484628	0.9551504230225896	0.3711826791928587	0.4158849109639991	1.0506448719201307	0.8846403934078246	0.35712870865300894	-0.297824560843982	-0.31416079322651935	0.35635474234255454	0.19949594089684913	0.34633093984901764	-0.9539473628754805	-0.9283134913848714	-0.6758368594272514	-0.25130531128377376	-0.0447169727448142	-1.239925500600263	-1.4325505458902987	-1.1331696481705158	-0.6474335177287909	-0.4579267490269516	-1.5538594683516622	-1.3858238423644735	-1.0527191135530773	-1.5769317110302268	-1.3854745591469715	-1.139673587782696
-88	0.37870854043713287	7.16093925813878e-05	0.5267668949179052	0.3340632907062539	0.8740487076626239	0.8844422675690914	1.3050191369486737	0.706223009233804	-0.11206397385914024	0.2989035539233043	0.5793557748472343	0.7298650723149827	0.3017399601470696	-0.5025502430625425	-0.32310506619893237	0.03605346372561651	0.2250450396816404	0.4234579194821716	-1.0930135222495614	-0.9198378897331441	-0.7162821274792812	-0.07335846852616386	0.0894313899404901	-1.3273624148234757	-1.3602474893559273	-1.1142768831730494	-0.37854406142029046	-0.2339373374039405	-1.4982830248197991	-1.2530964581323172	-0.7490257005853933	-1.4802797995387147	-1.1439924211229273	-0.8043580630975176
-84	0.3550151875592545	-0.4082574834052841	-1.702834959499278	-0.11043910654318191	0.9878848766180741	0.36845356132941826	0.7981753329152209	0.3403858533848405	-0.6075087770382703	0.19220423649898388	0.028764629663918993	0.43338557968392855	0.19198438476728494	-0.6720669252593708	-0.26873671940664906	-0.3159220210682183	0.15166941246840515	0.4239785362506478	-1.1044940920600532	-0.7843179086910218	-0.7208296638409382	0.05368240536606904	0.20125096985550708	-1.265500899934495	-1.1235130996948353	-1.0147716973433432	-0.11335100204936463	0.011674907029001095	-1.2881603208443875	-1.02706825473875	-0.4115432490448765	-1.2355841367043634	-0.815575239983412	-0.4113093902216907
-80	0.09278722829041967	-0.495183257998516	-3.1795756736587446	-0.4939117419170552	0.9523293351924929	-0.10937447073263362	0.21339106505877353	-0.06323699637182845	-0.9362595057691065	0.08036994168732511	-0.486041544640783	0.06113968774141197	0.005260350635032652	-0.7261303644920755	-0.17818166270569027	-0.6492655260859819	-0.012416847018840447	0.29163372443001645	-0.9241806245358699	-0.536482034759252	-0.7172073703777936	0.07589265684993915	0.22379004898790192	-0.9964014266606588	-0.7414851765985414	-0.8732156731493462	0.06568872166976517	0.1976269627588295	-0.910436449136458	-0.7440588455488002	-0.11714350402581625	-0.8087235072698454	-0.42781698595752465	-0.02941889122151511
-76	-0.3961203982365712	-0.498981951407428	-3.603734007319903	-0.7539274673500561	0.7281522136423968	-0.44575118906013333	-0.27966034341776586	-0.4154035438540084	-0.9756861304444967	-0.027508137678194006	-0.8443042018554584	-0.28258508372486524	-0.24142141579233262	-0.607115386383746	-0.07057575118604446	-0.8920460320838903	-0.20419800229969617	0.02362301939722101	-0.5478829131598805	-0.20757193810985	-0.697744010117333	0.0016956182619587378	0.13370190527061232	-0.5204445706578971	-0.25868791276469194	-0.7087879759059474	0.1328045275434621	0.27501413156693233	-0.38816609880673325	-0.43302178273546044	0.0955498514147199	-0.2133982921219343	-0.01632361854961858	0.28915676401566165
-72	-0.9663489436547164	-0.677409766394258	-3.095412961774067	-0.8735410549043536	0.3539153924589581	-0.6104480608786581	-0.5918648228007289	-0.6531870944697881	-0.7310975771565364	-0.12075667052775269	-0.9881525610770845	-0.5189496265660599	-0.4925197946511299	-0.32936209357075386	0.030275968758318332	-0.9978031490883027	-0.3509006491384751	-0.32143103995231964	-0.05553823695465858	0.1454997804067649	-0.6411834939027127	-0.11470214993604426	-0.031107222582837813	0.08319520184254554	0.24981652137149407	-0.5273022042312815	0.1193778362836448	0.2521799796413219	0.20712536521115907	-0.11962847381429252	0.23136402608154955	0.4703301179455262	0.3741936078160857	0.5211688862993789
-68	-1.4085853064259637	-1.1604466408994996	-2.092449898205231	-0.8796554185592654	-0.103781200683355	-0.6715331656667549	-0.7617647032578508	-0.7662072162356788	-0.3456632486199295	-0.21236897951390685	-0.9617340540446333	-0.6407270415341751	-0.681002913186181	0.007647799774322	0.08987508691507788	-0.9791107749060652	-0.41517227783286376	-0.6484053714593999	0.41121894017347244	0.44824889189081757	-0.5387184010255784	-0.20831137842990538	-0.1905263210493094	0.6781830174489768	0.6930565220500967	-0.33035498774091554	0.08939321316560785	0.18882520449171464	0.7723979930449997	0.17323206321371598	0.32714107550041843	1.1162989111373047	0.7008877974934289	0.6755727512469184
-64	-1.562394257415502	-1.8690307093161853	-1.1282770605211252	-0.8268700817212526	-0.5957520589092312	-0.760488985048944	-0.9210216975800393	-0.7979443053126548	-0.034749850543025256	-0.34086254153022816	-0.891580817832593	-0.7123668175831606	-0.7665423135477599	0.25772452289361963	0.07373096775274719	-0.9041793323576696	-0.41367465153201843	-0.8706239439917662	0.7114688140072417	0.6349721534909961	-0.40642762081529954	-0.23768193959785544	-0.26790687374185884	1.1271078558121632	0.9953595970772601	-0.12169938503772074	0.10282372657326172	0.16112440783828663	1.2122211425693186	0.42919635664343414	0.42889216433959093	1.6023882587030769	0.9389793849126301	0.7851262668814247
-60	-1.404211875231256	-2.545852416286574	-0.5961772188393407	-0.7713119368152893	-1.096777436348335	-0.9903945301800057	-1.1965608566591501	-0.8191490748704765	0.025479096854969636	-0.5420321808481445	-0.9147435403616981	-0.8233429172709293	-0.7614031414835561	0.3060514323136897	-0.029666576459608754	-0.856754122001485	-0.4002653648284316	-0.9503759717788456	0.7764121870465531	0.6800192577359362	-0.27734041143967536	-0.20228359052131123	-0.2356680774699138	1.353908058562912	1.1281028957495314	0.09094462520764657	0.1843058015223206	0.21664807145733445	1.4782769642700289	0.6421283467293066	0.5665518627167804	1.863235468928595	1.0915648909665978	0.8878974892133524
-56	-1.0562654706989698	-2.8845407889971417	-0.6091313942788941	-0.746069667839866	-1.569490667195254	-1.3710529769613977	-1.6074598987049207	-0.8854216314849233	-0.20116895386450323	-0.8063114861158095	-1.0931649180469087	-1.0211625073400254	-0.7237519603576079	0.14256671035057916	-0.1889291847942628	-0.8823147393838502	-0.425055323958119	-0.9115385390155725	0.6490985734763874	0.6149321778984342	-0.17931608810451374	-0.1350326087641856	-0.13130098548163774	1.3781119550243248	1.1233544321308437	0.2982422999958356	0.31320151607592617	0.345447450004065	1.5873254497506282	0.816311595763108	0.7377060633153887	1.9164595555556918	1.1855146854986844	1.0062493060455853
-52	-0.7124819737565758	-2.689001791840684	-1.0049784158128932	-0.7480427007862395	-1.9196237277202495	-1.7752851202965836	-2.0255005308510685	-1.001713869426787	-0.580594657385763	-1.0522621843473827	-1.3656667436452237	-1.2681423393656923	-0.7199950200022557	-0.11767617583366785	-0.32949349200982947	-0.9548799371452817	-0.497493325407921	-0.8177862742757728	0.46550786377679304	0.5176799880309049	-0.1155986037912028	-0.07824778537068064	-0.0337716340166025	1.2993394103623666	1.0577404472348575	0.49088722343485375	0.43678599485745695	0.48372125503482477	1.6048623282921672	0.9598237847890497	0.9056709981940524	1.8452746821544839	1.2522996632429715	1.1317964763676474
-48	-0.523737250436266	-1.982766384840798	-1.4760463200495864	-0.7393380384852186	-1.9937890717712812	-1.9858987281251257	-2.229801649185966	-1.1143633099077555	-0.8695657827357403	-1.1441534728727036	-1.5706800182740992	-1.4518399201930992	-0.7798484544138233	-0.28470379042270205	-0.36102056412146966	-0.9876657103397883	-0.5786606654816187	-0.7319946866627859	0.3848666539011994	0.47499465822458187	-0.06330862625350642	-0.06020840987263132	-0.01704039234091021	1.2399338452505104	1.0117068265167308	0.6571969373322839	0.4961091565481192	0.546027778200575	1.602470513112659	1.072687742386023	1.0109950278506201	1.746950264334797	1.3033322062964996	1.2226431338912722
-44	-0.5171030150709357	-1.0082842086130794	-1.7420872405891403	-0.6663658006056435	-1.64236819329452	-1.8064954235243647	-2.030235046982914	-1.1377013893013472	-0.8427448251427817	-0.9544376110775203	-1.5303742846951363	-1.4455466233950234	-0.8729113318338915	-0.19555908392169657	-0.22161424104051444	-0.8819690324450257	-0.6064620002693677	-0.6816503388360967	0.5054885136239717	0.5372884259963824	0.010516014854881671	-0.08318545648314937	-0.10716063502197547	1.2774518696003667	1.0265927288839325	0.7815019468603628	0.4534516323085138	0.4705249357264827	1.6154998500090845	1.140062567693518	0.9953091119432628	1.6790770249889484	1.3179583516224262	1.2193480699271184
-40	-0.5974360689338186	-0.11146836699714532	-1.6706596570750196	-0.48942294593267605	-0.8209850767388575	-1.1769490212289289	-1.3882992232557456	-1.001672742221996	-0.4183968295024264	-0.4412907648865956	-1.1502258748577996	-1.184008356919724	-0.9220933890903951	0.18831476521630813	0.08372177907548424	-0.5853814467909443	-0.5360134826478558	-0.6481181366769525	0.8130207637287225	0.6916275006952146	0.126798972167313	-0.12617398766609858	-0.26610916785764943	1.4061251843237155	1.084894177558757	0.847585020309547	0.31018608730202996	0.25558790500007306	1.6269506174972639	1.138415214525375	0.8301775434514885	1.6355237919522423	1.255172726323181	1.076372263098156
-36	-0.6236779077996017	0.4320013214171598	-1.299349185524085	-0.20800149388250053	0.3327194741908631	-0.22595660331421139	-0.46177726867436497	-0.6956503373702386	0.2886073880061539	0.30424526256994355	-0.4777803706980937	-0.7096993309222622	-0.8494980909834279	0.747728465099777	0.47381028413356274	-0.12572532860484578	-0.3698445847233519	-0.5863454923131075	1.1895663708217068	0.8688961245533795	0.28073903847386505	-0.1587964292331718	-0.4136008907842951	1.5483841856964187	1.1253081531723588	0.8476294257697925	0.1071350571788508	-0.03390187016510791	1.5867538412086755	1.0527330610399195	0.5376972542538646	1.5648062189648935	1.0838822099023155	0.7933702448841398
-32	-0.516808687335778	0.5492328391513452	-0.7682897429142282	0.12675194410270396	1.5099357328439678	0.7737163285748133	0.45697435621281257	-0.2847714714966736	1.0132739518332088	1.0758755179898523	0.31252631466161523	-0.1608490343801196	-0.6293838604295438	1.2579393355080906	0.8198792913717763	0.39843973416821543	-0.15896014829079524	-0.46116411569510857	1.4772769175425122	0.9818375085837207	0.44497194773862964	-0.15697769781057097	-0.47289225339705	1.607961650603373	1.083990332727665	0.7922974804901807	-0.09121133364060127	-0.2939780943124031	1.4540103637224704	0.8952231980609762	0.19236734460899993	1.4175655806037302	0.8146803954536583	0.4295881081702313
-28	-0.32095616974859303	0.3858818998130954	-0.2212268406527749	0.4241836060304798	2.3399207532933177	1.5256131848917882	1.0778917046989342	0.11290732742651859	1.4659612141790528	1.6309829909154279	0.9977754925331966	0.2924189858206272	-0.31397369424704175	1.5007132253904456	0.9983332131929519	0.861987350194907	0.024126710309268905	-0.27636220981441373	1.5596147736273536	0.9708690022752013	0.5840237125910336	-0.11416447133804415	-0.4138099242729947	1.5304686984522222	0.9352475977173096	0.7111558300183164	-0.22373323086041322	-0.43027531992043416	1.2321560351734069	0.7095834594931114	-0.10290445361382557	1.1893990009796	0.5095527159223654	0.08766764380255573
-24	-0.17735072925613565	0.1976799363867399	0.25503486330492087	0.5899960979824489	2.548998826267033	1.8403668357160692	1.2472746340732244	0.3777027716637323	1.467377658953919	1.7925261213822046	1.4027199709762947	0.5257459865647699	-0.01409312334078776	1.3733024562495415	0.9413468217924866	1.1640809745008585	0.12097097902750152	-0.07833068053019272	1.4126687014199266	0.8306195118913822	0.6676075441671141	-0.046051721903641395	-0.26963525942436944	1.3320043053375739	0.7049610596978055	0.6376486404532328	-0.2615661018443393	-0.40515065090885566	0.9710201000493255	0.5516383633991171	-0.2616132193159153	0.9279826260025585	0.25670173699417864	-0.1318811323889331
-20	-0.22914285899960252	0.19083893250920583	0.6382788403608519	0.568060396667592	2.08969306418204	1.7080326037198588	1.0061311696399389	0.4414440382302485	1.0237963173767106	1.5248339137679623	1.4630796872393064	0.5092032538909296	0.15613010486284368	0.9345746612794944	0.662576316114326	1.2584378687557332	0.1092298400624513	0.06750596297625037	1.1029800148772915	0.6047035440436439	0.6742545349263941	0.011639314674256877	-0.12015190690222727	1.0811779471756835	0.450216858442398	0.5852915629868499	-0.2260590636983216	-0.2594630115633942	0.73368716054691	0.45442983393377545	-0.25932139092776546	0.69958936991492	0.12111142247139896	-0.1843623365277473
-16	-0.511119722029554	0.40103101629096083	0.9269676781138857	0.3713690927189231	1.1645611495179566	1.2752541271437572	0.5447149262980668	0.31598746696801644	0.3101722888267993	0.9428293085135973	1.2262093989884695	0.3024516992085356	0.14039945566969536	0.36605849769677806	0.24572463271567213	1.1499404878193356	-0.0004106975091962374	0.11215284438427597	0.7395851593418334	0.35343727380209944	0.5849803671372633	0.011127206468800863	-0.05171155171451458	0.849071083309335	0.21849985365537977	0.5288066850662586	-0.18663290095892723	-0.09747293566889778	0.5491269813024915	0.3977602114171692	-0.15620531102319915	0.5376290069357691	0.09877078955270216	-0.11338769615871183
-12	-0.8988825060084329	0.6809409839604157	1.0874241563045057	0.08564625658823023	0.12935048309093242	0.7483215313137948	0.08668901749420119	0.08427634068907434	-0.42244115365183765	0.2526515715895941	0.8006783703615992	0.007025880721354183	-0.027344258433088124	-0.12551833657522465	-0.19465786169496802	0.8705422260239855	-0.1829285319001341	0.05048979061015447	0.41400590434452134	0.11807383567086348	0.3791030635799051	-0.09136725194035944	-0.11438927770582756	0.6623345000710827	0.01611276153132255	0.40782448546440647	-0.23323890507938705	-0.039386995037295223	0.3849791576679289	0.30673381608767786	-0.07741762678150614	0.41023480788607064	0.10655309978047497	-0.0383710822984375
-8	-1.1579539746612861	0.802887318491398	1.0466139290134375	-0.16231830377128462	-0.6674649102525267	0.2860217385223256	-0.22407118919543642	-0.1388045545888222	-0.9569171046892717	-0.33809599194996326	0.29568925425261716	-0.2884084575047183	-0.23736101329003378	-0.40423133867248345	-0.5551173672965835	0.460004596740898	-0.4130664457382659	-0.07430439423636108	0.16697765844625795	-0.09256813651793969	0.04501236218770435	-0.3118855349295752	-0.29586967751189674	0.49274924273061343	-0.18948917043051375	0.16013419587713312	-0.4297091354011422	-0.16083940823001266	0.16468748408699643	0.08953025914476166	-0.15192709824827977	0.23424617887006444	0.02211065771063733	-0.09460919326499141
-4	-1.0709936591764941	0.6067046507776357	0.728229103633963	-0.2594735317831705	-1.026355740816904	-0.05681592211683801	-0.369402497074169	-0.2555515461668519	-1.1801599234348723	-0.6964067799151733	-0.21358604675250276	-0.5365564809603885	-0.3596691480138893	-0.4478656340258794	-0.7712494115430778	-0.0359061731981678	-0.6638329608369529	-0.19294753621977873	-0.004545448336449986	-0.2884539954532117	-0.3982895900684053	-0.6179066880837955	-0.5256350027164783	0.28876671122123626	-0.43577521929390783	-0.23238046408633803	-0.770870564421842	-0.4504766452859956	-0.17876386597322516	-0.3036696009121562	-0.4395315338004916	-0.06978213769460562	-0.24505169627785697	-0.3560046842646725
0	-0.5730635509327617	0.10565026077776099	0.11334109277719574	-0.16097582836039792	-0.9501494145246263	-0.3117790512319528	-0.42047500504191826	-0.2220033103583035	-1.0931218834934895	-0.7939977625827507	-0.6824135763105186	-0.7232768517353029	-0.31048044483951004	-0.32589411653254313	-0.8250884988934143	-0.553687928709189	-0.892975685726105	-0.2455554598330655	-0.11718697071290896	-0.4714628148096556	-0.8842199422446405	-0.9238100028555922	-0.7058948260604992	0.02420702384261067	-0.7238055449331258	-0.7134494167434826	-1.16791987124257	-0.808738527640291	-0.6459718330286544	-0.8349501469512491	-0.8862217642343679	-0.5154074417452911	-0.6915472728435496	-0.7838740329025001
4	0.18186278595307967	-0.5178465830126314	-0.7169098835964707	0.08242405930213027	-0.5921888336489098	-0.5287776576043263	-0.4539889085751627	-0.057614561024876804	-0.7749892453654228	-0.6850336772789402	-1.070112225691781	-0.8376104810547925	-0.09376611536909446	-0.13729611004497747	-0.7346923332738643	-1.0040417884272574	-1.0339984867692875	-0.20933480507927613	-0.17353652373845999	-0.6157016142558971	-1.3026097980036457	-1.1118290396275938	-0.7538841347734139	-0.2689973407152714	-0.9977690552315772	-1.1596096724796767	-1.4748830758050868	-1.090273258317576	-1.1470098466524183	-1.3756835425930172	-1.3360274996404657	-1.0197253201488297	-1.2042666643255469	-1.2332214085914324
8	0.8712252356467423	-1.0249880526413409	-1.5928648670034882	0.34214123997136625	-0.15175974330733422	-0.7167524677300163	-0.4889788019232536	0.1704199011791519	-0.33440908705204525	-0.4606275546841952	-1.326111313332799	-0.8544319846515435	0.20202673920646136	0.04745612654029337	-0.5411654101060093	-1.2887576785928183	-1.0123693917463812	-0.10664674612776129	-0.16005442996146385	-0.6739922744900445	-1.535749312338121	-1.0791784497670966	-0.6384664161774865	-0.5089794384503631	-1.16484188739414	-1.429964777197181	-1.5521126946362849	-1.1725245684584222	-1.5318136176535384	-1.757064695690486	-1.6018332202523298	-1.4290225469749507	-1.6067844588720313	-1.520522232985086
12	1.1439616651263007	-1.2652270761970883	-2.306268686193833	0.4660422194158553	0.21467307155768828	-0.8388398268501811	-0.48976874227846745	0.37608760500368665	0.11734031856236768	-0.21289297884596553	-1.4093838894546482	-0.7509914617651227	0.44798368102455904	0.2014367575328029	-0.3028194002612266	-1.3443292345438222	-0.7877181748529386	0.009889902522032236	-0.07249155622299754	-0.6105069502675475	-1.5158715209835834	-0.7932757715224092	-0.3932770182693848	-0.611079572088459	-1.1483656138990563	-1.4376959764421882	-1.338479992348202	-1.014991996109877	-1.663711186023227	-1.8527071429206308	-1.5618114432003598	-1.5909012515909655	-1.7466529563674078	-1.5190856418403367
16	0.7825076560291189	-1.2570637432785507	-2.679895394234891	0.34552755864644086	0.4254573870884363	-0.8606822468962001	-0.42616176497629105	0.4825560140347302	0.4725277113905241	-0.019910078445472774	-1.3284946646527704	-0.5459251390025309	0.5357707129302984	0.3185306481425495	-0.09030245966761902	-1.1869316071107077	-0.39758843083136025	0.08611094184830656	0.06002760663374226	-0.43395495305170795	-1.2701119152426776	-0.32371371902751955	-0.10038144861149803	-0.538542567323935	-0.9378231144115516	-1.2007824152193534	-0.8910629726800918	-0.6764374954311365	-1.4908598623782137	-1.6449878174257846	-1.2262835471663829	-1.4291728698886947	-1.5723556240437946	-1.2258567779108684
20	-0.1913268859324276	-1.1597294778153728	-2.6235828333419104	-0.034409914078858565	0.44951730853075783	-0.8117302635679488	-0.3405550411686083	0.44057142623293993	0.6336873157714618	0.05284434543619145	-1.1707839936260858	-0.32909524357676817	0.4243116666094564	0.3847087015929434	0.023835869445821688	-0.9280390716010184	0.028077201846879403	0.09097596234955811	0.17767885282479573	-0.2068368191265299	-0.9246295071145401	0.16997565286160132	0.1454609032773083	-0.32280880131282425	-0.6036707147615835	-0.8417065718380605	-0.36943861748881174	-0.28291025686361637	-1.0750290128268893	-1.23798417732483	-0.7377119045705619	-0.9804340576213827	-1.1576698989250038	-0.7625324706852642
24	-1.5182981452755524	-1.156983730256082	-2.157387251175435	-0.5862516746024679	0.2669174962457301	-0.8061714152009409	-0.3629698148146379	0.23720052778438125	0.5360395894822014	-0.04767953592421837	-1.0886715623072156	-0.24884281989690166	0.15016566179032464	0.3704905798617966	-0.015603587923291744	-0.7409089784989525	0.3032976083250522	0.026630969650861907	0.2236790502384492	-0.02131102973802679	-0.6578448994240012	0.49704289310849065	0.2764889888935309	-0.04131946329771124	-0.26609367065004697	-0.5321812616263422	0.032690640456394957	0.036520585325541886	-0.5606349692495108	-0.8068258741989224	-0.3002466253806373	-0.37282034660625024	-0.6589078290515971	-0.30858379524522334
28	-2.808839790881994	-1.3339822258648066	-1.4100549185438354	-1.1567033500077664	-0.13623082603391887	-0.9933112834647253	-0.6480548961490055	-0.10245795522094042	0.18306305958305252	-0.34322890552648144	-1.2339396445591624	-0.4475918698931173	-0.1983622158526	0.2543370717302971	-0.21974661890816005	-0.7835623006111119	0.26624831490052625	-0.0788197887934041	0.18837967467430464	0.04975042479590486	-0.618838725911795	0.5184642659448793	0.27801704336545724	0.23297379852125663	-0.03207249186286095	-0.4081308533377785	0.17720656052194916	0.21182614511414669	-0.09970077102046221	-0.5079079853585858	-0.07416130583635842	0.2400487208266211	-0.22869603278117193	-0.002684206927868801
32	-3.7019300367350683	-1.6346994597170799	-0.5989785775320665	-1.591731305872012	-0.7316840868596455	-1.460864301807888	-1.2667329279388917	-0.5202840553499222	-0.330929427503488	-0.795245108980816	-1.671376581740568	-0.9762378906397895	-0.5265359269199837	0.057877458485865806	-0.5376365171209918	-1.1164175243801082	-0.13614444400269624	-0.19087825667349712	0.12955580619050405	-0.0035945686886602536	-0.8528915026112128	0.21223765558063704	0.1864636237681925	0.4738073337036538	0.06038683265102568	-0.5015655147286945	0.04435877490765055	0.2556720369559611	0.22135068420314427	-0.40167829292926494	-0.09537079906226668	0.7475236635408458	0.06073564648195119	0.12772871521649456
36	-3.99973319951163	-1.921431655801012	0.004855995519865024	-1.797068829767647	-1.4108101093912329	-2.1554236357629124	-2.1259787028996318	-0.9367627477836746	-0.8418369868004998	-1.2944202390414734	-2.325202459186801	-1.7405494407578177	-0.7734812478564127	-0.14406816624984164	-0.8667574502995934	-1.6627873140315408	-0.8085722306817874	-0.2874789230717929	0.1444993462490582	-0.12227471141938204	-1.2769440380281625	-0.31565716782982756	0.06114651247322152	0.7024758440401702	0.05307427035283201	-0.7298871260334939	-0.26712602309495026	0.23503769874836083	0.4078239490226049	-0.4338665593637292	-0.2682873599908219	1.110861775454621	0.23655296802401513	0.1636381741206973
40	-3.7198889161605515	-2.087823385689446	0.13875015044944083	-1.7660968259090761	-1.9882422635424877	-2.8775374816722943	-2.977390520208031	-1.2703316179627648	-1.1819950312335838	-1.6874055819823863	-2.996565095965284	-2.520648711516223	-0.9283576584265385	-0.2549446218729588	-1.092478868587276	-2.2387936058740787	-1.542136784474704	-0.36851030495110115	0.30546906513338207	-0.2148908520279865	-1.7217651562135687	-0.8840735532374417	-0.05543456585120443	0.9484138464824383	0.027787754242000296	-0.9500718092773247	-0.604158161545326	0.20944394118358434	0.5229526148944238	-0.48641767975068845	-0.4376905549442845	1.340415116740594	0.3750968566007315	0.2188162947136934
44	-3.056280843647768	-2.1433970874076564	-0.355782299335577	-1.565916415075677	-2.268387073511765	-3.366358271682647	-3.523145189926935	-1.4606378041583135	-1.261734363231358	-1.8398452950756012	-3.4519665154087678	-3.0647523325790167	-1.0198293898583448	-0.21536536460384537	-1.1431814403281608	-2.642891638758859	-2.11193179551017	-0.453243999528963	0.5962697252477985	-0.21972860340432215	-2.022541994710467	-1.328543182833495	-0.16653828280840546	1.1963527172401198	0.03795560812307961	-1.0494381162850548	-0.8526630976130102	0.17570529833778173	0.6152933820448612	-0.4704247403188682	-0.49912446611272615	1.4399902784230898	0.5127609955239454	0.33658635531322606
48	-2.282563442189352	-2.205622190628849	-1.4301850759637147	-1.2952558961591145	-2.1494696086020415	-3.435066452890401	-3.5704207330204665	-1.4884694777101766	-1.118673202551293	-1.7085690455214828	-3.5413737207647014	-3.2147462286846933	-1.0896288128998917	-0.051843657958745105	-1.0341616842862706	-2.761344425859086	-2.3892011582134525	-0.5683199152902888	0.8954721070569298	-0.15566861590183537	-2.1115870422456595	-1.5847042758986034	-0.320610313798157	1.3615546192125516	0.05495598153305963	-1.0232487891111863	-1.0071853373847748	0.057128060464867764	0.654764412180497	-0.4060547639608485	-0.48224928853349047	1.3605152334195825	0.5760756120442366	0.4249657679795701
52	-1.641844268468267	-2.3993818699339644	-2.7841985155383235	-1.0367430422356858	-1.7012894110641543	-3.079140893791468	-3.1442866245992813	-1.3819369042791942	-0.8953239299103923	-1.3794687951545663	-3.2809712803973743	-2.993612520289145	-1.1660121649867052	0.12525263397064798	-0.872014877978733	-2.6321105890576844	-2.406424754742843	-0.7323351483928833	1.0274884674833555	-0.12703911928050676	-2.0619552083408164	-1.7170641378920026	-0.5789191112207123	1.3191438880040156	-0.032972685909469716	-0.9927353833883595	-1.1746354073431686	-0.2508056157455609	0.5230591283943685	-0.43764760979783224	-0.5526353106851133	1.0012173627370617	0.38329672716642404	0.2790264778245023
56	-1.2700914112449266	-2.7385923793314464	-3.935736169415028	-0.8297764637978076	-1.1594562501244121	-2.4937961038569685	-2.4898736414034928	-1.204593655405959	-0.7538558821718616	-1.0441085073812744	-2.8550593780913505	-2.603534691913035	-1.2518994776589598	0.17884424283650185	-0.8144251087607298	-2.433365338857564	-2.338464015778685	-0.9447899436938888	0.8566061832735261	-0.2775422923710199	-2.058278555441774	-1.8775980425159904	-0.9678868626953282	0.974435982628134	-0.3658151617350969	-1.1513541907805491	-1.5083202085560543	-0.8025123456720628	0.06931327265882496	-0.7697008828757228	-0.9246658659477612	0.2641515129095891	-0.2719974212931767	-0.31216627280575854
60	-1.182101008291727	-3.0835208814970847	-4.406378258070521	-0.67745631762171	-0.8267680981742994	-1.9912527749332023	-1.9629430721314476	-1.031788227337307	-0.779426930367036	-0.9220929718578826	-2.538429969100724	-2.335339540307448	-1.3323910202719003	0.02412449562419206	-1.0047191356087748	-2.40556716311598	-2.4119563041826124	-1.1845577925338762	0.3676490178362713	-0.7193954568819738	-2.3122169913088197	-2.219928735850297	-1.4460042678564533	0.3295829287790891	-1.0331901285788847	-1.6692867236907296	-2.111765856179534	-1.5409797391132454	-0.8001753667656095	-1.556867118719435	-1.732478018201292	-0.8694965221386861	-1.4962363205326692	-1.4303181135305176
64	-1.310509082346495	-3.2133474268846363	-3.964227666382889	-0.5781095609374168	-0.9303998923653215	-1.860710020135838	-1.8637402010592787	-0.9267104840723293	-0.9360542273730184	-1.167576310070952	-2.578807824299683	-2.433726066166834	-1.3955206835799205	-0.32208764471750756	-1.5133094749390266	-2.7460498740483357	-2.7906718183631667	-1.4185794556087998	-0.31811860123425756	-1.4762005768698756	-2.963904134896622	-2.814442627476735	-1.9072959374910592	-0.4981668876945048	-2.015947575247746	-2.603235476597018	-2.965361826085569	-2.293744558265248	-2.0464603849241265	-2.8031694818295376	-2.9283528254008093	-2.285049194288789	-3.1949009814661213	-2.938596479626045
68	-1.5746396740258208	-2.9856548233945635	-2.80445145852613	-0.5597021565611311	-1.512191172596574	-2.2442212048136225	-2.3017210902275314	-0.9278206801831127	-1.1059101792070518	-1.8039293243639734	-3.095378152661606	-2.9853174611059865	-1.4513738118721324	-0.753901122097132	-2.308370345963307	-3.5232088476873944	-3.493201485397433	-1.6142342049851193	-1.0018638347126634	-2.463422292211853	-4.01073740900228	-3.603686085185625	-2.22027944957927	-1.3177115883936792	-3.1741900363890165	-3.849679221924171	-3.911229838986788	-2.8306469845830398	-3.4735894115486334	-4.317285526819629	-4.26007794258296	-3.7315633202753635	-5.047877298961878	-4.486487854120705
72	-1.9385138701133524	-2.4730210241822475	-1.5274931153832578	-0.6896616203061962	-2.4144926010206915	-3.0896572988705078	-3.159470311771029	-1.049785611363218	-1.188623902180898	-2.7195751598360034	-4.040011395744776	-3.8853683373583565	-1.5353993138648834	-1.1429630489102551	-3.2693061746071237	-4.6488299252440335	-4.383640278239013	-1.7501081184070244	-1.5096871814758819	-3.5171809107671885	-5.296772466637921	-4.420370090768349	-2.2857282104003556	-1.946531767699005	-4.290414322511251	-5.1654147971392455	-4.707384097612068	-2.959149830022761	-4.774780738219496	-5.752346024295082	-5.347027288288384	-4.8821053381682535	-6.586682303011339	-5.618565545201693
76	-2.431740516245089	-1.977419371380787	-0.8910506941232991	-1.0497406694611708	-3.3681173239548174	-4.194282044311579	-4.165300358746323	-1.2919368711278214	-1.1971236437136983	-3.7222039605577826	-5.2292313443719225	-4.892516123817018	-1.6913214879249532	-1.4202027285005145	-4.2312636268598105	-5.913237556786819	-5.232992635866333	-1.8208068563266717	-1.7793794825451574	-4.451960552419548	-6.5616183115279885	-5.052979933378927	-2.0814037270447656	-2.2871606292199815	-5.142575250993296	-6.242078765368196	-5.120152937359721	-2.606652730082653	-5.627423749067267	-6.712671739796518	-5.818545803638441	-5.431004987356146	-7.343503933485802	-5.937880501060539
80	-3.121945611700975	-1.8949646901924808	-1.4375231229727758	-1.68603837064398	-4.122952450833221	-5.301058755842187	-5.025863634771851	-1.6430236059668155	-1.2723375526729714	-4.6135206106053985	-6.41850851345791	-5.73568199616943	-1.9411835621461018	-1.6124563176452478	-5.033382403063415	-7.058637124360051	-5.8135409208385775	-1.8334387494527382	-1.8739750337971102	-5.1136894096965975	-7.522618274769422	-5.323314176470812	-1.668686624128646	-2.349154704838608	-5.568126187571472	-6.800766450877811	-5.008155810109528	-1.8465764475930917	-5.793288693106506	-6.881846887379646	-5.44999979550521	-5.1862187254619645	-7.009725076143698	-5.249781595327119
84	-4.048581589967523	-2.493366473578512	-3.1752417007387783	-2.5569925243669682	-4.545504081693871	-6.1907939754586145	-5.545285687751209	-2.0745978303029156	-1.5958757360220706	-5.2456555234076045	-7.379511814559442	-6.21715067247459	-2.257273429893584	-1.806015963763002	-5.551160798362596	-7.8569750587458085	-5.979443535013219	-1.7974699690259726	-1.9157149743350375	-5.407580838855716	-7.958479384356234	-5.142621504197526	-1.160252568176601	-2.2093017045508336	-5.495871530008536	-6.6733975241974335	-4.363689411590165	-0.8598317482220473	-5.1868896353418625	-6.1247081601957785	-4.240575779698848	-4.124397744256086	-5.542472348524913	-3.6282398609109863
88	-5.1565017570006155	-3.7373413945253016	-5.5107273916348465	-3.513016453456536	-4.639199722021277	-6.732418996979327	-5.676894650431623	-2.5285792286928555	-2.2469670715822025	-5.539985642751162	-7.951436499547356	-6.265466674244694	-2.554042809713771	-2.0608742185058992	-5.707448944940663	-8.16354844893248	-5.699404702102085	-1.7136099295267002	-1.9832374999519131	-5.297027097679759	-7.764129619069332	-4.525780189531756	-0.6653277261148561	-1.9389567326229153	-4.940337645455314	-5.842894539386293	-3.297886363286186	0.1465399708624364	-3.8882853886662994	-4.524480808278932	-2.4022490917590007	-2.3902213513108523	-3.17671131285665	-1.3797932828399042
92	-6.268612845806575	-5.266036974009222	-7.503176193367092	-4.326471317812062	-4.487177837486883	-6.883019429948707	-5.495647893381903	-2.912782900131892	-3.0952758710914297	-5.471919045938151	-8.058328608194715	-5.924906715692904	-2.710462324928591	-2.3335556925031136	-5.468541131517968	-7.935201624863002	-5.038251387273535	-1.5685944517586738	-2.0393004365932046	-4.787004935576328	-6.964194280207627	-3.567662945322961	-0.24243606565778233	-1.5486499032021563	-3.9743468661101478	-4.435334671266456	-1.9865765521438001	1.0193855736744677	-2.104745144298456	-2.3480174482191645	-0.27401089599092826	-0.24840712484585475	-0.3449462345474142	1.0697933408430378
96	-7.121435147425378	-6.552248938230111	-8.333462694108954	-4.7663321374717835	-4.173771847677571	-6.6643547843521	-5.128915773793897	-3.1183452527470523	-3.814836492443659	-5.050207125310976	-7.705947856520915	-5.305529581026212	-2.617028229781799	-2.469668858968543	-4.840127455888983	-7.22103784645369	-4.111952294458407	-1.3394216265239862	-1.9395899723674104	-3.910989513059661	-5.690705285009792	-2.4027900635136166	0.11508129508050326	-0.9878643130156786	-2.7016458443142537	-2.6749176911529764	-0.6092270001288724	1.6991822676673747	-0.1038245705129002	0.04094959412607198	1.7939495995051364	1.9889011332841715	2.4583096442145074	3.312066308242451
100	-7.458023052459365	-7.1612911043560015	-7.741233806138857	-4.687611091222781	-3.7435057068724094	-6.144198402150964	-4.692401874139152	-3.0594224852566576	-4.0298819440186415	-4.313705910282035	-6.972374898473106	-4.530166614538992	-2.228869194125454	-2.2816245498272205	-3.8714644811159946	-6.138638004063196	-3.046131841598197	-1.0085972522066495	-1.5199335775147704	-2.731500380295397	-4.138797749560306	-1.1694672078170325	0.45628315095141986	-0.1985220308060005	-1.2419403760071632	-0.8198995569509487	0.6922165733980425	2.207792038111774	1.855661625945398	2.2863895835371135	3.537083855281758	4.0352015393421246	4.815339553119536	5.062386499975051
104	-7.1389612971308845	-6.95800445707262	-6.175430759097257	-4.095653523595016	-3.2154512324213167	-5.429777131676873	-4.260556210251431	-2.7183842590363976	-3.5188114554255474	-3.343697062633416	-5.993970379001201	-3.703704109377684	-1.5993020494136885	-1.6679586129991975	-2.6607022218285152	-4.844016539741469	-1.9544112632998387	-0.582696793992394	-0.7096692901813713	-1.347106930192632	-2.515062564221977	0.011417508096478738	0.8284609296862914	0.8147990683011065	0.2751221947876373	0.9012343860760423	1.825913186231687	2.600970261682693	3.5753238110873107	4.12801693827771	4.823544490080022	5.685094819020539	6.481772883262782	6.205728515215831
108	-6.221989139106661	-6.151906474793857	-4.558371532375496	-3.1543500343791715	-2.627430432361737	-4.659264075913491	-3.8713164231787465	-2.170753711941859	-2.3593277871646077	-2.2717566432817	-4.939868437692826	-2.9077680037517313	-0.8726986624618699	-0.7016339284348434	-1.3489056791581222	-3.4996926696156634	-0.9353590584027581	-0.10490283343532586	0.39864364165747723	0.10759234401241306	-0.9929099057878212	1.0442446443895976	1.2379473416544517	1.9470913361027438	1.7169477896256948	2.335662359062736	2.7409641673503606	2.9180569575068818	4.942140566745928	5.447286592081884	5.646492943812824	6.842611295590278	7.416832905163457	6.780834180878086
112	-4.9620380276331915	-5.161030756317794	-3.7785453700987617	-2.128665203442165	-2.0593903012733175	-3.972376813396006	-3.5418226629480163	-1.5697921474877667	-0.9224359369830544	-1.2602020470273412	-3.970766057479662	-2.206961864621438	-0.23542572498486897	0.3735492816076905	-0.09529646461983886	-2.245142931038102	-0.0755711195945101	0.34566545399178056	1.5689831932509175	1.478249903761369	0.3132053009708598	1.8586554480356177	1.6352795321185696	3.014886371630087	2.9614682122800917	3.4210009488518165	3.409187308287161	3.1541182915208696	5.924675926508916	6.260653003144786	6.076911910926803	7.517598133180534	7.7464084429666125	6.922044736551837
116	-3.7155578042635273	-4.373541820928083	-4.1988029373970885	-1.2828352418935987	-1.599217291609032	-3.4557797821532907	-3.2694880879825186	-1.0889664860888197	0.29846775456412933	-0.4479146290437611	-3.1875846305477036	-1.6470582443614752	0.15692032834011949	1.249085065549061	0.9632965898034751	-1.1726794213251577	0.5560597763327478	0.6727040393057665	2.523483269996005	2.622818701797819	1.3518742288790209	2.409179204580249	1.9307441662679177	3.828185310235274	3.916430225021022	4.16914461990605	3.811663856419565	3.2635376371003253	6.548720343268316	6.671148760165025	6.206483825272517	7.794549445500098	7.683068256053778	6.789747697853873
120	-2.797089092822062	-3.9494290252154176	-5.454167352257383	-0.7811802009886776	-1.2710514036512552	-3.092764369785515	-3.0199112815905447	-0.8484122135676514	0.9333466863909321	0.11070774467650635	-2.59658812820987	-1.2444642750791601	0.23994339941956888	1.7032712654979323	1.7481214956016762	-0.31916838803771364	0.9210079289071309	0.7921097258596123	3.0670375746539356	3.441968193900808	2.1165080017058915	2.673356049463804	2.0276694246596794	4.2677011382119066	4.531385887149439	4.625930297616303	3.9321818252467557	3.183446637699264	6.860802633129799	6.799030763626334	6.102307304234269	7.782185534856265	7.434180240935089	6.511959536323775
124	-2.353802436607879	-3.774866094595356	-6.6655182670151785	-0.6361997707516907	-0.9854977106008467	-2.7581818034152885	-2.7216296127269346	-0.8623468258066398	0.9175089574537152	0.4727967667563609	-2.1157541221606757	-0.977029321111119	0.06124019234812042	1.7107205347738634	2.250313037912866	0.323017089743466	1.0233113739880424	0.663696287386828	3.166647426239603	3.8948120972527263	2.6174330645280914	2.6503403119883435	1.8590602827819098	4.324411858130982	4.7967414734850955	4.828855502334679	3.7599315548381402	2.8630413936809394	6.896140081160698	6.723780138205972	5.790345654173507	7.563617210365372	7.132789593807844	6.1539921605185715
128	-2.317693466056956	-3.5802280812470477	-6.958142263010993	-0.7248249035655009	-0.5612339959279911	-2.2756471576456567	-2.2831122817570577	-1.035115358600269	0.5088028894929841	0.7770021538190504	-1.6247692067132817	-0.7869668583074417	-0.24822468992981908	1.4472198449789335	2.514930003492331	0.7831134180324417	0.9125271416513212	0.31136473934716513	2.944227449613049	3.9965953725999963	2.862372629568248	2.3626780450296843	1.4138586485452183	4.082191456978614	4.734124171702271	4.787706839871431	3.3018927490792938	2.2879409732274105	6.667178137158692	6.464983923801996	5.271915899317865	7.169460278529712	6.815607053715098	5.722899899338908
132	-2.4641859469187875	-3.1379156033446147	-5.978630527660536	-0.8633984305517569	0.16973213808598628	-1.5219129285534743	-1.6399706560691278	-1.2109149663870085	0.12570962278098713	1.1604181498793689	-1.0403776142556231	-0.6055294259995665	-0.5397569523535227	1.1832473248171531	2.6038083964411523	1.0866599055511252	0.6699885709059451	-0.17891542568334515	2.5914792949097802	3.801217546402604	2.8537723946046096	1.8592662764337335	0.7463861685028241	3.6580543425709413	4.384367454903437	4.495990264985386	2.59897493659923	1.4953076801694132	6.175652011538104	6.005856498813721	4.559282768182521	6.584676249091843	6.448503477981789	5.198504911649207
136	-2.545824759731468	-2.420611613837884	-4.107160081030564	-0.9037789083550795	1.2244347302994076	-0.5255615697943005	-0.8119342306618551	-1.2529015509443937	0.09830004697061583	1.6652899938500514	-0.377239285947129	-0.3898888816526491	-0.7151067834919227	1.1271514864120284	2.5594792301407194	1.2417364089132568	0.3839052309833997	-0.6831471306719173	2.2616882267116614	3.3825447473955643	2.6038322382990025	1.2183674543137495	-0.030195088980852627	3.1415705601530135	3.8032758139907914	3.96537159872253	1.7389690832102331	0.5794031605397111	5.441466794580709	5.342986570219972	3.7100269700794937	5.785885796244093	5.981697067417198	4.5751337889554895
140	-2.425185674266399	-1.6279004771140064	-2.240627283161319	-0.7985743264063401	2.393217557586857	0.5061818944548933	0.07055912149019412	-1.1086469860696488	0.4802373933588215	2.1946008150005474	0.2443445169717048	-0.14917397461421664	-0.7617372255166788	1.3098443713496382	2.3921613632841034	1.2443495957429018	0.1253993806057145	-1.0778599950279937	2.001927370739076	2.823203556562282	2.1557595675400183	0.5457689748336136	-0.765815792534427	2.569097989271708	3.0654227656217574	3.258980504390884	0.8562397935230168	-0.3162398330333583	4.529790390022119	4.53060053635186	2.8396055626701626	4.788011061977596	5.403583989805748	3.8933031460694023
144	-2.136313671440433	-1.0686053010663743	-1.2737678257253906	-0.6069678648882993	3.290685406959762	1.2612047163592213	0.795310435671325	-0.828738746934888	1.0273557875444206	2.548912280323038	0.6531998498637378	0.05797829091811969	-0.739286957304775	1.5757521351131	2.0946857876344005	1.0977441044748615	-0.06412621571324564	-1.2789077726499745	1.7590476230078673	2.210330719135638	1.5936109979449027	-0.037836916649179986	-1.307391521014034	1.9427189777916394	2.2672965469337076	2.4978864129897076	0.11075418414524973	-1.0242706511386357	3.556679955085798	3.6902367975525547	2.1012406296130903	3.6724266913200547	4.765334594139341	3.244779578599711
148	-1.843833680266032	-0.982058164978122	-1.5883249004316986	-0.44371923692254805	3.5289997965405715	1.4693736992931177	1.15176081366618	-0.5307883010814581	1.353783127227778	2.5322866375885242	0.7180485707273848	0.15684021969774362	-0.7273271065468543	1.6834058719094767	1.6732498365118393	0.8305312970173373	-0.17188107923980908	-1.2653444973469992	1.4453082048165238	1.6301262337535896	1.027228591232791	-0.42386314165865396	-1.5409369429784048	1.27110945857512	1.5168585738985718	1.8271076633099703	-0.3551806500527332	-1.3996257746645269	2.6618161134272653	2.973142377976325	1.6354917246534342	2.575280898267938	4.161973465901939	2.742816441286724
152	-1.7270147756842624	-1.3958589995428115	-2.843373291466192	-0.40099072355119436	2.9331941530558225	1.0509960624862604	1.0339091990116396	-0.32880750215484145	1.1738378971980874	2.073803896436512	0.4271534670535602	0.1058038842987011	-0.7652683238735473	1.4548320733532694	1.1735231846744678	0.501857637092001	-0.20157010802398997	-1.0778698893990015	1.0164004538623634	1.1560472220797355	0.5580086693980483	-0.5477933273790092	-1.4287774526762531	0.5988984688896907	0.9081105566939051	1.3580160106704602	-0.4658201623123052	-1.3717075551686684	1.9603370378591574	2.4962611135400756	1.5144977531342685	1.640698905617155	3.6843976881465204	2.4729051527530967
156	-1.8640207005168836	-2.1043169445314707	-4.187220086016421	-0.4928311097100057	1.668479915221087	0.17913295283390374	0.5055493103614891	-0.2700844102239404	0.48236420628832727	1.2905989852745707	-0.09002087987583039	-0.06751445663810943	-0.8195472338965709	0.8840593077273764	0.6821668130817715	0.18940447223050177	-0.1578897829837824	-0.7926554063811533	0.5111253248661488	0.8329583981464634	0.24555705425730923	-0.40873315827171314	-1.0235463354971537	0.0031585358003502774	0.4934703993259301	1.1233149738561021	-0.239390193811644	-0.9762077306896093	1.502570744535536	2.292512411051562	1.7142399506203854	0.9675168966661414	3.375832787573643	2.454089158537907
160	-2.180883640505151	-2.7721691061601255	-4.7590632318504875	-0.6519005878202042	0.19572763095553464	-0.7865216712167383	-0.21244214421518393	-0.31446546236751954	-0.43283820043001575	0.45101442819212384	-0.6150438173978167	-0.26695862345052124	-0.7977035621530149	0.14366829359021432	0.29975595994608506	-0.035386092871493205	-0.0373513176094209	-0.4851380276352364	0.03228377915218537	0.6656114442232707	0.09386020130063487	-0.06517570449347863	-0.45005062108853916	-0.4393976021640194	0.2705271833265365	1.0725952359775652	0.2228299671746063	-0.34653019817599867	1.2655793396468213	2.3054356516805554	2.1316702312055744	0.5799271449706086	3.219294301488152	2.6333537035259815
164	-2.499558680899304	-3.094546787078378	-4.17820071119178	-0.7782809118648331	-0.9267460084405257	-1.4602796994534069	-0.8287484028873172	-0.36352416781197183	-1.1492041320396396	-0.1419959362736511	-0.9365771985249572	-0.3644102802612879	-0.6004151090721713	-0.5073354827469636	0.10359415385794148	-0.12783578005940205	0.17488738850307764	-0.1973579967999596	-0.3117306522605174	0.6250954850627158	0.0693898199236845	0.39842280644914196	0.14586116336712568	-0.6877031904977556	0.19777665982380493	1.1178994150547725	0.7892076353174703	0.34290233167858164	1.1866797178825228	2.4372787414050565	2.6445040636052517	0.44186428077717643	3.16713570748837	2.9223220274576613
168	-2.648552887905332	-2.9308221266183296	-2.737855427505304	-0.8079157451258887	-1.306264754812045	-1.6096373755823576	-1.1070214482014384	-0.32163953699921755	-1.3470441068971972	-0.29268687889589384	-0.9440116858490215	-0.2581061416308306	-0.1818437124667997	-0.8615204074089154	0.11808707535255078	-0.07842052708138418	0.4997346686620736	0.0753932891372717	-0.4653671372108336	0.6711978299360951	0.13850273156960285	0.9177345610336205	0.6609331948759513	-0.749359307781359	0.23193795920464275	1.2031161754749968	1.3672666515162453	0.9587706899278169	1.2197667329509636	2.6221465998250286	3.182215682578471	0.5052899705527262	3.1936833777857236	3.257055989625235
172	-2.569706910321196	-2.352375501415559	-1.208689567375293	-0.7578845004974143	-0.906736192798144	-1.2624815670563758	-0.9737027858946031	-0.15402542015765489	-0.9892234777270602	-0.0070584309109161004	-0.6743462664744718	0.07316075246936248	0.4126137782646621	-0.866125223834057	0.3053293816487036	0.08888309426516619	0.9490681862711305	0.37037569190928216	-0.4475652266169699	0.7763901333280419	0.2955636970687148	1.477599021042065	1.0775798531982568	-0.6635195596155151	0.3618367603226408	1.3495240177414611	1.9488264273077747	1.4720531664875856	1.3763533795893117	2.8751406597026374	3.764286031755857	0.7574283461520999	3.332734814812582	3.643058052401894
176	-2.3605205953128414	-1.6001414020192966	-0.3920986344451505	-0.7219212633025986	-0.06081364288473317	-0.6874269229699193	-0.5548263178168801	0.0892300380003666	-0.3399940422533987	0.5114157186947613	-0.29205796048813415	0.5475427494530062	1.0510137054610695	-0.6366660578865913	0.5796598777441105	0.3222631505936056	1.504879828468305	0.7224505525468679	-0.32776227510669914	0.935767946264885	0.5592970237916156	2.10248326724423	1.4587329589253908	-0.4680824565990434	0.6141363962880472	1.6424992043034055	2.5997092658210086	1.962218875699255	1.7212201313431186	3.281175843537727	4.477415550371638	1.2325626580590379	3.6689419653767046	4.152335633284671
180	-2.224002832519698	-0.9833250616996244	-0.6931014043474992	-0.817411539875016	0.7073006016039777	-0.25803020531357845	-0.11937852918763857	0.29661738797639386	0.18563206446986932	0.9655637716710725	-0.013642818632549765	1.0042922471439713	1.563202138768748	-0.3786541213965903	0.8409364798295067	0.5491483793699118	2.104648823192742	1.1311615676931028	-0.17550495222603626	1.1577300996160749	0.9390612816943448	2.8128232884915656	1.8966170501507722	-0.17528195634933336	1.025599834713771	2.1638996546471523	3.397210589414811	2.556468003494269	2.3225173891557387	3.9271633525879173	5.401742921542574	1.9785281369800995	4.283016670857565	4.869669425113714
184	-2.360192054511669	-0.7697883228893876	-1.9530473898215317	-1.1173437805575792	0.952714023568902	-0.2718797915270095	0.04511313874060391	0.35094243199435715	0.25340488489068597	1.111668226296396	-0.01428657673417589	1.2663643328165313	1.8076592638153106	-0.26525780491614964	1.0104666922806649	0.6865761262725434	2.644570105551496	1.5474480351479398	-0.016439214307288005	1.442349668675922	1.3956503832866243	3.5753333478304508	2.4423510966626356	0.22851669730665675	1.5996800620698997	2.912256948747722	4.3523201832558325	3.3360931789093278	3.187610141335603	4.820271479834379	6.53042982360014	3.0005326195300963	5.183738218571254	5.819557175248437
188	-2.8632433342169286	-1.1121451826626845	-3.6176168827273574	-1.6070775945142965	0.5285227285392656	-0.8143214562837271	-0.23081964196102914	0.1874144966638936	-0.2137957805957766	0.8726862646957879	-0.3584729722032344	1.2171775071884579	1.7265150503437272	-0.34653392346628775	1.0554897758538213	0.6607590301043573	3.008007280384638	1.8899543237653114	0.17681254401865623	1.7650200083992826	1.831008191254224	4.28593014588683	3.0591585558902588	0.7608224730356203	2.2796857299468614	3.767643680596867	5.36872147158322	4.266991604522292	4.229606617739239	5.848960861697637	7.73658225967233	4.223036755390103	6.273207648651419	6.9217362229112585
192	-3.682318678142004	-2.0165824839222903	-5.092509733694163	-2.191348785589813	-0.3554206779566377	-1.72829913656664	-0.9136407948314929	-0.17458169118195768	-1.0097606156604384	0.36712092068489466	-0.9783180927371986	0.8583273865963594	1.3664262260270341	-0.5354681001495378	0.9998275612383428	0.4386034596813595	3.1149578015837296	2.0868844933273145	0.45861002687060914	2.0839400238828443	2.1267623847671597	4.807228553078979	3.6324002651058045	1.4188930952488161	2.964760296012014	4.53470038222774	6.272767527955509	5.201778875569163	5.293915258393182	6.821187002126303	8.817399956375901	5.502427087242961	7.375443916773081	8.01032445792529
196	-4.65518521087252	-3.3480226909031345	-6.050433143598636	-2.744045727477468	-1.260760780966055	-2.699578755238662	-1.7764122441264405	-0.6414700730340692	-1.771513934431166	-0.1586130108404998	-1.7051463084085425	0.31783714810233876	0.8580653049739437	-0.6673488004047974	0.9161366201158714	0.056941609685900486	2.967697851317708	2.116926664729737	0.8711143114030953	2.368632072190555	2.21275686659045	5.042545305872313	4.030865659073531	2.1726551001053935	3.562941303794355	5.043886171957794	6.900530797702346	5.953978523480833	6.232547267436939	7.561271171552936	9.593914961434432	6.6870603392569326	8.315735795960352	8.909463859952055
200	-5.591627106854179	-4.863807665942723	-6.510000689282823	-3.171395770649001	-1.7652831033006569	-3.4098377141693077	-2.5023457940819647	-1.0891540023008097	-2.182367557737732	-0.4589287329054185	-2.3374395311468725	-0.1992213422990622	0.36579111126099073	-0.5979001506968681	0.8992173649019356	-0.36990541126319165	2.6663124493991894	2.027078861840736	1.4148261511367697	2.629192107238271	2.124953741430662	5.004770266294834	4.187504757799148	2.978070966831069	4.049212445526233	5.254013525095487	7.194592457726514	6.405634863893245	6.983323556434965	8.010615328591058	10.012454961293248	7.69101140941507	9.008258796836412	9.5259628055391
204	-6.349063857261171	-6.262710078640081	-6.681555254279377	-3.448366394873424	-1.6863254266124936	-3.6789379026988795	-2.8345041203460064	-1.4166564905639112	-2.133408064224258	-0.41016900435840475	-2.715904228982845	-0.49951594941862254	0.028680084200808857	-0.28162369060938786	1.028288004186354	-0.6800629479404463	2.3760693013282723	1.9134819459288102	2.0453891702509277	2.9214682505280543	2.009027952843952	4.830769526682874	4.147716988581976	3.798739185279101	4.486947048302896	5.288360582351298	7.247726898968095	6.580201132373405	7.6009559439441965	8.266242960086775	10.182581875841745	8.532081582462471	9.49567887769808	9.89961621646095
208	-6.85863493141408	-7.2586264427027825	-6.7387184926604435	-3.6077699570167447	-1.1632851332858267	-3.529639473586686	-2.697898381097397	-1.5827270706271062	-1.7555149749302386	-0.06408444775852475	-2.777437203070653	-0.4901147770428373	-0.08425876476949058	0.20975807256191872	1.3293428387457829	-0.7291053515145937	2.253260606798857	1.872044677776288	2.692213051674495	3.314726821159928	2.053469652713437	4.720264422896931	4.050472249295025	4.613215434824919	4.988244520944711	5.371591077594042	7.257789593492249	6.630400640913656	8.212198236712482	8.524100282128618	10.319222424202815	9.302684760448525	9.910098050846107	10.173698399606849
212	-7.10981414907215	-7.665028552730183	-6.681070787727865	-3.698589077194553	-0.5680340514146678	-3.1556925693947027	-2.2380866947888274	-1.6133635003364388	-1.3170851435786715	0.38471859596395114	-2.572934859455502	-0.22731055261918837	0.00769724275836093	0.7311996799127789	1.751117225040524	-0.4649937141122586	2.361710065600976	1.943550581793446	3.283853999430013	3.8348226450421246	2.3817188679643992	4.825453746056646	4.049857129362496	5.400003419593841	5.630666718572019	5.697049126546509	7.414106350299735	6.745366079466169	8.918242432012411	8.95568845395156	10.617436382190132	10.088343594829674	10.376728985336923	10.500407192422125
216	-7.118773442415009	-7.458251934294724	-6.385379775138231	-3.742334117977662	-0.2975087754367593	-2.8180568147082106	-1.7569079354751225	-1.5804318149718903	-1.0579249832146163	0.6972761732616721	-2.244117015894818	0.1006101814352461	0.20904484338433715	1.139946577055078	2.1709198896910733	0.027300156584001128	2.6249267988689127	2.0833880848736177	3.7656583690937007	4.419225681591551	2.964437477256726	5.152687536581779	4.221329201530889	6.1126088941740795	6.381154044252904	6.300240977593177	7.779257277875133	7.030174714458767	9.703783964452937	9.589973425494676	11.130609484227014	10.883419009387243	10.917502375695234	10.935963603065616
220	-6.91311548394987	-6.796236021049161	-5.7949523779472765	-3.719368448403687	-0.5657576308271535	-2.723937266148232	-1.5715154369731619	-1.564975376946339	-1.0610823604496866	0.7019864899077998	-1.9682657668964514	0.2552502744905953	0.38408216737096873	1.3594633306512423	2.4336409507343095	0.543901144085003	2.848329536876042	2.1761412565602147	4.102456559313923	4.917705046635502	3.6087527183973203	5.539049611411973	4.509079444945015	6.666813356733588	7.078913193949972	7.016626340316948	8.239216783702371	7.431537132573842	10.41323277705384	10.2748365142807	11.726020783382925	11.561016053574912	11.416904420637978	11.39103600487077
224	-6.542469008140057	-5.973634227929498	-5.078884588770067	-3.594311943516177	-1.3049335446789923	-2.943191520889468	-1.8611792278983252	-1.6227273900070112	-1.232098457086699	0.3665299108311164	-1.8887946557994892	0.0621839871922723	0.40629738466679416	1.4023147786021346	2.414549821479531	0.8467920401174572	2.811979286723677	2.0927822537036596	4.275700081520569	5.152246939048712	4.0433564084011255	5.72991369708121	4.752028930110434	6.961978417939052	7.50122831358075	7.558193187704506	8.56030652745957	7.761944751215962	10.819942447047506	10.750464412249777	12.152313201740233	11.926826446938438	11.679721802786927	11.674698800175097
228	-6.104702934111033	-5.316663251804987	-4.605644691283242	-3.360765687086782	-2.2159898225149046	-3.392792931573792	-2.5776851112135284	-1.7646892026216143	-1.384394880614236	-0.1969661260638732	-2.0574669786005613	-0.49813556545375437	0.2055521155174459	1.3465979065275353	2.0814223236938885	0.7774882893006111	2.3896293579804375	1.761499400459868	4.2842998396470495	5.010776983961553	4.058172215706248	5.5199847082008295	4.775662886959944	6.93178508915786	7.481952648346214	7.669463138290276	8.523367860255467	7.810326556513731	10.753090831310528	10.795512172145807	12.182782142398171	11.829632729227287	11.548905343461445	11.608589143054411
232	-5.749827370431812	-5.058548437698364	-4.72654770611471	-3.072928659310082	-2.9360799715299817	-3.8917179009409586	-3.465795508217481	-1.9592703531389501	-1.3722425664588214	-0.7928802351006784	-2.416174644092006	-1.2706266609536583	-0.20458280988539457	1.2854871717422498	1.5213937720987913	0.33848363075628135	1.6297976929524172	1.2148134677733449	4.150628079425457	4.521294105558707	3.620486965575336	4.8787646170463175	4.497642982571545	6.596056921517944	7.015340787341678	7.273534756416363	8.058005312602269	7.474696617328156	10.208823178265726	10.361384365624687	11.751886338127191	11.264475794008662	11.013601275293915	11.14398667382947
236	-5.637306199146076	-5.251251684282147	-5.507370458049572	-2.8385240959980886	-3.2225284495054995	-4.252099503272049	-4.1827149285570915	-2.1519105380087207	-1.1833556860610812	-1.2320132224448856	-2.825911276358302	-1.9895427176789138	-0.7293518763247623	1.2807229724973814	0.916326103281134	-0.3024641863815845	0.7521573882186304	0.5867531880823418	3.9263601203969523	3.861133088853871	2.901817552869538	3.988024463121514	3.98507260270111	6.078601821811209	6.282659514777458	6.524921400762485	7.298902970005879	6.837567788980698	9.378287291690754	9.615900015395038	11.005948992598393	10.405563328220666	10.240938160789625	10.411299679219367
240	-5.860128864751716	-5.754748806729201	-6.597975714237709	-2.770331137338472	-3.051638357087224	-4.360270966011638	-4.457303989600882	-2.2904820384370597	-0.9370734071914596	-1.4035506213037874	-3.130645267211847	-2.3984374939445274	-1.2256944148589104	1.343279358333399	0.47414359330630523	-0.8925487972613014	0.05354408906292666	0.05901037141683192	3.6872119810471298	3.288150779051733	2.1958529893748273	3.163417569756669	3.427324524809362	5.5697460033937976	5.578240857345739	5.735709175887378	6.52674959442242	6.13507793784904	8.568497636142501	8.866028763320996	10.234696362404504	9.540739989034506	9.505393004260467	9.666521047982076
244	-6.380582793338819	-6.308616145418711	-7.364600162985762	-2.924020282992314	-2.5884137088274324	-4.212017048691851	-4.209070671898753	-2.3446702897956087	-0.7948600629765392	-1.2988061872115522	-3.2261912741269887	-2.3660910069809065	-1.5529900750051635	1.4453767501578423	0.34627661021544204	-1.2166429727354617	-0.22893896641150188	-0.2154162371680327	3.5126521498685883	3.0258817596333323	1.7728031828944024	2.702084534498693	3.0414478702049936	5.247383104427413	5.171983705814067	5.218117700753742	6.027958377877792	5.637881264757417	8.058009127299526	8.404003122092478	9.72373387742747	8.940674759226283	9.054432846097274	9.164433456171112
248	-7.023611050992673	-6.651685697927788	-7.239807587464651	-3.262623540270358	-2.060111517473279	-3.8949582478413465	-3.5724193959640287	-2.315374845381047	-0.848992583992364	-0.9868439411043448	-3.103312007698338	-1.9426650951928983	-1.6239035088547498	1.5466608962110233	0.5683845863297069	-1.199153062653887	-0.028127895597132885	-0.1759652490941521	3.454693785528225	3.1604940811471063	1.7495983794861922	2.738407128095952	2.961404077682475	5.195262895818769	5.181406484873529	5.131787763990503	5.95189569877906	5.5106763700590475	7.965516547119228	8.36289403711326	9.61123273330233	8.733362175826358	8.985431648456544	9.029931045622027
252	-7.543826561001277	-6.6368040870949985	-6.081826194666838	-3.668842306410892	-1.6209672648512377	-3.53712963164883	-2.821310513048995	-2.2317495289723075	-1.0656353208340046	-0.5685677514026392	-2.848384849986254	-1.3317038979286644	-1.4355419837947334	1.6123894412339785	1.0477049324286518	-0.9347529387715675	0.5245164619554473	0.12450455097712199	3.5088474661928917	3.60007809683719	2.0417487569758173	3.1831376472215287	3.1725654521951205	5.361326680952477	5.5188970426457145	5.4147753578805204	6.241561873890008	5.7289566849071125	8.199407556813135	8.65706823070648	9.824750875463444	8.84902665765103	9.199845290798502	9.19712827267792
256	-7.736449698942684	-6.283025725714033	-4.315983284543863	-3.9997565645323228	-1.2881962028404517	-3.2499616064034003	-2.235448354799151	-2.137265676824382	-1.3123874631172043	-0.1373578157533254	-2.6010961466921407	-0.7922787646317685	-1.0678739520768266	1.6183110434681736	1.6028871495785872	-0.6323654635676152	1.1671088904478035	0.5495210872127513	3.6093366054960656	4.118506898018517	2.4202179847647813	3.777984848020709	3.5262703806539077	5.5832567074002135	5.942522987621083	5.832278236922862	6.674499494867259	6.099606498577025	8.514671304186114	9.038189865181252	10.131398175409448	9.065427757263363	9.46043679709858	9.450566267948696
260	-7.535446624804172	-5.743335232539267	-2.7533914973360742	-4.153649319652204	-0.9810382102993007	-3.092748157322177	-1.97859322525203	-2.0716404862552062	-1.4501160346612576	0.23522806108213162	-2.491293424038458	-0.5216467367353368	-0.6501178128994733	1.5454473456464604	2.0358624406912402	-0.5054816590898399	1.634063358949643	0.9409748888100273	3.6564419177245484	4.4602680093687885	2.636983626383638	4.231533516690672	3.8217170142005794	5.670186505306958	6.180699809682098	6.108654006793928	6.985724431520456	6.369463427674754	8.643148400419358	9.230795836985008	10.268190357986445	9.126915908658413	9.517969107439164	9.543156599746178
264	-7.046006184908299	-5.218695627388025	-2.1700115149069896	-4.1130356684791085	-0.6327471121071485	-3.0744500082594883	-2.0526211209925567	-2.0577547498248103	-1.429620262351249	0.48696678753929534	-2.589737170356684	-0.5804973230010905	-0.3125477425313579	1.3729541267063536	2.1990313474448056	-0.6721598489003411	1.7709773734202525	1.1794737547659504	3.5616712480266877	4.449263561459561	2.5451278622265137	4.356998909440309	3.905450334225379	5.495242581798454	6.059474929769656	6.062868579816019	6.998833161803522	6.3562464553570495	8.422340371802042	9.067342735285871	10.07478329975893	8.869210220832494	9.23414228015283	9.321516967127053
268	-6.488186343024422	-4.860716807491054	-2.877801649457272	-3.9407486816094037	-0.28927391694467186	-3.1793949523762417	-2.338194841203559	-2.0969054646002316	-1.3244510855614169	0.5507353530330499	-2.891837828010701	-0.8918690062893544	-0.14331860804136118	1.0839427682212543	2.0343134351867285	-1.113786575366365	1.581625099957281	1.2161233394436217	3.2908520615461336	4.051261891627016	2.152142042448444	4.139749039688519	3.734588136780788	5.051320540072569	5.568399415262432	5.676608071300267	6.694840891147689	6.028954490698763	7.8569979469293445	8.552226998671374	9.557493185708516	8.285734155716275	8.635771729600581	8.790676094749037
272	-6.086550220381229	-4.71641920806289	-4.54517697140417	-3.737898340324677	-0.11995713382475423	-3.392654648798262	-2.6847789219782987	-2.1741955225410794	-1.2779004541558137	0.36295926479253926	-3.3340721046193864	-1.3034036126607602	-0.16730987983423598	0.6865388137650081	1.57770192224807	-1.7041310028920018	1.193337795105703	1.0679069730499489	2.8846626208907553	3.3696737204352627	1.590180869856029	3.709538211993569	3.3764049921620423	4.446159828404652	4.842379080944334	5.072162615367849	6.19231699333807	5.500991330563236	7.093089562627559	7.83320901800381	8.861007668057793	7.510975818744129	7.881273249755018	8.092180231644404
276	-5.962336525168715	-4.739668357326701	-6.3735604125276915	-3.5900359063107863	-0.3311334840043614	-3.709058990650785	-2.9949304981910907	-2.2696170749582443	-1.4022425377728494	-0.10603477034023624	-3.829616536962007	-1.673285480089325	-0.3505756548136578	0.23157705308143894	0.9338133907583451	-2.2841293754129373	0.7705622295951973	0.7903977016520511	2.442117923292863	2.5850701266825538	1.0316134665192667	3.2459669031206393	2.9558982774491835	3.8423774145390417	4.079294671249843	4.4266214258966095	5.663066849715802	4.951348769084739	6.329002364391899	7.108282548123868	8.175572374683371	6.739169580610965	7.166872006441521	7.4171180537833425
280	-6.0868887747626985	-4.851351248890431	-7.515458088019921	-3.5330135733096126	-1.0271757815176534	-4.119858731358611	-3.2566006101403007	-2.3682122170738173	-1.6943232970375526	-0.8134939650023996	-4.300406445136169	-1.9317320536479308	-0.6220605357677049	-0.18838740837694473	0.23921218454047172	-2.734773152122461	0.43143707404881815	0.4489516902555898	2.0760376400984746	1.8771241855912224	0.6053334459280398	2.880204908728548	2.5890130931337803	3.3786842737724987	3.446316948772641	3.8809950253729384	5.240433202864149	4.5269722824242535	5.719900593621383	6.5280108287026835	7.639889220976026	6.129337295315927	6.630255205580771	6.908951741894953
284	-6.32323549581515	-5.007651316397423	-7.504470329411188	-3.5568187146984847	-2.1061959213486263	-4.588878620005992	-3.5111775309605684	-2.465119594072192	-2.025617594373112	-1.6259697634653165	-4.690021026214255	-2.088241095038977	-0.9012632347240408	-0.46651056291099546	-0.3705193987074728	-3.0088424606651216	0.21322408264685686	0.10365740928704965	1.8645749045026059	1.3686228956000404	0.3598744264099774	2.6504194669564054	2.3414657056819954	3.1161158006195024	3.0261411590467397	3.4965383918221136	4.974150168258128	4.284891117721729	5.327117906472195	6.147386535382661	7.295121174513718	5.748294815809216	6.304852469738516	6.611417753693517
288	-6.516210539578423	-5.228976236492929	-6.462720377817721	-3.6323890594326147	-3.265339604716625	-5.040911661772433	-3.7878734969825594	-2.5612454349702443	-2.2166757527652483	-2.346855634486136	-4.960694777361924	-2.191284650992196	-1.119591352497095	-0.528099356748495	-0.7883366922502113	-3.117329112765487	0.09359274035904178	-0.19040600907413402	1.8212972833426453	1.1052272291889396	0.2781597666870116	2.522917502709225	2.2274072114020944	3.0298709792887877	2.816230289978325	3.265889159540067	4.843026625803539	4.196030606166295	5.12435625689867	5.9371557085819004	7.100664597703648	5.568665490396038	6.135429843670906	6.476815684178618
292	-6.575152380555098	-5.5626234867797	-4.971913801991802	-3.7380952740705173	-4.121063222017191	-5.374919877787054	-4.05276917388029	-2.652005904177742	-2.1513464396519906	-2.78511595022839	-5.085266577279344	-2.273658269863813	-1.2308171956458422	-0.3744973232827719	-0.9573800539640733	-3.0919248979706175	0.040796913103575	-0.37822112345571274	1.8959723663145094	1.0656416389263348	0.31868347445136774	2.450445168984119	2.2343964520308104	3.0407884044168636	2.7637519766647753	3.153959027910432	4.8013000367060075	4.19402598275827	5.0400576464242475	5.830402836384384	6.98672483587584	5.5073246816825	6.031644329101396	6.416321261418754
296	-6.51129768634986	-6.004870399573046	-3.712177028820403	-3.870140781168165	-4.38677119101187	-5.4995436529545865	-4.207512844906836	-2.718848698427315	-1.8585133505628317	-2.8350191044755655	-5.044111239095898	-2.319206708774693	-1.2152168720081662	-0.0967909840285831	-0.8834151007282705	-2.9517733976225617	0.05450503514356935	-0.4090391983195397	2.0053973147305597	1.1882948845425685	0.45206400637932376	2.423792356093647	2.349028342992003	3.0647396963943563	2.808037035528186	3.1362037579509874	4.822788703186178	4.231006134795031	5.005387293575991	5.771121964189083	6.9067025010253875	5.4762043814681025	5.924250587764873	6.358023150604029
300	-6.408830149682297	-6.4449310140015506	-3.0998094003616	-4.02782916005776	-4.009030808817379	-5.372456537033996	-4.138494481128454	-2.727873080042104	-1.502721425077148	-2.5231399472429654	-4.830726611338744	-2.2692277374195546	-1.0790301534112698	0.16082802374288932	-0.6327083690881423	-2.6951639584205846	0.1697522099500637	-0.2524268024747136	2.077623123645497	1.3970711195959034	0.6703110916380105	2.4813382562932067	2.5644073421583062	3.051384918138279	2.903805248558489	3.2090465941470816	4.913180815689893	4.303376186949961	4.9799985759887235	5.736147389234661	6.857557279439262	5.417123780878741	5.7925014349603	6.278309806231311
304	-6.355066283393477	-6.671073896731376	-3.117631665941603	-4.189144600782069	-3.186065427365504	-5.019128309929237	-3.7845010661896823	-2.638808243764896	-1.2862298456142762	-1.994680399627002	-4.459419716066487	-2.0608658738556516	-0.8510366656751305	0.2727644734648546	-0.3106455199027987	-2.314859861251488	0.42562129986115477	0.0812151206469451	2.085968965985876	1.6197538334959638	0.9713444685253741	2.67495679179985	2.8677434848861085	2.995299570150608	3.020547382357982	3.3740529928851437	5.0892395844714615	4.43705176186881	4.950075137038395	5.727095589483345	6.863990289524338	5.309274183220127	5.655555710818751	6.196560367198207
308	-6.378851874458912	-6.460249407670151	-3.4214141282483563	-4.300791252721869	-2.2658984603893857	-4.523645866417027	-3.1833293357586423	-2.423770898421582	-1.324541803830536	-1.4481035434401424	-3.969871272554553	-1.6727626281466754	-0.57677584740929	0.1984631712194334	-0.02656683132795522	-1.8221449805985008	0.8237239101593717	0.5303198681793511	2.0545151181801575	1.799399967418927	1.3377310003838454	3.020392410281957	3.222544423550259	2.920352689999255	3.1308052460780207	3.615672102382536	5.347141729206064	4.649705398264285	4.912366377825738	5.749050125865903	6.946135980234909	5.157583700509847	5.54390619785601	6.14679716465661
312	-6.433164103478281	-5.714616761084675	-3.624643078235741	-4.295046795491499	-1.5797998865295773	-3.995030869887882	-2.4681870875031677	-2.0861325211307267	-1.5717523058309013	-1.049657222958696	-3.4218904885681987	-1.1484705180735963	-0.306557088316365	0.00799168737450152	0.14491599761614743	-1.2594000069292683	1.3093371358238801	0.9964646075839612	2.0354275652040568	1.9035462092977065	1.7301863388247536	3.470713129817614	3.568093290857153	2.8539383339352455	3.205924741280208	3.8954512974616837	5.649415955585229	4.923584925618459	4.863942134020996	5.798596844338221	7.099636059956001	4.979606139008514	5.476883874416826	6.152421458923416
316	-6.425979121196616	-4.563818443219898	-3.5625440984425745	-4.1258096590779605	-1.3043314185589916	-3.5286016375144773	-1.8153299047413787	-1.6682369666895958	-1.8423260403848898	-0.8734931923747198	-2.8832311557454435	-0.5849879965317754	-0.07896358499856168	-0.1518779393176254	0.18719091964190557	-0.6944294554343867	1.7885765984200692	1.3797763551208306	2.073396915923013	1.9295053433340337	2.0985572285120773	3.9304070373484046	3.8416280649468177	2.8084311414384455	3.224924794637999	4.165503491375205	5.938824638631398	5.207661615575063	4.80354498604116	5.86642883726999	7.297591667824132	4.7982120392772805	5.456723676256056	6.216705306569953
320	-6.274792178524128	-3.3631241236653	-3.3834738645959774	-3.7993433379570187	-1.4177861177888424	-3.1830570617419958	-1.3741376365300255	-1.2421967951883395	-1.9208286952159865	-0.895259616498842	-2.419077390285239	-0.0966623125019991	0.09255367494103757	-0.14029298687323413	0.1359814998054529	-0.20523144252936393	2.1681060736276208	1.6179101426284264	2.174509758227542	1.8988256406527035	2.396307462364212	4.2970995794523805	4.00795649470266	2.775494568493038	3.184940330093564	4.384830463782883	6.164086326295088	5.442657456961736	4.7351631998673716	5.942956909433953	7.5034498978952096	4.636286723829169	5.472739205848189	6.324822886710801
324	-5.952851280441687	-2.5557742054308354	-3.4126155290274065	-3.3824455652669085	-1.7549312070407823	-2.976865522498175	-1.213160392559318	-0.8862663485085474	-1.6938626723438912	-1.0312813494394169	-2.0842881150074537	0.22677035572495288	0.2209188336516757	0.09283751970932194	0.0509757510030716	0.13573853637280064	2.3935084282526264	1.7083821253559393	2.298249000468841	1.842550392267258	2.5867807799832887	4.504195201945872	4.075747956476083	2.7330775191921717	3.102553359781552	4.5251574402047146	6.297973616911645	5.5899019100201555	4.6652564884655	6.017493709630287	7.681941489851789	4.508001792970196	5.505833135055407	6.449572546887781
328	-5.505530343460712	-2.45925473545968	-3.8874378106197334	-2.9811606331898455	-2.113739485172354	-2.897757761314846	-1.3044909205880078	-0.6561102254514827	-1.220660683411048	-1.1926915615486797	-1.915306682519357	0.34985840232256404	0.3340137890488929	0.47156283140333616	-0.017874522089532843	0.27495434810837355	2.466582768888444	1.702686067097005	2.378789180471796	1.784367556835237	2.641455405241977	4.542162883734778	4.08959864537544	2.659536116561074	3.0032417698375875	4.565510738290088	6.3380641777235125	5.64579914574939	4.593280303802252	6.070896133354101	7.801623801561338	4.408150661783087	5.528774247515797	6.555269224782544
332	-5.032969462085454	-3.087149850680427	-4.742201316304681	-2.6987409523538144	-2.346301549709703	-2.913441889082865	-1.547869916822595	-0.5642064199507903	-0.7011142355383589	-1.3207974400551996	-1.9197782229591172	0.2977198056810538	0.45581766847922167	0.8299913981463249	-0.050937253853224486	0.18895941925024876	2.4336526332446557	1.6765744643797273	2.3622875153981022	1.730050559444298	2.5380937989050394	4.449655998439771	4.101717938557732	2.545986169109112	2.904561989126647	4.484942901732028	6.293264373149121	5.634454712947221	4.503115165785268	6.0703625525754195	7.832508544220178	4.3074550519909325	5.506230817244344	6.601245386623252
336	-4.6485934140141625	-4.104115952620281	-5.580148682810893	-2.5943510466878084	-2.387437099151134	-2.9731926842963885	-1.813781495283313	-0.5765901789412834	-0.35807779340937124	-1.3863149846361826	-2.064110035453296	0.142258897064575	0.590983687339239	1.0047656272315821	-0.05409227670483218	-0.1041242328637519	2.3567240178688134	1.69269334842564	2.240399116581695	1.6713339048150164	2.2688760700162676	4.285592545179675	4.141323079143774	2.401887887612574	2.8062610555369423	4.265869129854716	6.170254214920873	5.586739049157779	4.36545561641969	5.976355537584492	7.747462253083581	4.160692681298239	5.400948034001856	6.549474222813532
340	-4.437197197201695	-4.95672129333265	-5.8596172184822555	-2.6631071500298407	-2.229441398713853	-3.006251804391145	-1.9842675874203206	-0.6293727143609988	-0.3062092356103341	-1.3664350475144387	-2.267270082471494	-0.021962678004485137	0.7228936534750093	0.9317647791225873	-0.035939250050644335	-0.5340263234007061	2.2885463179982213	1.7755457118028837	2.0611455388482316	1.6025221307349042	1.8610852909783964	4.104889859326091	4.202510823129915	2.253560537370609	2.6972525051682417	3.9137811561953124	5.975166782552093	5.523544774414986	4.156452645298202	5.765731320129207	7.535407524157298	3.9305477043097192	5.190919386155663	6.380325778111197
344	-4.427097786216452	-5.131504999556403	-5.193166242839443	-2.8435037064286313	-1.8829340887213901	-2.929769985431411	-1.977308149113917	-0.6574547274202865	-0.4888451683100046	-1.2278847663395862	-2.413040870296207	-0.10329105678944327	0.8273875096412414	0.6883246881272596	0.013726526836667436	-0.9803665851636673	2.263298267372269	1.9097490262452417	1.908752198168535	1.53761338799412	1.3947318757129545	3.9495973487318388	4.256821621637813	2.1362757628864513	2.5746745998228135	3.4798843772767585	5.728494152864823	5.45258043819889	3.882785787316049	5.457811818648328	7.219068508995284	3.6162512211097115	4.889560687117936	6.109354957414717
348	-4.580412853120627	-4.412900436703956	-3.5901884942010263	-3.0453514975907674	-1.3651356662616156	-2.676072113910071	-1.7574627355072912	-0.6220518334895897	-0.7205046993184432	-0.9378022527859329	-2.3869073330697077	-0.03687243899334327	0.8931912757257132	0.452543615152298	0.12494845656796595	-1.2996572223275067	2.2997837008586433	2.0584530778412358	1.8625729036989447	1.5129511318155415	0.9946613286654794	3.8511645696682235	4.279607762022177	2.0820431656723013	2.4591128764054724	3.062733404056282	5.476469979764551	5.375883088844192	3.5936398415433866	5.121303545419561	6.8600182360065345	3.2674336350915874	4.552667606303471	5.791041359585569
352	-4.803571212084795	-3.0013747139493567	-1.510229822160547	-3.182461253714325	-0.7193449717479765	-2.229359382722849	-1.3378742899495237	-0.5235121236935177	-0.8060314634953617	-0.49510684484410683	-2.125359529851268	0.19715261409574336	0.9350397563215025	0.40131732720141655	0.32732665456145804	-1.3744416202176126	2.4069738327291277	2.188736671643771	1.9565871904565155	1.57177793582809	0.7896236757369521	3.8327453039676573	4.271203507130066	2.1073636955461175	2.393248075164905	2.7773230005715517	5.283452020657148	5.298320280049541	3.3671536360605216	4.850797640951155	6.5406584574549305	2.9702212735525477	4.26182745811199	5.5013141493185245
356	-4.969794260828941	-1.4322416746218525	0.30582550090823896	-3.1951460757648187	-0.042442701649796674	-1.653830285665178	-0.7805510739646617	-0.39529931445454086	-0.6597693545850054	0.040124352920079036	-1.6569423633703335	0.5621235356443731	0.987383720766068	0.604925511740227	0.6198435410108817	-1.16957246961944	2.578936570332073	2.2847406806482105	2.1602644865807688	1.7353583530481458	0.8490776994248884	3.8987221619401202	4.25345801233234	2.2037360612543386	2.4178202091208103	2.6980740955897513	5.198807703243901	5.223554598017847	3.27141856321263	4.71729468108314	6.323694689997341	2.8055386472440884	4.085277070221555	5.300269113510197
360	-4.951496111766252	-0.32609301723165646	1.158122894224153	-3.0577535552071606	0.5205964432924013	-1.0866277190430278	-0.19097444366876057	-0.2815323762938225	-0.35125890285499306	0.5496739135215696	-1.1066844435407293	0.9682366823546317	1.0831133099866541	0.9800354217581313	0.9532008743061982	-0.7635129074846992	2.7829401422810025	2.346199983395262	2.3894369541875884	1.9778213451041373	1.1334506244652776	4.017893304217367	4.246177185782119	2.3338582456792296	2.537795298844758	2.8078980374969205	5.217820154367774	5.141987787615873	3.320680371483642	4.720913398267607	6.21252344470307	2.8008525300836786	4.03676270419414	5.195667730565061
364	-4.667854774133989	-0.1003021744341469	0.7029854041470686	-2.7796761919413426	0.8289059379630609	-0.6873334628871474	0.3031591467355886	-0.21128828770221272	-0.05267717303447004	0.9012643076076441	-0.6511437280427572	1.2979785171162908	1.2297803132479475	1.331306215739727	1.2410709826606643	-0.32709899462131325	2.9568145200463576	2.378848546697842	2.542387479085239	2.224576944456725	1.496443863905253	4.120351780978948	4.244705666315619	2.4387934146342647	2.7043266228109033	2.992571823193994	5.269362913179291	5.0270457140840525	3.457382431837965	4.781319129316269	6.1440896832791685	2.907277815154336	4.06207465099913	5.135494696049014
368	-4.1311077967293794	-0.7891052345380047	-0.8881471730696862	-2.40570377696146	0.8203121403010423	-0.5661168680203078	0.5867927059617282	-0.1848664130073401	0.07429878394918576	1.0119184230051492	-0.44211351759867545	1.446542378588127	1.3971213067066777	1.45744120706708	1.3962104285275199	-0.052920672908923924	3.0238909645028604	2.3845837056036503	2.542802804248985	2.3781964718856456	1.7462451413888844	4.117806901072043	4.215179909554227	2.455515140055913	2.826504461781609	3.0902252119244937	5.243903146855632	4.846596228760835	3.5730349927337146	4.775197493894713	6.0221919861382	3.0168187542088263	4.063405980341472	5.036499010721562
372	-3.4619171532010276	-2.050146574566309	-2.9900045319407105	-2.0103959986473825	0.5603331909337749	-0.7251777034570357	0.5989159330505658	-0.17740781560452515	-0.02037494438212812	0.893272516856337	-0.5344091044284872	1.363551970853932	1.5260777434919948	1.262123223932891	1.371484633797771	-0.06592332555100879	2.924268238313954	2.358801835780438	2.368180984240034	2.3597059190301084	1.7381970838530514	3.9431559939965144	4.112483014214146	2.3376905859100323	2.8092713285090785	2.972998134736333	5.050659166935811	4.585373390064891	3.5579008966262946	4.601354110544563	5.773796066965535	3.011838905359705	3.948860635324275	4.833014952855184
376	-2.8629329132277217	-3.344862929482279	-4.782004344310877	-1.6852054553399918	0.22260102573460203	-1.0483467552419727	0.3631643345723713	-0.15690268536531052	-0.24904341932838675	0.6471678598276976	-0.8557441809029607	1.079213497298136	1.5560858210376916	0.8074813464758624	1.1813443869328584	-0.35981079845184033	2.6497147016383606	2.296442741318128	2.053157085957024	2.144004816364252	1.4509004317845213	3.5918855576427866	3.9128358265315617	2.072565788758363	2.599040740126896	2.6177084379862583	4.6749024273144375	4.267181385710778	3.35447811233459	4.238605011728971	5.397959695538942	2.822948448683287	3.6822008993642252	4.520434845001794
380	-2.5554304058406387	-4.187183846392489	-5.585790620052507	-1.5170789918743945	0.004212779913637244	-1.3503024544002622	-0.012909831446597589	-0.1068882939501037	-0.44897055512561357	0.4116687466241343	-1.2375115124929543	0.6980715376395469	1.4558577500779746	0.2782303087839252	0.8920485354789646	-0.7950972894621463	2.259779447572193	2.1994388047954616	1.6691830116090822	1.771753068265401	1.0019615863298483	3.138965598764327	3.637610187883178	1.687356825383083	2.212753528730351	2.1241168922201283	4.199089516528445	3.9577057261680317	2.985497228714175	3.761918535271356	4.975748049571233	2.463245624045185	3.303516856436033	4.165185440991486
384	-2.68866395271495	-4.334367264294812	-5.138071524045439	-1.5565639694968727	0.017737898930826845	-1.465575810546908	-0.37570923471960777	-0.039727873999905045	-0.4894032465976275	0.28686097191864424	-1.4938608370257882	0.35827875046872415	1.2398633925605638	-0.11724220931731509	0.58780145496736	-1.1641339034252853	1.8632531119034041	2.0771613068589434	1.296962138716147	1.3334081139277796	0.5908138737067026	2.714009039702351	3.3492932235079587	1.2448761431735182	1.7352762178478527	1.6675959783412997	3.7697353267860443	3.7394354249002637	2.5420072014525323	3.3060800945734825	4.631828296411227	2.021448845528046	2.9092476294499	3.8729815385309876
388	-3.260206452721529	-3.8423674009587447	-3.6857757475302484	-1.7891775324471775	0.22249509337994242	-1.3334714140603714	-0.5884838685436705	0.008165361339099906	-0.3520869603804445	0.28320628333114595	-1.5106482467658138	0.1727350945879947	0.9620097255260234	-0.2502222948909393	0.3327452830019857	-1.292265054301126	1.5706113537234914	1.9397389839789727	1.0054031585104901	0.93398821118103	0.3972807516558065	2.4430038867305677	3.1211221139308374	0.8295420387304978	1.2857881751976057	1.4105828964859228	3.5250823408772445	3.670045128139422	2.139511818252427	2.9972820206308324	4.46836565796895	1.618728395189837	2.603453152759188	3.7327053452663765
392	-4.094850529822629	-2.9845094605434515	-1.8588023138799734	-2.129895681725802	0.44056504853596506	-1.0327763531358987	-0.5915166720714748	-0.004117697932605797	-0.1368606087090256	0.3223254672495609	-1.2996042934030798	0.17814959540688208	0.6915155631726091	-0.12669819561441345	0.1479889597732678	-1.1240859003296806	1.4408719503263814	1.7907961561766113	0.8379776456656819	0.6539168937385754	0.4895755040205935	2.385985606845228	2.9975550099032144	0.5233958946364992	0.968220589100583	1.4206311666860783	3.522530546831563	3.7471923733517487	1.8650910807250576	2.890834562632375	4.508769977630122	1.3512527908541618	2.4471025405135545	3.7673792743933108
396	-4.896857249294339	-2.099593157235658	-0.38191994928255574	-2.4479448733513935	0.4554818857137273	-0.7434577923124026	-0.42785650383691093	-0.09732628589137879	0.010384405005582168	0.2910615198416174	-0.9883839463075185	0.3195347181835783	0.4847078013103338	0.13695107365840506	0.016285335603963093	-0.7480457406231154	1.4538577758322306	1.6266715485511303	0.8098255375443153	0.5256235586247103	0.7937613109575237	2.506690019000806	2.970516674171309	0.3825035681604005	0.8328389504386351	1.6422280031703622	3.7087049390617133	3.9038040539408394	1.7455877021586717	2.9517211839538704	4.685941684336127	1.2513124911186937	2.4351117549450736	3.922448863616666
400	-5.360020623979456	-1.454849120281632	0.23801687299716393	-2.616477482865465	0.14031232858041492	-0.6522021277173616	-0.21736557726816788	-0.2555776828035199	-0.004861776239071068	0.11701029509566016	-0.7509497981185299	0.4820602226007403	0.36856532003808995	0.39331620832322567	-0.0906865817999042	-0.3458977034895615	1.5277336797289638	1.4458537065241308	0.90939372548339	0.5352952466801256	1.1416823835158445	2.6952083042761856	2.9883406086813613	0.4206817437517998	0.8670200683638107	1.937543029661702	3.9516384501823736	4.0408263104460875	1.7515487626676083	3.0876185816057578	4.8829846258857605	1.2856726613963225	2.512165540074628	4.098735322140702
404	-5.296573625543453	-1.175216314209683	-0.08032916465982111	-2.5668840343517605	-0.4579497266174545	-0.8501194097989978	-0.09069351083984185	-0.42741253864142237	-0.16745081501645157	-0.1799364681469309	-0.7156295162252831	0.5546438679996832	0.34230470570925003	0.5451235161369705	-0.18289606226997468	-0.09577282493968109	1.5732128580427898	1.2637512651961755	1.0994294854062752	0.6428929551105549	1.3674384321020543	2.831834547522546	2.992028228835015	0.6041234120375096	1.0143964265007848	2.1682395880315806	4.115671624283	4.080282677839146	1.8275663806550035	3.2101819434178966	5.000490175973609	1.3856385911289792	2.6129479342293567	4.208611000879405
408	-4.719423282151984	-1.237652537082137	-0.9812374090216371	-2.318531984197539	-1.1239397497410604	-1.27492475187756	-0.11693876952211028	-0.5445992932874946	-0.36677935626887165	-0.4873309123133089	-0.8973717070811255	0.4928090857938168	0.3916039754994084	0.5838922247449911	-0.2360833430290155	-0.08070164898524329	1.552908297432738	1.1204475136124872	1.3224883046139189	0.8094040731021725	1.3975726330757774	2.8553628849417807	2.9544475003990134	0.8621432163406011	1.2100822895015986	2.270114654531573	4.134825696042502	4.006811131851547	1.9285761069243315	3.285959473896743	5.009180056322763	1.4889529905873737	2.7003457478056956	4.22108744509229
412	-3.837324371186321	-1.5086713991221843	-1.8657591295820135	-1.9676513622196579	-1.5646285971239113	-1.7270203785208573	-0.2617386870928507	-0.5495870695543511	-0.4697439658702849	-0.6469791515228152	-1.185168024885546	0.34976804168131265	0.5049450980789265	0.572794495566925	-0.19436335514587638	-0.24725520548383387	1.512301918026287	1.0727518769836395	1.5169075689164535	1.0202782128323704	1.2885825601469103	2.79929184206882	2.898812763524707	1.1139365406522412	1.4150856697594665	2.282756322819358	4.045812119759671	3.8748204610269554	2.0438442178622505	3.3508920584953774	4.960887896410509	1.5720232685453661	2.7826471258480265	4.1737522973541346
416	-2.9647102281105293	-1.7970070793558155	-2.1875672285162304	-1.639251585636373	-1.5444821080314046	-1.9577701042337414	-0.4035657038036348	-0.41854867233460835	-0.4003126611139415	-0.526812850098911	-1.3936042750459405	0.2543546252981392	0.6809990388842804	0.5941138252517157	0.007914310301230102	-0.4364397514768309	1.5590784510350189	1.1705129117023318	1.6436144072043375	1.29266643197803	1.1909415691824927	2.772268049870203	2.884787552225889	1.3037368026242135	1.6324602324278115	2.318453544485213	3.9610800643095367	3.7762374782588854	2.1965434495781624	3.4808635623786564	4.951957213297071	1.656153317084789	2.9014441893756073	4.145638455414617
420	-2.3853835999345168	-1.9082953881721296	-1.7041400627979848	-1.4248862230565609	-1.0011270020958103	-1.790647621402206	-0.4045891155518444	-0.17078459219728936	-0.17472524896853675	-0.08407921322813863	-1.3544203008788183	0.34178659233584807	0.9220030880537883	0.6986489874366729	0.41357245936880904	-0.4701070773653398	1.7973607733170196	1.4269303047393274	1.7085549788253513	1.6607341724427915	1.2606528965592838	2.8909628318276073	2.9698026105287028	1.4248979055669073	1.8957552861987854	2.489914887817573	3.99753545705502	3.786622514701172	2.420337670891188	3.736986389261916	5.06102942142623	1.7857084229207187	3.099200956149269	4.207913388118715
424	-2.234166616521137	-1.7075642304223964	-0.5727340564572753	-1.3398263420609893	-0.08562937357264024	-1.216585871485911	-0.1978288287890129	0.1375882324082841	0.12446231363582466	0.6078763588816721	-1.0042521928227832	0.6718700511181749	1.2183016507860835	0.8875775314810059	1.0119154427729178	-0.24817523297594157	2.2516589107884966	1.797889704933421	1.7643386081019308	2.1438629573100445	1.5667465885660126	3.202024690173111	3.1677830139289966	1.51770579431727	2.235719436722905	2.8384454178671836	4.2019123924978805	3.9194264312970266	2.727358334331123	4.118369092080145	5.297292695976208	1.9921255061398002	3.386437645945306	4.38103150215307
428	-2.4494633612778576	-1.178507205848713	0.7464024405708067	-1.3222738471025584	0.8859622456116711	-0.4177920211734175	0.1572658415638489	0.431316017015585	0.41099181667512924	1.3755897248823774	-0.4286503184940254	1.1771988838991965	1.5349289140095037	1.1275894613407325	1.7202364162882293	0.19096466850704208	2.824322693369759	2.184763187614496	1.8827460956722433	2.710927479575244	2.0424885698249016	3.6367998031348576	3.429693928642491	1.6393042761422214	2.641911261564068	3.299494496598166	4.5137638931753745	4.113830556019826	3.0842232626293447	4.547307956658799	5.586626515588727	2.263181680687383	3.72521566404139	4.61998127724558
432	-2.819356434379612	-0.45854350808720773	1.7201334194623175	-1.276488539333939	1.5476864537264394	0.2958851747194992	0.48647275444232185	0.637244342148742	0.6432334168406524	1.9961045930056696	0.16124807257472215	1.6742620425868595	1.8093275978183616	1.3762289250913349	2.388384336163513	0.6791969520586911	3.318430176939762	2.4642748770485676	2.104318136624363	3.2616600907946407	2.508074277267575	4.0293321507766215	3.6584753897805715	1.8177605821491822	3.04184722132398	3.7249205018412073	4.789104926415752	4.263342846596934	3.4105505857190215	4.8965706701629825	5.8039421888681835	2.534896367348781	4.0379776852701745	4.83453940124611
436	-3.09536956959278	0.18652355623836284	1.987332339037644	-1.1357778282100124	1.6275774199401394	0.6195353253935263	0.5860232099996207	0.7047865969029885	0.8265092352026935	2.2715580406058096	0.5171642886456101	1.9434363792943445	1.9676308582219069	1.5972928960526722	2.8373010086903854	0.9974586938470154	3.5252966791793154	2.5363480980732653	2.3956987797333023	3.6459658053852753	2.757273905468362	4.195370663541008	3.752595415177707	2.0190734812304543	3.31639503595369	3.952869643721746	4.87481545171205	4.269893158622632	3.605268707709705	5.046445356979409	5.835565075446058	2.7128364971332903	4.237885941296216	4.932961451473692
440	-3.116598598240964	0.4613507080351068	1.4996294937418757	-0.9093014574935107	1.0645393106286418	0.39697059888750086	0.34074807081022607	0.6206355675286573	0.9752629970723046	2.1044719166074954	0.46996685743885974	1.842057938693367	1.953637356594029	1.758662338585012	2.9237277433964954	0.9868903731225076	3.3347151195255997	2.3681631028466463	2.646180384630682	3.7212264443859344	2.664422266908845	4.032397736858969	3.6534528640058985	2.1515095179596844	3.34953140366788	3.889470090582864	4.693312156271864	4.093437184489283	3.590799084180564	4.942968356050478	5.638562665054769	2.7143404415264656	4.266036022859666	4.865801798933293
444	-2.879367582680857	0.188895344257277	0.5041779863026039	-0.6844740492705569	0.05034212010309627	-0.29245224521232793	-0.1903023565971313	0.41475385322759695	1.070614692845969	1.5465387066895424	0.020416026883435832	1.39200102931482	1.7568907693374705	1.82196712033894	2.607057803247524	0.63841658669458	2.8092508245113272	2.012890095397067	2.713331215683677	3.4251177224467693	2.258465999623239	3.5873417763737407	3.372858754225439	2.110154623426034	3.090956441704752	3.562381496972038	4.292355049740237	3.771470298781786	3.355108491056143	4.629377830261407	5.267334924750574	2.511563294745338	4.118814934821939	4.648710715954784
448	-2.5214948590513178	-0.5736806378185634	-0.5987690076015654	-0.582032738646628	-1.020821211144903	-1.146821138347536	-0.7713306526737016	0.1570528741686041	1.055431005674221	0.8024863580470063	-0.6376497729414807	0.7954878190937287	1.4286980592896126	1.7474491552103073	1.9909030148785434	0.11935313760902835	2.181662077163952	1.5957783420327536	2.505050414436464	2.8316585946116137	1.7305898622688642	3.0562450808609936	2.9914548321537233	1.8458402110226848	2.6038851672234293	3.124047748307606	3.8366849325587853	3.4038209829222916	2.9749312325708077	4.2399024856331655	4.859226691375431	2.1581873839248797	3.8576574228165037	4.359326351603622
452	-2.2312211934023525	-1.5291700324551347	-1.4398746454125175	-0.6839854699985666	-1.6879239039720444	-1.7575526193113855	-1.084109661226204	-0.05726490155305567	0.8819698073054059	0.17538170472211312	-1.181943055983471	0.35976537971263617	1.0752606364759016	1.5241562089585772	1.3090497222274988	-0.2833401255606512	1.7642410949033245	1.2697598902115228	2.053740973055769	2.152436489392891	1.3646520341751291	2.7061657837254494	2.6264309816806666	1.4175314867470048	2.0649635739643246	2.797879450409788	3.5394310861870864	3.108764640588624	2.601814025032003	3.953707685025172	4.58180283343328	1.7814483597600876	3.5926070122613263	4.107511510015272
456	-2.1371900981349974	-2.2639031353059225	-1.8072416736750685	-0.9758160089651344	-1.6071927506877117	-1.7877113773986941	-0.8830355979559437	-0.13524988259500453	0.571810244070234	-0.04512810695698533	-1.2982696262006388	0.3550121477223786	0.8239074328601719	1.19922411139028	0.841697750350656	-0.28721079157794777	1.803777928566626	1.1552296847740602	1.5260555705641943	1.6619043308260675	1.4131560289943799	2.749263756486511	2.3832795559792577	0.9844250654161769	1.6995280938154884	2.783093683845556	3.5607259183629365	2.9702033921591604	2.4037892757761083	3.9205438991744543	4.559613693169479	1.5321147403181834	3.4385058793038366	3.9872650999489925
460	-2.2411584797542163	-2.448853486554056	-1.672551031658257	-1.3383437361305894	-0.710221527213821	-1.1310868234687432	-0.1304472234531918	-0.01984577248450308	0.24047684608780062	0.2910216741366856	-0.8271992185688714	0.876955864599559	0.7752317766644015	0.8824364520681742	0.7958667854242538	0.25264757807840427	2.356491798173355	1.2918866840170473	1.1563445300471245	1.578611012287889	1.9790997455220523	3.2344336428042992	2.3170137346896533	0.7380126696073392	1.6821594195810807	3.1643268982150663	3.9275391002676328	3.004575244947136	2.490523093611326	4.194082726379953	4.8174013969864005	1.517453309042639	3.465430966210955	4.035675038639025
464	-2.424798959332073	-2.0110712000616933	-1.1414494485646505	-1.5961430032485686	0.7420626263956676	0.027014944634180676	0.961090681510552	0.28182670402898025	0.06027680992762869	1.1138509483825598	0.14924776516426227	1.7841296150938943	0.9597939228620926	0.7132139187925697	1.2065685957009606	1.2639104095973241	3.2458095468588297	1.62050604411113	1.1322562665962839	1.9587742040770926	2.957703821344161	4.009927739509695	2.413707250223114	0.8041926006040387	2.048987383437644	3.86563657738315	4.511447418266672	3.1567566315105466	2.8552353310022833	4.700517165714122	5.262144552296638	1.7466847852476377	3.6622595694585174	4.213343609662623
468	-2.526360505401338	-1.17143165769458	-0.38519439003966943	-1.5997729261062252	2.2442455235086296	1.2794758049132497	2.008111710246778	0.6906552893367379	0.16855359034897924	2.141536707239624	1.3253476586258648	2.745805256586795	1.318002578268738	0.793671486758074	1.908725018450586	2.469883197270614	4.1284890070631395	2.0036477992015294	1.4894367418831493	2.656599514929694	4.066041459308207	4.779088485095826	2.5983042651379105	1.165516254343426	2.6664795808227177	4.6698717953080955	5.076423632202793	3.324574938963433	3.362904540154502	5.257371412355075	5.712696537853439	2.115935081861757	3.93106411895075	4.414762008964882
472	-2.4411909518596566	-0.318516194016228	0.4064083685150857	-1.301282760195717	3.250613681215597	2.1725320761188875	2.626245492026594	1.0778599950279937	0.576453743909737	2.990365974505716	2.2959771098343187	3.3860103998526347	1.718414779139203	1.1248924703807448	2.605662577726144	3.497707119693919	4.645547855092408	2.281080955468241	2.078199142931152	3.383223048251396	4.955522047882797	5.230463491585609	2.768484823866571	1.655187841051155	3.283908835703068	5.303872095068483	5.381314740899571	3.4041836175801894	3.8025362395602853	5.644245610291886	5.972499832332997	2.4501426158080033	4.124966134147229	4.511900413565822
476	-2.191224331091836	0.2000544215158233	1.0452400419548336	-0.7864660600833033	3.4145834359743423	2.405955308561777	2.608116381736062	1.311311718491014	1.137703654277843	3.343708745143762	2.7327461173680576	3.4553115280651174	2.0092425295646015	1.5868078430167056	3.0059795303744985	4.0345387356938955	4.586517322404532	2.335658782784059	2.626901619954625	3.840096940835693	5.358013139548489	5.181119905742172	2.8380393910279986	2.032347197169842	3.6483499911702713	5.554563508314942	5.290221200937909	3.336092702072171	3.9832684893176036	5.698102459826321	5.916362747513792	2.5851941043433735	4.116553296186292	4.414797294914499
480	-1.921008820452043	0.24868981477414953	1.3560997213457697	-0.2440181368389	2.742802613009171	1.9581308315430113	2.0148673006685645	1.3085694280011115	1.6074899394458115	3.0952927988105032	2.5254352028981812	2.9439008161605047	2.081699366082105	1.982931608915698	2.9589354917206903	3.9578483004779748	3.9860329527353064	2.1423819011004053	2.8748276161090676	3.859350194723851	5.198121534574979	4.6634297253170365	2.7727923323243235	2.103245729858272	3.6254415420551362	5.363308893014122	4.838955866994237	3.133374921517089	3.8289358519203907	5.391218171813287	5.553579793260053	2.4517924723712206	3.8667685887938665	4.12265871914451
484	-1.8175589992410608	-0.05874427393148462	1.207223054698942	0.11509924352911594	1.582172032176359	1.075219270852532	1.1353528470938368	1.072260615502641	1.7650829509040065	2.391689056080096	1.8190170480578751	2.0801162667208675	1.9173870038260554	2.133053058960872	2.5178065236419287	3.37815808396975	3.1051468770784707	1.7793154671568303	2.704155915108698	3.4782466800610448	4.6186141851164635	3.9116446873133777	2.604995482543502	1.8243579818441342	3.2636341966246176	4.853125559951626	4.224310387436448	2.8793897556086576	3.422490111293125	4.853792178297111	5.035667883556913	2.1182210391924112	3.4586067112385606	3.738860597707501
488	-2.0030388781520414	-0.4741318809936364	0.5682131633717656	0.1482319381070812	0.4387743461974991	0.13173793223022176	0.3346416345730493	0.6885011774799938	1.5281633100074201	1.5471447667160885	0.9272946691942979	1.2142587869504655	1.5945105512415818	1.9617218921723725	1.895950193386709	2.572890513599901	2.3048994482975096	1.3922417128698152	2.1967985574571567	2.905966036135431	3.904386987365271	3.2509400762495626	2.4170284210216133	1.3270492520206165	2.763944142039046	4.2708401572164325	3.7160012628195367	2.6921989849783636	2.9701294823998254	4.322287071759393	4.5967121008211755	1.7629535153701372	3.0700201910709657	3.4340348157012333
492	-2.4639935431259383	-0.7985657433375141	-0.435701696964763	-0.1625954057641458	-0.2784697108390611	-0.561286448015261	-0.12871438232349544	0.2869303517249876	0.9925764774057895	0.8769508578094105	0.17114488737288575	0.6477130635120816	1.2471514908774293	1.5340931376825733	1.343834754412014	1.8477044058879732	1.8751615238530135	1.1280316085945599	1.5870693881973197	2.4041104256013472	3.3439698134872193	2.9426543638321085	2.300015920554102	0.8493612387193691	2.3715979993070904	3.8701712987462127	3.5310315996665453	2.669296973164848	2.6996591022996164	4.033240308115387	4.448598850462703	1.586902018355213	2.8928213046470117	3.36860632045932
496	-3.051347009584297	-0.9990249846984686	-1.5235241613069748	-0.7095146161285697	-0.4486713994142412	-0.8932977296210133	-0.2154607022329229	-0.017688181206629097	0.3768119504474908	0.5458149300146194	-0.2682004862212811	0.49873405569043305	0.9986373756944728	1.0208412383054972	1.023798820771785	1.4008015358843977	1.9063001822979555	1.0672454807039018	1.1403423518953875	2.154313797279997	3.1011297624493306	3.0642316264035734	2.3059768618537495	0.6144694074375665	2.2525746765485133	3.7956316375269368	3.7317800427632197	2.837091200341306	2.7472231318731324	4.113952149494861	4.6796641231642315	1.7107844309529012	3.036492340050879	3.610625734750013
500	-3.548106423002952	-1.1847453087458661	-2.343700403018272	-1.307494637049235	-0.2597716742155843	-0.9638243889316286	-0.08870339371220269	-0.17092306868791415	-0.09203087515245197	0.5160610066736032	-0.4028131355606008	0.6737146956600263	0.90506356726068	0.6141931399097301	0.9534442996748463	1.2592949835454392	2.267753595348691	1.190325137947782	1.0251700852260255	2.1864898149599905	3.1608869949644736	3.484241476798839	2.418847316356987	0.7221806031113617	2.4220421253088817	4.025719155638038	4.198960770496055	3.1308505456079354	3.092579356968599	4.524929988880825	5.207713113988019	2.111809963616557	3.4672174366196526	4.091886986891879
504	-3.7703959846670667	-1.4658490382378686	-2.6078307562790193	-1.7673000052654744	-0.05065516369666626	-0.9704409217175053	0.01203043103905977	-0.19002714705173698	-0.2810048453865698	0.6203653200699281	-0.3794388165430772	0.9478483772188819	0.9366879439546704	0.4444555628999218	1.043403861272519	1.310370680361676	2.6951126984262075	1.3917251790194958	1.247424837777679	2.400625699657997	3.3692221556475843	3.9387638469433948	2.5569438869769545	1.110278126774454	2.7581028868658053	4.398474205356102	4.6890396953451505	3.414913407286986	3.5740227609044384	5.0798129907147445	5.809604630107549	2.631113760980978	4.013392438292451	4.625619399789939
508	-3.649950733506318	-1.8044398977498302	-2.213080400601474	-1.959732169925504	-0.07025448960209682	-1.0478105518589271	-0.07029148173466715	-0.13688066567194188	-0.18624836159412966	0.7080551964049289	-0.3517286470592819	1.1054875822766612	1.0067253087375598	0.5418956862119536	1.1957803934424316	1.4005506003305268	2.93596266958936	1.5358372887935872	1.6766999917613072	2.6593396596523897	3.538548460609481	4.168775547946534	2.6099748545554666	1.6027774770324774	3.087198964907598	4.70392273668941	4.94930361451837	3.538502207405252	3.9745871920372755	5.5341367581834096	6.217628940143061	3.0498590392358813	4.439657200094654	4.983104693229417
512	-3.2563872255125434	-1.9804031798907098	-1.2908226219012036	-1.8482533646649686	-0.30526676696952515	-1.1619106501807765	-0.3114733092073494	-0.0712918935406321	0.10908129038688488	0.764014599778507	-0.36834633257373806	1.0592460605580827	1.0298621628508977	0.8529469945353586	1.38867830879556	1.4368826114616366	2.8753721641423606	1.5263345203010388	2.136502737373183	2.8830621169732873	3.5542912393478105	4.046036710060618	2.4945139821968305	2.0100424238954675	3.2841706193022606	4.790202128714007	4.833524691776016	3.403405180921388	4.1298656359353965	5.696825013082719	6.237015231598021	3.1931691089119	4.553478229470369	4.994466769006395
516	-2.753243439398826	-1.7156628326968713	-0.14846681020922564	-1.4850399456677488	-0.48988056059178375	-1.1316462726631926	-0.5270951973004991	-0.014769333377444427	0.5121991025390664	0.9157692766910481	-0.3502904465891276	0.8813226796787132	0.9748006438439492	1.28898942145112	1.682204838320285	1.4271963798729328	2.57551740949781	1.3523669208714904	2.4973366197476876	3.0814003866599093	3.4208230885922557	3.6225013641450787	2.1983466092873547	2.217867607239168	3.3239176189425095	4.624365794904189	4.360000122506462	3.0100483818351726	3.9961440462308966	5.506079183028418	5.826024994445974	3.0051553173486254	4.288545120855814	4.622610557329274
520	-2.31571125399531	-0.8886139966463884	0.8575658180519871	-0.9821463202475222	-0.2922482483160992	-0.7636647205145589	-0.4954020070442894	0.05413025603932911	0.971249160698619	1.3231223788234385	-0.16671574073661496	0.7388377767028818	0.8803650714581696	1.7677265361024102	2.1423475688251012	1.444067116906144	2.2187325898419643	1.0886779996088352	2.7178394725845263	3.3062074100944012	3.2297680296416402	3.086279384450325	1.7920098259504635	2.218371147276959	3.2613334573420962	4.283992279680786	3.6902058031373497	2.460238688933148	3.6486344245344213	5.038413035069757	5.104637609945281	2.5608375007824318	3.7263178731297937	3.975985993837333
