time	FP1	FPZ	FP2	F7	F3	FZ	F4	F8	FT7	FC3	FCZ	FC4	FT8	T7	C3	CZ	C4	T8	TP7	CP3	CPZ	CP4	TP8	P7	P3	PZ	P4	P8	PO3	POZ	PO4	O1	OZ	O2
-200	-0.016825010957558124	0.34569072636110154	0.6903037411427402	-0.19133093904826212	0.2949966482820758	0.44563686735174274	0.327982782489489	-0.34344959172320516	-0.057887844595191695	-0.0353966466188821	0.632918654274379	0.21070174819678136	-0.4854507732055833	-0.1334278878181105	-0.19266664933198388	0.6786304099115313	-0.12361704526923775	-1.283773180581416	-0.4688224482620616	0.09468687301809882	0.2434681051783014	-0.34449407371328966	-1.416911717652195	-0.5742019996450974	0.0012555875550919963	0.20727477915407255	-0.7870497087634704	-1.5451714953511364	-0.01658967691941785	0.03521213299086514	-0.6051853283861469	0.16317251283456527	-0.11393572361313493	-0.542867480337918
-196	0.3932903399074585	-0.05619240910528776	0.9777526234736421	0.0654277501838556	-0.41351699724698554	0.22096861843109866	0.08929177351103684	-0.346605389435193	0.24771793124121816	-0.4942609059252679	0.3439068487544451	-0.07042962294916594	-0.5806933030726171	0.2336689972938392	-0.6474279744968408	0.3300116947901984	-0.2805732779571632	-1.4282634222210078	-0.26399394803152315	-0.31769663015263555	-0.04407297063667414	-0.5009811507927919	-1.5087028703745462	-0.39750915665400915	-0.3402831545821518	-0.11682606458970517	-0.9005854107053664	-1.6008402068728789	-0.27322232654254075	-0.27450838615729	-0.7529565076891165	0.014796878173841711	-0.3523661187335453	-0.7225725036497703
-192	0.6947439295394278	-0.20271781035740366	1.0770471068845993	0.4170007099113773	-0.6255460365714355	0.32828888214196017	0.08260023573048034	-0.23134976567032303	0.5218641148742837	-0.5834620580247332	0.39109524985753485	-0.07888607660880757	-0.5295690284710112	0.5179852234160289	-0.8417706468310322	0.30707091015535404	-0.15624514182696975	-1.3484863008785415	-0.04277344409752997	-0.5260672555992981	-0.06866536272117169	-0.33883854661270035	-1.271797653801959	-0.15748113354023405	-0.5266696201378773	-0.2062524402894662	-0.766555188150999	-1.3728189433723443	-0.4263686526977841	-0.4377257514869355	-0.7313401084555151	-0.06619053317286223	-0.5065571652974517	-0.7919362167391092
-188	0.8955085254947956	0.21632155721407922	1.0930696698247981	0.7559087853420325	-0.1915248031549046	0.8327507355645902	0.431847392422416	-0.009959639956243372	0.7458063941245577	-0.2601513558018449	0.8059121349968227	0.24677526888531415	-0.36274257210700545	0.6813664419137483	-0.7337517719816834	0.6058502181969377	0.22881348373340532	-1.1303062410427354	0.1332360949728687	-0.5220531212023893	0.1268493529931822	0.06623090041843445	-0.861827013700866	0.026574928246398486	-0.5811154231658507	-0.11497193545877772	-0.4875446843712561	-1.0256053183410765	-0.5379689918287095	-0.530943094343549	-0.650243399885698	-0.19184684704981297	-0.6704856736421169	-0.8573163726142318
-184	1.1314297885939149	1.2539671627809976	1.1265891761946372	1.0009461616040185	0.7909960726794406	1.633632894206162	1.1067938776682607	0.28422743010285983	0.9080513692817925	0.37493923211802094	1.4725571833625337	0.8323540070499669	-0.10768812867632528	0.7066432219784096	-0.38622814319372145	1.0884277793106998	0.7571510057406602	-0.8561828710874	0.20904147572191584	-0.37254777456638055	0.3958216597577112	0.5466709123160777	-0.47632792471787405	0.05564502612608467	-0.5769491181112146	0.01330446821072364	-0.22027966324504056	-0.7500496487754046	-0.6915822011652998	-0.6686438305185627	-0.6465749128229691	-0.46182611468063506	-0.9398046708221065	-1.027031061440504
-180	1.5467696150828192	2.6210398607836334	1.216408368854218	1.1332309217451901	2.0209083506105876	2.502344125151915	1.9216930817723368	0.6027576312105746	1.0030219529577253	1.135814425461812	2.180145019748959	1.491703268099656	0.20949339813746184	0.6053813680623182	0.08586589225309242	1.5518127640645323	1.2535610167325235	-0.5759093746903777	0.17206942991682378	-0.16078533191617672	0.5678088650672749	0.9109178758510934	-0.26097091966543734	-0.09103261656427408	-0.576380012964336	0.0260394922731524	-0.10831295671534756	-0.6691898686679715	-0.9307610369071039	-0.9308122372968366	-0.8128160813790806	-0.8965038038507422	-1.3455395664575756	-1.3450242247001485
-176	2.1564700549039473	3.7838394546343457	1.3263139691245236	1.190598127220164	3.097346774864277	3.160101644166896	2.6011836463104503	0.8856629110863649	1.0281913254527726	1.8154864265381636	2.698292248589078	1.9930093238102982	0.5473604784497432	0.4171105016667764	0.5640525803630135	1.8080705358632223	1.542031761090875	-0.31168308775410675	0.061011686767079985	0.055369671294369066	0.5227045999681396	1.011536118814525	-0.25846856767247234	-0.3479306391037831	-0.5964230283937738	-0.16887509780208596	-0.23327444434874464	-0.7960405329633354	-1.2350972859670672	-1.3251476254385035	-1.1622766226987733	-1.4253709280266507	-1.8374526454310685	-1.7737694933930614
-172	2.782223217615454	4.21186779866171	1.3783891166218307	1.2262918918166303	3.6453149226659716	3.367496243557826	2.8877961562679757	1.068566438838079	0.9831560229274682	2.2310068551002815	2.8466665672910074	2.1432158892879967	0.8369199016421683	0.19942288050370013	0.9463966464943977	1.7422648624301225	1.5027011594979753	-0.08288422205979569	-0.058263290526393674	0.24553444919583522	0.22692276480125875	0.7898738364304428	-0.41657605662074715	-0.6071295722891666	-0.6188619121185541	-0.5747156724724748	-0.5980480298201826	-1.0549185249397361	-1.541877146642718	-1.796362037891685	-1.638863082562708	-1.9298036049757368	-2.317729705680888	-2.226094001871718
-168	3.1147582452335256	3.641182175026259	1.3036432233321524	1.2594867912918422	3.4343979271962883	3.001061431937208	2.6453740529981964	1.0972369881583928	0.8700122811286255	2.2540333214117743	2.5421454842280617	1.8598651839029245	0.9923467015007605	0.012031385644696342	1.1485320300668491	1.335549947227731	1.1123157711556009	0.07749962042076827	-0.13318687643756968	0.38431036375291516	-0.27155423095806824	0.28791147397783584	-0.6370258911261918	-0.7818415741254355	-0.6240753515699605	-1.118456480063437	-1.135168787951235	-1.3387098278578755	-1.7872419312176284	-2.2612886371740957	-2.1500194018440615	-2.303005689528487	-2.691131585002421	-2.612114899716079
-164	2.8771176265555565	2.2165107671089266	1.0730857822028281	1.2531996933768075	2.4613480505789065	2.0989515728409156	1.915906066825705	0.9492879485958625	0.6932822448392912	1.8381621791206832	1.8190705730287482	1.2032110660692397	0.9469955539635888	-0.10496786210261162	1.1064563961703944	0.6586046202243903	0.45519894246569287	0.13189615275937858	-0.15573207994719973	0.4329974342381312	-0.8724546410467755	-0.36988720204425873	-0.829206404976615	-0.8493863322747561	-0.6174413546232088	-1.6854320721988556	-1.7277346805820422	-1.5605806072888555	-1.9350783776064622	-2.6406831674662166	-2.596966021656792	-2.488003009236585	-2.896785490351725	-2.8678970264506622
-160	1.9959111163292171	0.43072682510346777	0.7034835201621988	1.1353327007239535	0.9674813126933003	0.8609724619108787	0.90560781727075	0.6514694674256323	0.4626066971066428	1.043552753674792	0.8229072669233659	0.3568561664154616	0.6950495225524196	-0.14564412795488524	0.795234797377296	-0.15095667502914173	-0.2983152560808565	0.06615403277861005	-0.16344061452608807	0.3482097378522392	-1.4531489573983514	-1.0129655574019194	-0.9386715865277871	-0.847794292216825	-0.6251752360772239	-2.1523683016794397	-2.2327032032863063	-1.6723178582884843	-1.975367898722087	-2.8689541744277296	-2.8876554893066606	-2.4751808580848755	-2.907054893783439	-2.953194133931841
-156	0.6717766506400477	-1.1093635531073294	0.24799886283249648	0.8476265647468505	-0.6203871949745055	-0.4034923602884239	-0.095992147680159	0.2783222787505814	0.19501525114413895	0.04698358464299742	-0.22242948356737158	-0.4378226388367733	0.30900502126878754	-0.13695457543127676	0.259906231700825	-0.9181721187298119	-0.9417074298924674	-0.08689098038193209	-0.20581108279717994	0.1180452328920241	-1.888090248109312	-1.4692163430313079	-0.9445507502550091	-0.8298001864463683	-0.6615641696439505	-2.407891744256351	-2.5063071187637354	-1.6505552488616182	-1.8988728475312464	-2.886124126776958	-2.9381973669256367	-2.271327251421822	-2.7056069305774466	-2.8319013047245263
-152	-0.701245782989046	-1.9634855936068234	-0.2181147331452971	0.39172634383482335	-1.8274964048022138	-1.374302026139901	-0.8295067527808799	-0.07258076947483985	-0.08773355908893031	-0.8902735687666796	-1.0750205489673526	-0.9698203181576708	-0.08338939377473348	-0.12669895557363242	-0.3714684238591905	-1.4694426022623042	-1.2978992429389398	-0.24954692956385563	-0.3029276720981877	-0.20596164412950246	-2.0667209573064453	-1.6104313094487612	-0.8396499731799228	-0.8135111311400516	-0.6999598127812637	-2.369405502059208	-2.4370503364068536	-1.4737498723014781	-1.6795688825163932	-2.636793606776574	-2.681549065495364	-1.8761300993281682	-2.275298112846733	-2.4641916689646712
-148	-1.719369287918226	-2.034519905675709	-0.6100560411309601	-0.155573770011076	-2.3076071680935297	-1.8338612271738395	-1.1598685950559273	-0.31902024069349844	-0.36174043921692695	-1.5040020904715585	-1.5492182930932996	-1.1314249010130557	-0.35379925280890645	-0.16057856340397295	-0.9163523889294136	-1.677283521232185	-1.276407000180092	-0.33033755338236276	-0.4243511844888427	-0.5113968240224153	-1.9169129084827088	-1.3873612845679282	-0.615537641878534	-0.7654411177383149	-0.674610017026937	-2.002315277766295	-1.9818068692716262	-1.1160854073002582	-1.28519797000653	-2.089900965182492	-2.09118198820477	-1.288946029269833	-1.6122969348255207	-1.8257144643465077
-144	-2.155246967596244	-1.5583130081887457	-0.8480867722079993	-0.6691868884357401	-1.9872434089078637	-1.7508064464234496	-1.1129579515967896	-0.4280555535476358	-0.6007323845955097	-1.6321563679495137	-1.5805689056545278	-0.9485195255173583	-0.4321603168066967	-0.2568699711036324	-1.205326196488399	-1.5027729234901037	-0.9025495029550462	-0.26857042244814555	-0.5014370667195278	-0.6700698716412135	-1.4341812097579467	-0.8459084012608931	-0.26754099063082887	-0.6265110357679127	-0.5181125389369478	-1.3406319584377395	-1.1926960915016713	-0.5676701054545882	-0.7127899509553527	-1.2733439174928183	-1.2107235162684733	-0.540860353534819	-0.7579037527976281	-0.944301602840477
-140	-2.0479211755545936	-0.9360258555621769	-0.885489044337994	-1.0312131617259659	-1.1109250755872127	-1.2954628434852522	-0.8439469316155768	-0.4271196712200579	-0.778501806677813	-1.2966775861427078	-1.2551882235307834	-0.559184609431853	-0.3365767589654414	-0.39641412992528274	-1.162256357119601	-1.0206726763704979	-0.3090315751379679	-0.0653773023027612	-0.4707587051427016	-0.6075986608423647	-0.7056178432769273	-0.11891976713912183	0.18619188619334756	-0.3657669415775954	-0.21528999453071718	-0.4993603216915069	-0.21874803249443672	0.134667619722825	-0.02566432201343181	-0.3005382113021423	-0.16854517119292595	0.2749791734428598	0.17841766729608258	0.07389879953084977
-136	-1.6518137413282283	-0.5111539947002134	-0.7357064466975125	-1.1838339537295515	-0.14508183263865507	-0.7662329058375121	-0.551474867858911	-0.3830421259269088	-0.8734724499583904	-0.7058895808517723	-0.7787690142996664	-0.14788977764461195	-0.15569092294008624	-0.5292732106197378	-0.8460067489245241	-0.40462008016472706	0.31151461522607443	0.21993319634699715	-0.31619933167733566	-0.3503099671102423	0.09708867942616219	0.6110981091329374	0.6904630047531779	-0.018526263488248415	0.168721824458433	0.3428767314837152	0.7313711028707202	0.8941282607392167	0.6444142444553164	0.6426789148317069	0.8456179478276359	1.0099873517285916	1.0347609493833294	1.0586451265309744
-132	-1.2819313970625066	-0.41725110902344653	-0.4811051773799154	-1.1519793242933751	0.43257692347030247	-0.4524879146118961	-0.3812552680880211	-0.36095532683792775	-0.8747023321955806	-0.16201594431026364	-0.3903341879526418	0.1336787637673367	0.0051180175376361	-0.5955165609583183	-0.4236950863631341	0.13265387680417265	0.7755146603077913	0.5045336472170807	-0.08259591439374503	-0.01640078607531124	0.767796216456734	1.169419285682754	1.1587524384806813	0.32066050090893117	0.5117055164769276	0.9981626247000355	1.4585649930368378	1.5753598173421788	1.1441965074261229	1.3599702085491323	1.643338914536881	1.5144240817935122	1.6561505752711363	1.8351521445671257
-128	-1.1477313012709582	-0.5699493274603998	-0.24881099101667195	-1.0244963143231856	0.35984253792510307	-0.49960505836233676	-0.3696295311655453	-0.3862656047128682	-0.790926871687031	0.08424618073889414	-0.25797706777289536	0.22110287789311625	0.08135091492856178	-0.5564432726162645	-0.08672405012407948	0.4231729198738976	0.9709715222639561	0.7245591264551184	0.14504612945652473	0.24604290661680797	1.1445554465960541	1.4459494315833985	1.5004243812825935	0.5468818531534052	0.6985215527064649	1.3420703377218277	1.8462151242373754	2.0537204690580184	1.3732620443004857	1.7292449430675478	2.1116826480956377	1.7119801001240769	1.9675590942297785	2.2997388781658854
-124	-1.2646961180227696	-0.7838039378404212	-0.164398341955921	-0.9047189928101035	-0.2842436127638755	-0.844766674293103	-0.45019757633986185	-0.4319860626281358	-0.6551551802306578	-0.045198745911446424	-0.40649461643585794	0.14505554699037548	0.07718305270258483	-0.4195167113679614	0.043576646486172856	0.41265800491097376	0.888487575195139	0.8595207311863946	0.2842169694877281	0.3371156743598175	1.1788744896688916	1.4279936515994356	1.654939289683069	0.6047013982764373	0.6863452178792665	1.3677316869536087	1.9003527116479935	2.2647664489786696	1.3402202095526705	1.7620688632346144	2.2572412433854865	1.6468731123352702	2.0140924402884406	2.465384953950062
-120	-1.478623982511035	-0.9170518494340868	-0.29105105922648566	-0.8567987062756645	-1.128524062168451	-1.2609766689888864	-0.5157533274980495	-0.4394619751802143	-0.5193192349673789	-0.4288322318694206	-0.7164376956017522	-0.007278756220143052	0.048046927777815406	-0.24081660746332373	-0.03462098530134621	0.1774225081494252	0.6087845548518217	0.9236055589245288	0.2917258136059619	0.250382512175691	0.9553461050708931	1.192435857623239	1.6114263493861294	0.517231522684747	0.5267391787581547	1.186671254022986	1.7329910949822231	2.2228529397155947	1.1605163783337107	1.597077484866998	2.1905345861442367	1.4657797776408146	1.9361087034934483	2.4445655284197403
-116	-1.5752174814508146	-0.944433329105098	-0.5762376770729718	-0.8760655500227967	-1.7114512877169648	-1.4845197163294626	-0.49330720180894716	-0.3580092182657303	-0.43425103912388213	-0.8261726477744966	-0.9925473307345679	-0.1485609408442495	0.05447755367710698	-0.10058835123415223	-0.2241161012951613	-0.1194784936272551	0.25841182405078944	0.9365963912205265	0.17813564792003986	0.060794986630965574	0.6478932483527827	0.8639367797020091	1.4065967762719878	0.36748507526123053	0.3299717298759774	0.9712632273947505	1.4976409635878996	2.001362795545189	0.992522058365247	1.4257626497511253	2.057653898766105	1.338607903915567	1.888353104592108	2.376829856593686
-112	-1.3995559180210264	-0.9293077564618595	-0.8621288516212465	-0.8954728223126653	-1.7289611057498442	-1.356702562721506	-0.38567548892875936	-0.1803736533140934	-0.42296579373382603	-1.0194659207354222	-1.0658383342535969	-0.233100503094568	0.1176773530253992	-0.0630400477248266	-0.40133297342063057	-0.31207805793171367	-0.04460649181071165	0.8981077648375984	-0.005048614913889692	-0.13224743273247544	0.43166792283745037	0.5589351639940978	1.1026450367744995	0.2460515790926009	0.19519938479254642	0.8656929113465925	1.3099887337989196	1.6869771437968224	0.9478039121539917	1.3885762656439622	1.9564119528013184	1.3625392879417548	1.9485611866391939	2.3426895082454338
-108	-0.9174950099668729	-0.929753241575786	-0.9627910828124113	-0.8219820240248535	-1.1958926885929049	-0.9052443481478273	-0.2595486932400425	0.04748125734858334	-0.46268054726133306	-0.9364734268386653	-0.8779945947414372	-0.26558017663660344	0.2046271557409955	-0.14115472102289867	-0.4960820662371372	-0.3148795656360511	-0.23297406674215743	0.7838649729965171	-0.19677837143330473	-0.2709813707185783	0.39313882490082197	0.3390433779739538	0.7575416545815318	0.1953770811393344	0.14772495590106294	0.9085205174396351	1.1929013698977595	1.3345624174755855	1.0248703930728513	1.495368715325509	1.8815065574826237	1.502597924253485	2.0664083905500323	2.312534326436803
-104	-0.20460899122554604	-0.9155907607803966	-0.7622012476750836	-0.5850765094290433	-0.4239940632605726	-0.31749531546541493	-0.18969975363997355	0.24943859812224986	-0.48883303876482337	-0.6771178824495299	-0.5000013696444477	-0.2756155722335199	0.2517453127703948	-0.28725990580511873	-0.5230176435617095	-0.15760593076491744	-0.30203756613768173	0.5687312469428453	-0.3498700252282659	-0.36554476526475604	0.4911388444421378	0.19721402178086817	0.40719133512687844	0.192923143018966	0.12959419158164248	1.0140635941651994	1.0771095725521662	0.9516814327054202	1.1119531364977029	1.6200693804846082	1.733624334726718	1.610722776160977	2.0887970871640387	2.1656145994823
-100	0.6055833085983074	-0.7704269866565434	-0.28538119720886407	-0.1754918690065411	0.17094121830220244	0.17628027454215586	-0.1958263958516781	0.35938438682419377	-0.4231964041038798	-0.42972195039973654	-0.07895527015063651	-0.27942269969964634	0.20894551224406974	-0.41275703802801805	-0.545239447170766	0.04554431128923988	-0.29187089131097893	0.25853389436298124	-0.4360294629055554	-0.4631445396174156	0.590642033516249	0.07960173467565763	0.06604557467713447	0.182648956314521	0.05111769573895551	1.024510381019317	0.8548571445816529	0.5181477056772764	1.0589054796186959	1.5741968115162577	1.3871386016156095	1.514568563452083	1.8494262648618975	1.768763776128173
-96	1.3720880712199537	-0.3749606897900859	0.30575725359014344	0.34115567717249345	0.3189730934196002	0.43613150605715323	-0.2175142610541847	0.3546127369987471	-0.21714381818784093	-0.335192530500995	0.24965456065088704	-0.2593581371911767	0.07564388941501653	-0.4298900652999011	-0.6029940828358016	0.16862562256200841	-0.2559235983586005	-0.09330582595155923	-0.43978971131868433	-0.5896405562772614	0.5463429675613515	-0.07420125584941827	-0.26005962425376716	0.1260821071064093	-0.13582210208456477	0.8010917285720728	0.4524979877968377	0.02289021940710586	0.7716494183131556	1.2150772779304548	0.7743318657398547	1.120900747330215	1.2681974140573256	1.065843102625167
-92	1.9709811160869835	0.28575432228421593	0.7927653173458415	0.8416118004531069	0.05322300256762259	0.4810665535701985	-0.14853328428914356	0.263533233930895	0.11403578491029899	-0.3888475587087298	0.4295274008396809	-0.17796327128778464	-0.09672684198038613	-0.2947623424240553	-0.6622429473369389	0.14402253889438127	-0.23599193930648324	-0.40198659795358727	-0.35172420651325736	-0.7095555049147824	0.28650367187644027	-0.2968525282994391	-0.5623335228073867	0.03695118790476363	-0.39360162516401204	0.3030814222789977	-0.12059249698471397	-0.509694515371928	0.27139607003355604	0.5272785411873654	-0.06395490451401309	0.47229435920681756	0.4026975323523508	0.12410178004164978
-88	2.2956244887567174	1.0661599609159929	1.0126899455251739	1.1876007288512669	-0.32288587011832426	0.4551161814166312	0.09016554034833503	0.144580497972715	0.4879883515435216	-0.44613969213379845	0.4937358188084448	-0.014867478012754764	-0.23721966087530583	-0.02994739256688812	-0.6258465631896342	-0.010070024032798403	-0.2530040436555835	-0.5928001984888275	-0.17222663716702197	-0.7388233523788825	-0.15049092433604272	-0.5813897237404145	-0.826835391818081	-0.027175070649320336	-0.6169728025118124	-0.3895180811584376	-0.7733657340551296	-1.0212227080310965	-0.31759771624488053	-0.3677311828388867	-0.9900436376370989	-0.2764025621588248	-0.5774888381682931	-0.8901832081254283
-84	2.265054935458654	1.7103196339341162	0.9402338838680505	1.2791193691383929	-0.434251217937816	0.5169166909518383	0.48384714004427254	0.05126308636835681	0.7876529077670743	-0.3250707379716947	0.5196214901202718	0.20122013935307487	-0.29827007576023085	0.2855725579204323	-0.3999707390700507	-0.2141047412711898	-0.310763060261999	-0.6407699568783052	0.07597617785821979	-0.6020790323315202	-0.6414421780603848	-0.8910865761193633	-1.0387710306644036	-0.010739576044385956	-0.7005911451771307	-1.1162787647674215	-1.3779166902085338	-1.4436258041173413	-0.8397428372162484	-1.272050496704458	-1.83159994616606	-0.943390128614873	-1.4738911353092392	-1.788491482987545
-80	1.8594734621784497	1.9798433730683926	0.6962339264457611	1.0960358353599118	-0.0806514693250497	0.7215511184594781	0.9055110193278791	0.005825872518314444	0.9152867174881649	0.057503495220198875	0.5595588669954528	0.3888055374342692	-0.2794869833088743	0.5527111873977207	0.024499965769780915	-0.38556724689412053	-0.4056075205099055	-0.5820516929236187	0.34076195869242365	-0.2985061697575901	-1.0482643816231012	-1.1813672751163944	-1.187709090095195	0.09097938961662404	-0.6122714861670232	-1.713895197355875	-1.8297482682761428	-1.7295860008440915	-1.192997094957027	-2.0036749789194785	-2.456946128364068	-1.4128154480549933	-2.1485919898145847	-2.442815536053553
-76	1.1615216702699542	1.780522699629063	0.4706793713607058	0.7108035069639386	0.6158228501030641	0.9698104833913077	1.1630893916328786	-0.0044432701430791735	0.8395315387510531	0.6022371038490654	0.5938872083928519	0.4457263041210024	-0.2218412453295684	0.6944382769217913	0.5320108519473595	-0.49292743081571955	-0.5331049548040943	-0.49081209178030405	0.5495851026010785	0.07153680902539583	-1.2892985311381446	-1.4187964165152345	-1.2683390346929544	0.21578176265119495	-0.42197540295873864	-2.0856428093704884	-2.0882544464793735	-1.8681254339736222	-1.3737076486237016	-2.4670717653929466	-2.8202686238609513	-1.6791554647012747	-2.5685050422669793	-2.8264665532276276
-72	0.36817836668518505	1.215154644759178	0.4064152528515399	0.2646152072424485	1.2624804941727727	1.0602692338877138	1.090977069961307	-0.009174792072854668	0.6099340900280577	1.0598392459813897	0.5394261465758545	0.30272298974854583	-0.17655311480292635	0.6848986131542201	0.9226663089345296	-0.5686296806284045	-0.6853652579169884	-0.4348598409640809	0.6386577470867324	0.3481551101954405	-1.367870684984874	-1.584844346813472	-1.2748982874153465	0.26973307064619895	-0.2605187290289905	-2.222971433749109	-2.174705738299069	-1.8759447288833848	-1.4524692260310488	-2.663234227132181	-2.9525759145577917	-1.8167356206802123	-2.7812764574402324	-2.991720907287329
-68	-0.2607462399575238	0.5260490761826875	0.5165777789425011	-0.08944632090396863	1.4206842148197945	0.8131771067115736	0.6379150136100615	-0.028371941226614118	0.32996973312038247	1.1652219266082684	0.30712795180026004	-0.03188350788649712	-0.16856192009806556	0.5542267546965982	1.0150284741523874	-0.6752580387232989	-0.8423482158374476	-0.4351761032084606	0.5874557480285356	0.4011178602581793	-1.3458982672089281	-1.6658272701167003	-1.1948025196427154	0.1922693545732366	-0.23275534749870636	-2.174327844852147	-2.1345362609377183	-1.7732274487548425	-1.5011010132083753	-2.6436335973751492	-2.9110603259022323	-1.8998392772391945	-2.8459744381576226	-3.0046567841009826
-64	-0.5157264458033236	-0.040010046112849626	0.6748601777204277	-0.2521799498389996	0.8717420675202848	0.1914944047861459	-0.0942047906523726	-0.05562733844779223	0.10375869247942852	0.7944696525542461	-0.12855902281728063	-0.46345516922287827	-0.18066322757884234	0.36895450856516826	0.751526294241342	-0.8503491857040268	-0.966943321170916	-0.4548749912221565	0.4360520232635459	0.21131147390897181	-1.2868075338299807	-1.6417953926596747	-1.0100116704235984	0.00586668633306006	-0.3435644796757197	-1.9910842129982032	-1.9938336560454606	-1.5644473990042516	-1.5255398711788997	-2.4493725237994495	-2.72607969549463	-1.9335184048473393	-2.7723953653911217	-2.8859236167524394
-60	-0.35548877626312164	-0.3635794511198614	0.6870494467555097	-0.223879143030455	-0.23839414059531724	-0.6588929874950855	-0.8886157251810826	-0.06450319273875642	-0.018036970823167728	0.047014791399748845	-0.6963379365506316	-0.8501327016347492	-0.1685095425166014	0.19632933984302303	0.2393644595063272	-1.069377300423556	-1.0135841344038368	-0.4247738708262002	0.26794865659774086	-0.11003273697729048	-1.2095134227732984	-1.4883431158635718	-0.7105109673681196	-0.1865991051254249	-0.48814836021201713	-1.691717024346684	-1.7414818958183298	-1.2404051987802043	-1.453547235633735	-2.0811860508825952	-2.382890933696303	-1.8440017653638743	-2.5116794045930675	-2.5978319579339026
-56	0.04494141403414927	-0.5058684336288108	0.40301024812037534	-0.10627527508129773	-1.4607708417251162	-1.4729509316449259	-1.50620746232268	-0.032388493336920454	-0.061370286935594855	-0.7949538806871788	-1.2510031430130906	-1.0672783824677345	-0.09550187712637744	0.07569124530517102	-0.2989876858791924	-1.2500672308831904	-0.9464237666077021	-0.28958901689848143	0.16455250936924334	-0.3787887086841534	-1.0809546681769187	-1.1915354698615352	-0.3124999098040464	-0.26144036584650304	-0.5152148591385081	-1.2651793924813883	-1.3462705578192553	-0.7990445474477859	-1.1863242357819799	-1.5177690944498619	-1.8467448903188017	-1.5349484643329407	-2.002400631617398	-2.0830514378407763
-52	0.361805974523692	-0.6548750980055654	-0.1989648039085966	-0.05214629681653776	-2.2771058025089173	-1.9969706484920693	-1.7858365729066623	0.03618555879397617	-0.10460898253732509	-1.4070930445431347	-1.6397360521878843	-1.0630913946014138	0.03690589582542928	0.00920161230029073	-0.6393508298944308	-1.29660415322053	-0.7584583144112181	-0.0443510300291396	0.158231690126512	-0.44046160467521855	-0.8503292777527222	-0.7671847324075272	0.13365378942123887	-0.153718396633192	-0.3251570752994339	-0.7082412225008032	-0.7961945513650461	-0.26768198541768906	-0.6806381923657212	-0.7664382438382449	-1.1118394108357585	-0.9718087887070022	-1.2393778531254493	-1.3269460167761262
-48	0.28763195799686736	-0.9968795155151952	-0.9955844257967852	-0.18572093499500505	-2.372287267417533	-2.1117515510648244	-1.705261583791247	0.10231651339924552	-0.22627115192505814	-1.5830588300790884	-1.7737128689806678	-0.8770101048261676	0.18542492342863662	-0.03134794525338121	-0.6675395352675971	-1.155699607792283	-0.47995453951775396	0.2625122063684704	0.2116076046846295	-0.2553037994614685	-0.49773731702069307	-0.2687571041951108	0.5570680485012227	0.09540770178787009	0.06101945772262296	-0.06374920143483197	-0.12853814629050075	0.2955480806518231	-0.0026147365504052607	0.09755178516315595	-0.23428516030764912	-0.23244236350978098	-0.31152394335295824	-0.39472797413348887
-44	-0.294870763272628	-1.5915728767265989	-1.7763956740352347	-0.5322905765445842	-1.788213367715725	-1.8782268715167831	-1.375340935095713	0.10872799875703193	-0.4546707559073493	-1.3224012818327664	-1.6628328519800344	-0.6119633301543125	0.28863242195689637	-0.08453810938710576	-0.4239823807502261	-0.8473939278188795	-0.16808946388244625	0.5580498562074842	0.2402003997460303	0.0863990185463593	-0.05960331842156046	0.22654041590715115	0.8955557323733385	0.35747000484813113	0.5095100389968139	0.5756260738144756	0.5731396064593032	0.8240342715439336	0.6890742761380623	0.9397979951019085	0.6775010807098233	0.5156770335529296	0.6231210216048713	0.5845130667234041
-40	-1.2289075820413495	-2.3222868383903292	-2.3395490587294367	-0.9944909785911414	-0.8795884825433516	-1.4856173954648748	-0.9782046650984774	0.01041571700178426	-0.7461621146436791	-0.8060736039791115	-1.398164149569035	-0.3799318065587698	0.3004417411848169	-0.1765618766856862	-0.0633045805882525	-0.4542229760146047	0.11576595873214837	0.7825999836236428	0.16572636324048617	0.4235761750971074	0.3851323416046149	0.6463624818695259	1.1217356891921206	0.492081432292236	0.8522892572819228	1.1037198277263758	1.2126585214515762	1.2726062504109406	1.2228144376399241	1.6220405060823537	1.507920619018489	1.0995538206949629	1.410692807450611	1.475154157728841
-36	-2.1493561213586756	-2.9405350610878256	-2.5699133808101764	-1.3926423752909838	-0.10166802231630714	-1.1346006364786705	-0.6799455267905352	-0.1965167815492072	-1.0017621491889332	-0.27945020724314074	-1.093529102425567	-0.2481303208762167	0.2156373107949465	-0.30410811228266166	0.24537996885812863	-0.07385209184120557	0.33202448403453677	0.9151587463161552	-0.027773952041479342	0.6235030873769168	0.7615258078421943	0.9542371606576467	1.2524794308511602	0.4374332118911165	0.9912096832998958	1.4603114091243474	1.7280595258952478	1.6374691683435099	1.5126846990540683	2.0757336564108875	2.19020986004032	1.4394237958805747	1.9824507186428644	2.2015321199146882
-32	-2.670039170199717	-3.1780257144799187	-2.4625954565816164	-1.5515798291133382	0.2396278673320858	-0.9293088889501073	-0.5636962637974459	-0.46478393556550124	-1.1154476376027718	0.08098301271019515	-0.8259927609570187	-0.21668943708070412	0.07148942333291904	-0.4328737546005345	0.41189852252916326	0.23118095041558415	0.47562569259722576	0.9710736846248432	-0.2721869044584393	0.6557731611861288	1.0422093841942357	1.1609933346999992	1.3319253887880906	0.25546634132736057	0.9574987268115215	1.6692734914596228	2.1163484996768753	1.9463920544120044	1.6080784757068378	2.340101712994399	2.7304222514834215	1.5928707082586615	2.384477609336218	2.773311846406874
-28	-2.586889260436506	-2.869927875902322	-2.093837732750677	-1.388164397549604	0.1304692473693807	-0.8381093123256583	-0.6087064727673631	-0.7118710261491706	-1.0273414824297107	0.2394993299159522	-0.6087438448795429	-0.2349734151391329	-0.07659625987741381	-0.5110795484990769	0.45624601725781855	0.4548296916922416	0.5672985300999965	0.9738293861597864	-0.44593509919112345	0.5949217066049617	1.2548636166361562	1.3058097329549785	1.3935418093783736	0.09797084306777191	0.8851338006560295	1.8225293113470422	2.4151334701596983	2.2192964497801158	1.6559801059875092	2.5314843590718734	3.177340737903889	1.7085391239898813	2.7290038993599275	3.2470574296986965
-24	-1.9817525098357283	-2.0317850061617397	-1.5696829517788138	-0.9532794928324585	-0.1823488171265123	-0.7353562098056965	-0.7132074218863056	-0.8520363547747793	-0.7519729118435163	0.28369787263768986	-0.40415242212300007	-0.2388895595002783	-0.18502916348948842	-0.493121384329329	0.46956911564527776	0.6312633140838562	0.6312067492761071	0.9272924638224468	-0.44166421778749293	0.5561795220637993	1.4482566081675392	1.4189575874743001	1.4284571373160388	0.11064898939806736	0.9151460505268502	2.014953608193981	2.653388016677304	2.428089374133946	1.7956598951780034	2.757684700679117	3.557467451650582	1.9145296763720268	3.0953998487522494	3.649751653993271
-20	-1.1633856267166642	-0.8556798078867658	-0.9804124807400285	-0.40428644316643914	-0.3680331101662342	-0.49574893587832863	-0.7497097234871087	-0.8291680791901211	-0.3696865728104513	0.3391936412830532	-0.1659701611381632	-0.1890808339113497	-0.23886567293894487	-0.3632309427627396	0.5366204367440711	0.7919673303636033	0.6703657490971315	0.809604225498823	-0.2322486931182335	0.608839808357389	1.6371482569368494	1.486729856552154	1.38238250860241	0.3335784963291972	1.0907834740755653	2.2651109638246014	2.801938288290166	2.4856893953508243	2.048548454834626	3.0252482814702586	3.8160636328671966	2.209020847465361	3.4413933667080454	3.91440128291799
-16	-0.48170652863953606	0.3648375263539592	-0.38157078527434307	0.07750090937120828	-0.2153075480985592	-0.07862845043357758	-0.6248375161607792	-0.6361853464276914	0.012926849503960572	0.4804658579616687	0.12107387899586584	-0.08829158522248923	-0.2495705032008048	-0.14570155702998133	0.6740205866962413	0.9286482310690849	0.6566466076484622	0.5922792538948058	0.10437000516528211	0.7243126016449498	1.76588010342122	1.4431444370073505	1.1852614849683178	0.6604291780010031	1.3116985526346296	2.4740092691901285	2.7608253886136924	2.278450960128812	2.2750163020869465	3.2010114112144876	3.8090977572591735	2.425618642404954	3.586319199090556	3.877140989051492
-12	-0.12542976407331205	1.3377615179618934	0.20717889018203223	0.3788570156068935	0.25858101183455723	0.4463461626227791	-0.31854826131503616	-0.31178769390542344	0.31144159953640893	0.6928291303308527	0.4286710609103549	0.027696231310178756	-0.23675775468178514	0.10142518554352471	0.8230234363757399	0.9877967809533185	0.5434175716031612	0.27388304402820784	0.4169974018536006	0.792074022677482	1.71992802185694	1.1986983984246884	0.8002186993422519	0.884133098277422	1.3796367610431193	2.4547114310277913	2.3999905525648737	1.7303937629880484	2.2319664898787424	3.0599865836133877	3.361813298320709	2.303490394498577	3.2876241124118275	3.3494868193937006
-8	-0.024078054292803536	1.864177937569404	0.7842353562582163	0.5069686161592973	0.8446407296790106	0.9414001083447814	0.10860733660456938	0.07978349903944128	0.49603596204451983	0.8982238746853277	0.7025849801444785	0.11408238084123451	-0.20818380958924695	0.3100465528289631	0.8941616989448513	0.9008387304450223	0.2936737827992707	-0.0952928734400002	0.5543228969883781	0.69067877356672	1.3843094075538438	0.6929179412513439	0.26346868210076624	0.8066539147991796	1.1110227079951083	2.023904080049435	1.6358183581059786	0.8642770626181726	1.705562229618735	2.4015650688572854	2.368500226716645	1.631434913330974	2.376590007503715	2.23266124161649
-4	0.08429396131214159	1.8940221023423824	1.3418153490521223	0.5724786505550576	1.288066503133748	1.2811510530550774	0.5412424789115092	0.4720127570632872	0.5940598830483302	1.0189573739074824	0.8968132711656348	0.14150157535113214	-0.15438836773993705	0.43309387455313425	0.830394385148634	0.6335008724430751	-0.08945078380173492	-0.42044696105662227	0.4438323367357238	0.36867949273486894	0.7204527836729749	-0.05483617247207329	-0.31345891873373877	0.3548153331858272	0.4530504334455436	1.1122115822367966	0.5040308820396697	-0.17853514805063825	0.6487620456528352	1.1764646738867068	0.8817491509110045	0.3897415389711364	0.8815904237423683	0.6116291865165453
0	0.46348118665025706	1.5295778474336583	1.8464782191387499	0.7160790544550442	1.4434404336725577	1.4192024433544193	0.8555792548512836	0.8119999745848764	0.6652261001957708	1.0311892006588266	0.999209878306095	0.10724229338511158	-0.06003151818854577	0.4648857701008429	0.6458712799931721	0.22166700605216866	-0.5486353621936253	-0.6005161985494551	0.13080756333227164	-0.1145511266677259	-0.1846404219972448	-0.9273389554452542	-0.7839698175664124	-0.3663966646480575	-0.4653916645220968	-0.16860836701738952	-0.816518662298535	-1.1775194376779892	-0.7563284020401919	-0.4473212946088425	-0.8637853839046618	-1.1940720051181926	-0.9351387000315798	-1.2316604821579953
4	1.1895467012889807	0.9853367780603595	2.226507181268258	1.0212857697451097	1.347729679519673	1.4055449927129366	0.9702126955332365	1.0660877200867076	0.761898634894323	0.9756330227061359	1.0347801420788987	0.032017640688644884	0.07844022641643271	0.4379321623712715	0.4169224192106625	-0.2295918309852396	-0.9841535066552659	-0.5774555191719478	-0.246437504265386	-0.6136122330432158	-1.130210515983468	-1.7385277704214304	-1.030578133842132	-1.1179733248141075	-1.3810142243804007	-1.544147725975059	-2.0502545781823693	-1.9171651553387614	-2.1535477583872775	-2.122828239803338	-2.5154614385038068	-2.715934984979471	-2.657494299854803	-2.904246084510135
8	2.0788907952273794	0.5123406635700506	2.3767414033010628	1.4626561366346018	1.1746355265524577	1.3482664789491647	0.8791151024557406	1.218087074065434	0.8998545385529758	0.9252966022971819	1.047109958866006	-0.05092834668414335	0.24552115736008387	0.4025425006716814	0.2377530926423764	-0.5848004803197854	-1.2861465183210905	-0.3640291979658786	-0.5252548442930607	-0.9675019955049852	-1.8721208525121187	-2.2966036738586157	-1.0138041947517917	-1.639417644176298	-2.0127916285241465	-2.675131314199312	-2.920491211193363	-2.267413133618594	-3.156932346002901	-3.4500489147818953	-3.7246630097764277	-3.7571544552357765	-3.873377313371297	-4.045004834452872
12	2.775448792125966	0.30088630242675174	2.1823799555038144	1.9179853152488002	1.110069629727556	1.3471434082351423	0.6546716673534606	1.2660927740556203	1.0531401607627076	0.9370208358949005	1.0719240876790888	-0.10617917004242065	0.41456210508583863	0.3993459929874148	0.17140969590779304	-0.7353230100186404	-1.3738814557674277	-0.03395923963555938	-0.5956357106429234	-1.0738660070009682	-2.2194943372002705	-2.4735565123095578	-0.7790478448272217	-1.7706725552676408	-2.1861915533182876	-3.2899367726232733	-3.2506685174886516	-2.220623249169466	-3.513642540643676	-4.131200303137837	-4.271283138935285	-4.059943188907344	-4.336403835792355	-4.458226669499675
16	2.950637333096011	0.4046400477206764	1.5801722963491935	2.231082195371087	1.230418559782591	1.4372504913282615	0.4151356805810641	1.221609470144187	1.1653059691571894	1.0175131533682211	1.1178381414800982	-0.10430783752093833	0.56399196243943	0.4315537203383491	0.22393038812367125	-0.6460751278777893	-1.224268790968772	0.31881636300655897	-0.4511434126430921	-0.9282621717858494	-2.1102216190465923	-2.249308818860226	-0.42124801767805864	-1.5220799407677132	-1.9020304631848952	-3.288257352156322	-3.0236194057419494	-1.8701689196099425	-3.2042064585849612	-4.081071843333979	-4.132549275454988	-3.6294445899881445	-4.0521807568285535	-4.173054207756287
20	2.4934687551486885	0.717489836788671	0.6313542707715538	2.2867231311284346	1.4579716884042415	1.571145649757909	0.26628556780341683	1.1100320788014424	1.1752885550389682	1.1222754688538437	1.1614276141407363	-0.030705006715618675	0.6921632272411034	0.4598269152952712	0.35196754247493856	-0.370494811791565	-0.8790607430198428	0.6308413728045564	-0.18537671817229623	-0.6119356735992065	-1.6306223828154474	-1.7120475725817923	-0.027175649931960283	-1.0549904081411539	-1.3188546862682955	-2.768030636474529	-2.372006648750639	-1.3444255556495361	-2.4313862262374384	-3.440686217204216	-3.4647345455431577	-2.711092226812987	-3.2468221105617174	-3.399801722525945
24	1.57480823596082	1.015703079520252	-0.4398466933589458	2.056051010662852	1.6150263507121843	1.6454124409140922	0.24611808297484114	0.968758163390455	1.0449025604569675	1.1825399368947447	1.156258818568154	0.10504807505311559	0.81853037865927	0.42406389010175066	0.4912875282281546	-0.0287569164503755	-0.42880675088384346	0.8970177150966981	0.058019067945623705	-0.24463345048652405	-0.9734869574764163	-1.0183144782105582	0.36688926723355997	-0.5929723963071488	-0.6684427840522429	-1.9687439153556323	-1.5107575616840558	-0.7405906896966555	-1.5125379524190017	-2.4955193933423634	-2.5156807835960264	-1.6636723237949314	-2.2431957665074957	-2.415044540029918
28	0.5536037669509787	1.0616910430805961	-1.2801080909834308	1.5904988010304582	1.5326400956559074	1.5520218571578765	0.30107238812727066	0.837881980211059	0.7704047541240984	1.135318157190665	1.0478728983172048	0.2615078979088631	0.965999422018636	0.2725380950245692	0.5806807264926013	0.23763869642818006	0.016630388754341804	1.156887289941079	0.15062218866466792	0.06353072060995939	-0.35867991952937206	-0.33516701971309554	0.7744272331712545	-0.316333471930064	-0.15582837125059126	-1.165137288012901	-0.6498978121561628	-0.09838504319385094	-0.7368845324985237	-1.5460668763226917	-1.518002625447502	-0.7982715348116455	-1.314029928704488	-1.440014716327386
32	-0.21938550416870006	0.7239105683169549	-1.5335887631797573	0.9788430308424101	1.14673626133359	1.227683779477911	0.31061693947570107	0.7455037217391525	0.3808012595099132	0.9420125460683022	0.7897329906551942	0.36812418606322106	1.1352153987833318	-0.010938839027979869	0.5730597958401504	0.31527355233702165	0.35928022770771173	1.448593493618959	0.03262767559992933	0.2410501086586418	0.04689351457438861	0.21025121158922286	1.2187558381781254	-0.2903137199701533	0.11005034269919656	-0.5621078000181922	0.07175485771659489	0.5774795994483762	-0.2568625205230543	-0.79362284936806	-0.6139758213754277	-0.2617180340834882	-0.5846558794519253	-0.5720640406470467
36	-0.5807853922485626	0.05686528221316801	-1.0205298636419766	0.30066543741609414	0.5295430408459547	0.6800545436855542	0.15323929449969703	0.6946743113145059	-0.07289487850143252	0.5940622672341153	0.35780221133494805	0.34551811131026783	1.2895914283618315	-0.3937800516676967	0.4384510506050536	0.15292482039465602	0.5365315662189354	1.7606545642269547	-0.26782002977464037	0.2600505345454619	0.17637714699083248	0.5554543123526481	1.6822944837058007	-0.4580391037820695	0.1302329298546041	-0.23659643471110783	0.6062017663909354	1.2666610447374742	-0.06070180221967512	-0.29184767530189754	0.15703451593805964	-0.016024079133346417	-0.02852968678125907	0.20215170034391747
40	-0.6136643871072626	-0.7084370833630407	0.12659324673639016	-0.393383293350751	-0.1594386841801663	-0.018304249225536664	-0.221625834143894	0.6598442180186543	-0.5312969075140425	0.10817868235216882	-0.23902866183967164	0.13778273726485632	1.3625874484946119	-0.8024044016606471	0.16383376676203393	-0.2311296010142398	0.5289012180326338	2.0142557570147126	-0.6533364041045735	0.123366214023495	0.060862812991258425	0.6969135982084188	2.0823719448920524	-0.6922369581865043	-0.021728968192910893	-0.1465711142892529	0.9702644323647709	1.8952137183977236	-0.028298666629273522	0.022527296039210547	0.8148940781046385	0.08869218058843263	0.45517253760812404	0.9323487258259774
44	-0.5630764947026361	-1.2730401722238098	1.4573726617257612	-1.0651712390709551	-0.7633318285743288	-0.7576521615926664	-0.7540264706647781	0.5987696036480116	-0.9357786751009175	-0.4744423317851652	-0.9511691307848691	-0.2541472011348445	1.2891685930128625	-1.1461138696344169	-0.23736193716202547	-0.7631233315274308	0.35648825674651435	2.0946714825196904	-0.9985992287219129	-0.1460855152494938	-0.20869643933534343	0.6683327538782653	2.299075359261921	-0.8683466293345825	-0.2545686655769872	-0.1879722471259711	1.2016862600504454	2.3452644288932296	-0.026623153991835465	0.2504275434847051	1.3769925797982692	0.19938893565858626	0.9365864372448741	1.6231695372608386
48	-0.6632819158973956	-1.428356524675912	2.3564772546400663	-1.657200213062981	-1.2068719833421013	-1.4292733633195323	-1.2953633037287287	0.4741852867552203	-1.2342174022031145	-1.0872017117707655	-1.691153879664268	-0.7601658086657878	1.0434895727514895	-1.3448625769039257	-0.712530730355879	-1.341176625680322	0.06719299388848617	1.9154339980402757	-1.195598837694904	-0.505632101212873	-0.5303798900564883	0.5171613680180235	2.2404107990920417	-0.9182024574939259	-0.4985703515339707	-0.26171225243295954	1.32569956444773	2.510150426249149	0.012676257608118894	0.4530908751969216	1.8188695861670732	0.3711194386649117	1.3869667018205114	2.197099203284645
52	-0.9896482204246573	-1.1813139885640997	2.311506027107734	-2.0761468358074273	-1.5253946742645934	-1.9602000663858095	-1.6873468118027861	0.27470385958933735	-1.384001251541133	-1.6483062464106313	-2.354144805686605	-1.2645420996210588	0.6614683849800383	-1.3512361015536667	-1.1755522459867889	-1.8687140894439378	-0.28139969635488743	1.4800196848695717	-1.1872626513069544	-0.8956429935730694	-0.8316910245878041	0.2877560846692987	1.9086050939056005	-0.844565985454651	-0.7204963546681957	-0.32087919035005996	1.3463990654330666	2.3634822308949635	0.06831042451301096	0.6150622948376504	2.077784294604563	0.5471476302637877	1.6838843779965253	2.523245805091819
56	-1.4271956646171973	-0.7726141790910542	1.1641207904034678	-2.217612737778752	-1.829378123433022	-2.3324174822093564	-1.8543540192516168	0.022078797165440173	-1.360906835934768	-2.083897585375871	-2.8522865700234	-1.6576465326419323	0.23373529255982323	-1.167202708158443	-1.5362952908828849	-2.2836675586263837	-0.6407482607876617	0.902232346640997	-0.9835561489068351	-1.2514427868718438	-1.0873359414304609	0.014065204152716426	1.4237713777834966	-0.6998461467239641	-0.9159414149047249	-0.3792417933902696	1.2604546515112613	1.9961554953721792	0.06240725501516632	0.6621516926260183	2.0928831047623646	0.6108421071842733	1.6829532342381952	2.4928667482379767
60	-1.7615826085437645	-0.5674242959001551	-0.790278551967446	-2.024079794541789	-2.230175727935632	-2.5823903018602183	-1.8543816758067229	-0.23964065252835784	-1.17280935945044	-2.358969444041123	-3.1511833588195395	-1.8915916633531575	-0.13174773719426255	-0.8510088899107353	-1.7439956621007404	-2.576474660090486	-0.9860993002790459	0.364850758585066	-0.6601671559832321	-1.5257207116706917	-1.3150056567369977	-0.28334692049013843	0.978723404320648	-0.5517504797356566	-1.0937943430941477	-0.48719894763010935	1.0740925046505427	1.5872539241770784	-0.07788413743382411	0.514805375229935	1.8497197581320306	0.4690106201251424	1.3079466786740703	2.090657944169228
64	-1.8327821446875503	-0.8680855013864809	-2.9175321982156044	-1.5405188760010056	-2.770656578698124	-2.78228425277155	-1.8557406617041705	-0.46727469445508674	-0.87190967578097	-2.499012463935961	-3.2905363953482	-2.0099143931188133	-0.3596120169620163	-0.5103780018318418	-1.8207915975376476	-2.792447321517253	-1.3238840069724556	0.034901574165917944	-0.3392821839826435	-1.7130266384744008	-1.5595742424690087	-0.6006541833017618	0.7448939662246397	-0.4578059602146192	-1.267253634114335	-0.6973922235047568	0.8064581731462314	1.318597194203516	-0.3716149022733562	0.14063034916181108	1.3979979718198208	0.11376957566624302	0.6053775533650623	1.417548295256789
68	-1.6481300550811202	-1.7410050586613306	-4.529239166268628	-0.9306101179469136	-3.390134326004943	-3.005759708445122	-2.0441443868525813	-0.6412516816161636	-0.556672333265558	-2.5806002551728433	-3.3713619623896185	-2.1290836280474323	-0.4431552279727849	-0.27882477570709163	-1.8570138169133585	-3.0139775200088463	-1.6858495431298084	-0.020579552225964255	-0.15518958827414617	-1.855869646155139	-1.872997159997394	-0.9521198248666364	0.7792811374062836	-0.45567616705288216	-1.450889226111332	-1.0384626362331144	0.4774734961852424	1.277801868073604	-0.7726674060387043	-0.42231747401424097	0.8315540531144561	-0.36993148829521505	-0.26650276712842996	0.6508188827295515
72	-1.384278413138639	-2.9543139859950536	-5.187749849573089	-0.43250408659457085	-3.9346582790216313	-3.288227788252588	-2.5052599843669654	-0.7725568990275697	-0.35436656981644626	-2.686020844353703	-3.5079188258296354	-2.3738892018464717	-0.44624176508771857	-0.278161525024028	-1.961038346107814	-3.324535361479402	-2.1080336517517013	0.1289972063622406	-0.21295070594428475	-2.0225291201072277	-2.2943293990383076	-1.3635011876967116	0.9861100291150784	-0.5666371569632386	-1.658657188996192	-1.505313154234728	0.09205171442632895	1.4057280981812244	-1.197416064100228	-1.0803829404256766	0.24401979086778833	-0.8521520473899963	-1.1066397400572605	-0.03610536074463336
76	-1.2811173168262198	-4.069503773905178	-4.876047122088578	-0.26577395133627896	-4.210078228811493	-3.599852314443351	-3.1516280094684412	-0.8906434751912218	-0.38285112284320827	-2.8451759743382277	-3.7658743763258213	-2.799819223964461	-0.47068667292967237	-0.572524665340708	-2.1880779211113763	-3.7669103050494024	-2.6025371485805926	0.31137698810163555	-0.5480508790484334	-2.263535493857876	-2.8325295376788726	-1.8548963023084142	1.159322974139031	-0.7966212610159158	-1.896151657085541	-2.062855000056074	-0.36269110349637185	1.5228559932407295	-1.567896362160827	-1.722839470328288	-0.30986732166257597	-1.226037379984082	-1.7549374059238232	-0.5460460172218302
80	-1.4938968382311417	-4.641868102751845	-3.953601827176318	-0.5331654535183886	-4.059702862980216	-3.8482723138924446	-3.743432989205967	-1.020484683321351	-0.7017099839613848	-3.0036749763947213	-4.119997014134141	-3.346997491015586	-0.6044176205633782	-1.1303815813135414	-2.493183129691646	-4.314289082125045	-3.1358063141806283	0.3399430504799221	-1.1025733919916605	-2.5732183391453383	-3.4558379562864445	-2.4179079471576985	1.0888104411291917	-1.1286011905785955	-2.1508347933825305	-2.656311505286866	-0.8998112059763336	1.4260113203285005	-1.8442821456121898	-2.2609350624221807	-0.8230229595385828	-1.4553370439025315	-2.145652050323106	-0.8822875000612566
84	-1.9984793612568148	-4.435942161804473	-2.9288196489775116	-1.1670340270141546	-3.4397728356299835	-3.918221702219868	-4.003704060936541	-1.1631995410161453	-1.27281129038845	-3.043855659429261	-4.458729255863152	-3.8559169671934566	-0.8747053720324565	-1.816619510832483	-2.7415397097988587	-4.869373309239218	-3.626952877424245	0.11183961452619154	-1.7306940511876685	-2.87902235257919	-4.0897474185684235	-2.998258583128367	0.676665304382893	-1.5098787508037064	-2.384694093405496	-3.2182121195603424	-1.5009322128547975	1.0066670153951167	-2.025975222240861	-2.644023650169575	-1.3073190417661702	-1.5719910820372687	-2.3019182623919505	-1.1109206648435104
88	-2.60473679838583	-3.542391052839159	-2.1910061780925085	-1.9487485836418945	-2.46479415271254	-3.7354853058916824	-3.771542301192493	-1.2935175863032737	-1.9510855625483476	-2.8555884289170415	-4.639070499151731	-4.143163193732634	-1.2315808503527765	-2.4233357845158205	-2.7776756216491525	-5.296534048059422	-3.972406615718318	-0.33713689361330396	-2.23896502883202	-3.0695698183761797	-4.627778518436832	-3.497772684803006	-0.0002766197423917252	-1.8486101580676935	-2.5379464562235268	-3.6716453936383115	-2.091947788678911	0.32495328701946136	-2.125249857305158	-2.849600784736602	-1.7477872327546198	-1.6298580128527775	-2.2831547202640308	-1.2885086503875756
92	-3.063187114611167	-2.334735864466687	-1.855384464347892	-2.594465487605488	-1.3955773079923142	-3.323599091721634	-3.11010169197685	-1.376400705677144	-2.519718640641496	-2.4158091484111663	-4.56483506003862	-4.099319447658026	-1.5695617159316468	-2.7371687819992254	-2.514729493467813	-5.47444246817299	-4.087643136194585	-0.8497118332390527	-2.4498441157477218	-3.046645872053442	-4.955020892030791	-3.800514688433187	-0.7160181385082375	-2.030657524704015	-2.5448782379748245	-3.9354028602422857	-2.5466577942447457	-0.40279266136517217	-2.1345124190798686	-2.861106150079258	-2.073053831588552	-1.647697206151854	-2.1246695464850904	-1.4029953444344618
96	-3.202745191117337	-1.3013079133557488	-1.79602908634681	-2.8696002887754637	-0.5659021124857243	-2.8204510140735035	-2.304031604671771	-1.3927544320228786	-2.7613561083694327	-1.82754468456436	-4.246499050863093	-3.754790535029953	-1.776203985498121	-2.6155281000858794	-1.990709538202091	-5.345987783286126	-3.9465584655302823	-1.2277777163978398	-2.263363117225621	-2.771555178320489	-4.979398714845219	-3.8149487875941324	-1.198891040636116	-1.9548664043661945	-2.354853147283327	-3.9364497562204774	-2.7245984008664115	-0.9003616548694445	-2.0107037970322255	-2.653302185989044	-2.1664152090689015	-1.5797417123964232	-1.8097314788903398	-1.3669923509416815
100	-3.017884723673298	-0.8315722921357113	-1.8158899499822743	-2.682024233722314	-0.2651921802024176	-2.436250203657409	-1.7359586910288078	-1.3552626337166576	-2.5413031513902227	-1.288943645084048	-3.8081622027571407	-3.2745249188719017	-1.7837527945305758	-2.0432834573656193	-1.3595781291967897	-4.943940150176442	-3.5983254818666395	-1.3322148289423892	-1.6961580472083964	-2.285673135708722	-4.663489806798818	-3.5151798636378415	-1.2609116999262453	-1.5782142837732656	-1.954693431687493	-3.6334988979155307	-2.5313861306175314	-0.9646752452336491	-1.6941629605435116	-2.202226394815279	-1.9203492354546239	-1.338967319922655	-1.2952667442044363	-1.0728293630216519
104	-2.656767123190379	-1.0561417314567285	-1.8179553701278164	-2.1136355346721283	-0.6163701399500101	-2.362541431184204	-1.698514814856865	-1.3024271693725151	-1.871894712490412	-1.0001029943011546	-3.4328365239256944	-2.8791916297699247	-1.5985404212646714	-1.1460305423412311	-0.8185259083109232	-4.3788604625772525	-3.1493904511092223	-1.1476831407181012	-0.8794998504367945	-1.6936589436685634	-4.043811311048903	-2.9594302102710768	-0.8850176312036556	-0.9464661455100304	-1.3810141051711116	-3.042324296899558	-1.9713143060504368	-0.564834474091203	-1.1517519921787758	-1.5148056707284008	-1.3060196605133474	-0.8590790011650794	-0.5709561691174037	-0.47541612266672456
108	-2.32442879089957	-1.8259136630688442	-1.8826523971708928	-1.3801009620154578	-1.5025968513698817	-2.673941605492599	-2.2392377796858236	-1.2743489710104834	-0.9233847833208382	-1.0554707023675414	-3.2724196828237497	-2.732461445585329	-1.2952512469968338	-0.1512286659237263	-0.5101023303504516	-3.7941474818757768	-2.7180504730264983	-0.7812843303028373	-0.016907274680366215	-1.1185616226565553	-3.2273006357727474	-2.2745437564643605	-0.22878923954420413	-0.1921305651582275	-0.7150490265912812	-2.247308963823771	-1.1629735202037277	0.14210076594238513	-0.4174431849907503	-0.6572519524192727	-0.416738956114507	-0.1567508723354509	0.2909955673023399	0.3495264938589703
112	-2.1710498278163555	-2.817769758739697	-2.1935293619087703	-0.7435033898655407	-2.588019364498594	-3.2742228425329425	-3.122231952413753	-1.285705801578734	0.025611400539585476	-1.3872730696938833	-3.370822897983631	-2.856090300024783	-0.9808461045296747	0.6839961392299544	-0.45864230278567353	-3.3102581417431094	-2.3839909970175004	-0.3986122002074376	0.6797446591381493	-0.6569319946869262	-2.363661998503152	-1.6113223988859036	0.4552234399746337	0.5031921850851527	-0.06374769641755519	-1.388049837422635	-0.304453908628453	0.8870546199337117	0.39682745833343414	0.241790770873912	0.5466389046219141	0.6484616978485704	1.1365539998923178	1.2148756950223334
116	-2.2307722512190375	-3.698862543304092	-2.877601377851332	-0.41510644450287554	-3.436444989111286	-3.9228927990098326	-3.9341854949804667	-1.3160678115042135	0.6846878511308264	-1.7935135319250608	-3.6427705195962234	-3.1207556645756833	-0.7472596149651575	1.1526107758985313	-0.5727466926419358	-2.984901659105083	-2.159664863855842	-0.13439574803752966	1.0576858493803811	-0.35309421926996076	-1.6028958518567025	-1.0909076901549635	0.940880057820429	0.9742487644393673	0.4688248622501689	-0.6208688005030747	0.39952421087484324	1.4178805315459282	1.1339316339474006	1.0247994635457478	1.349391814639683	1.377346512178052	1.792040105109933	1.903213853799278
120	-2.431969636499027	-4.263687599861444	-3.877166261420813	-0.4856612670080761	-3.6854307558471593	-4.337419498936764	-4.284834850937203	-1.3249103989528965	0.8589936473139765	-2.037810797314739	-3.920164575216061	-3.3190579330569516	-0.6366584880967239	1.1568621367810472	-0.7072637659335994	-2.80545257813725	-1.9988263794978212	-0.02963392242758003	1.0670682164907872	-0.19922427782780996	-1.0526026460774802	-0.7673648576435836	1.126211640375583	1.1352548570580734	0.8111754635357801	-0.06837846321485029	0.8150531629011424	1.6124639470397597	1.6549195009410536	1.5637958010292121	1.8214756204393632	1.875946755441302	2.155313724798224	2.276931518528034
124	-2.6609566144517744	-4.476610649250623	-4.944298254881349	-0.9041972733557017	-3.2062368311994636	-4.326619137330732	-3.9997193712340766	-1.282765266040809	0.5232701288363406	-1.9707010934665357	-4.041923035907186	-3.281505338013213	-0.6338285787792227	0.7312161307946954	-0.7465814929232599	-2.7135147979891214	-1.836419339311851	-0.025957526573567435	0.7685866336491048	-0.15487700661657203	-0.7503379564414552	-0.6220331176311775	1.0619403097044176	1.012191293068242	0.9448274946200025	0.2216558152801403	0.9252685285095636	1.520788069700113	1.9010003757164877	1.8153451635304025	1.9318352888924213	2.095677132083802	2.262477869043652	2.3554050862925537
128	-2.8378798889989825	-4.427080143241643	-5.767447457057247	-1.5081403217385763	-2.1713375990406045	-3.8902194401750885	-3.206778518209815	-1.198347923114294	-0.17095981495132542	-1.604754324676107	-3.9396419425680085	-2.972240917331018	-0.6854999048091961	0.02536013157223376	-0.6590697152663983	-2.6470479898378425	-1.6372188288360854	-0.014664703943063415	0.30709308308315447	-0.1709492649292268	-0.6628867371035325	-0.5899036511786357	0.9039584375446896	0.7303343396821146	0.9078742242779673	0.2874185137644656	0.8233963826371579	1.3201246228266736	1.9192806433857885	1.8403392983702525	1.7978309347538208	2.1200647300599487	2.2840712012797835	2.3110296667878916
132	-2.95007657259938	-4.239734162116745	-6.140914424650711	-2.088804954977129	-0.9859585141084418	-3.226499549348989	-2.2685153427069977	-1.1199462385511918	-0.9582542752867867	-1.100856778226463	-3.669394960675854	-2.5092182096072158	-0.735430656006833	-0.7437315564451649	-0.4941706644933058	-2.574588292297397	-1.4229057991342537	0.08944569505520007	-0.14142182433662404	-0.20534734376083705	-0.7103993874733817	-0.6014283880307947	0.8177866319036405	0.45774835232558925	0.7786561827073915	0.2280241394246377	0.6571527702906168	1.208689567375293	1.8345745755607104	1.7731019213732626	1.621242280681537	2.1154663509364267	2.44082807878318	2.3773097931922056
136	-3.033183328599883	-3.997558106819978	-6.059354766806092	-2.4675478872942103	-0.10749704363623842	-2.6388125352993086	-1.5954244096529708	-1.1058239908909242	-1.5672472675808617	-0.6738441569481516	-3.3734187994663345	-2.0978879875622285	-0.754296956542086	-1.3558132614237024	-0.330431818127837	-2.504389518136863	-1.2612482277497974	0.2954251460722842	-0.42939028035472127	-0.22632206919272896	-0.8033999780398168	-0.6172019227657506	0.8897874332851189	0.33091205274957985	0.6459477527522258	0.15442541202657145	0.5540596828777146	1.2979326215399296	1.7823076203170003	1.754152770381981	1.5844920833637388	2.232850069130662	2.8817312644681023	2.717690460972964
140	-3.130286208832627	-3.7206528092860642	-5.67631195542577	-2.556612008315683	0.16313309926330705	-2.385063165365013	-1.4384697639387085	-1.1822712391567758	-1.828198428306606	-0.47303789734619095	-3.1946062961030957	-1.9165228556882834	-0.749989030851821	-1.651841159464756	-0.2142539465978471	-2.4673857626608307	-1.2240191667170828	0.5328209386724566	-0.48459663864810837	-0.2108531439941286	-0.8771419503000779	-0.6390560849267607	1.090426442254262	0.39607065816063175	0.5758919701341473	0.1398096230076485	0.5650261030236721	1.560011978979134	1.8378578378052286	1.8608620119796315	1.7615965560306066	2.515551799145058	3.591541281215433	3.32785200232491
144	-3.259010306713196	-3.400883904453755	-5.172220217043939	-2.3826055466578393	-0.18160237326071346	-2.545673602352699	-1.7701982215057157	-1.316311832919308	-1.7307509140186408	-0.5035394417447374	-3.190640441468333	-2.017278666171509	-0.754276452544335	-1.579718108957152	-0.1291768696623012	-2.484382146284911	-1.3373235430331896	0.6972070318739072	-0.3298958531633699	-0.14382767640994132	-0.906270442105045	-0.6934466344491668	1.3040364947773875	0.5935745820317943	0.5910981878615634	0.19620782087379401	0.6550551040323326	1.8547930670639239	1.9834651896943802	2.0759770817795355	2.0923941082578623	2.8697223590876555	4.385104645148157	4.029932011920127
148	-3.403582325925213	-3.05110501472712	-4.62844465994516	-2.0657203145324825	-0.8587071277872647	-2.980150692091321	-2.3147275389404207	-1.4243972265520581	-1.4096304142648168	-0.6293919666612127	-3.2967941677780797	-2.298586601175997	-0.7963355759542287	-1.208287712861232	-0.011472757876755736	-2.538675301818	-1.5547157486763437	0.7144618612370812	-0.06675536913706955	-0.019257849033729336	-0.8954852796833919	-0.7997002581433045	1.403381463322342	0.7943472842188312	0.6732141358544664	0.28862714694584707	0.7429875712709568	2.017813439043084	2.132960790970993	2.3123655260832248	2.4333388743953503	3.120298377742121	4.9992995135925815	4.567337501438552
152	-3.5311901480212473	-2.724093191898571	-3.9992682832835555	-1.7600187018780962	-1.4356386625283148	-3.3952519807924366	-2.7045485905074864	-1.4158233368413442	-1.0621340247994484	-0.6517156942125778	-3.3567340289243535	-2.561566823214062	-0.878663597272707	-0.6966563445622178	0.2047053421335822	-2.56997799224495	-1.7694258645206662	0.5863607511021315	0.17509739056725235	0.1610559370027738	-0.8541992285142832	-0.9423028802922702	1.3265002932436212	0.8729743935479046	0.7883366326455666	0.3760320236725739	0.765484629128891	1.958852643789419	2.199464792420518	2.4793779787407826	2.6541149549231493	3.122399560674438	5.235399709834865	4.749411094118509
156	-3.6135139374099574	-2.4933485921851246	-3.202720395585173	-1.5820475776783822	-1.5481359919562006	-3.4963464648664213	-2.680928938772687	-1.2482815949395174	-0.844296155228434	-0.42312022936804916	-3.209004394058687	-2.620417349875171	-0.9693855618797768	-0.230121716275955	0.538037239146805	-2.499142640479822	-1.8636110973990212	0.39074227115206617	0.2961500875625346	0.38658174774795867	-0.7770954350878884	-1.0672317716356379	1.111658212716099	0.7754506449194641	0.9145015455045211	0.44801849013702	0.724287150461695	1.7145307020768656	2.159784549982249	2.54642509771213	2.7198128631587672	2.858526937897049	5.068959700184284	4.561048496174889
160	-3.6301135925194146	-2.414216989143946	-2.2689657154017833	-1.5582125147579082	-1.0911141606439443	-3.145998708411487	-2.2302854004817414	-0.9608741974412744	-0.798495529066146	0.060836791838589366	-2.7839460302636923	-2.4043185650203776	-1.0155572865594995	0.050909947475405705	0.9351926422349655	-2.273918384532956	-1.7692865088615333	0.23827587007922027	0.2679742567926073	0.633881448099005	-0.6466484649544362	-1.1058160038685445	0.8757092930618737	0.5458356724309489	1.0522707674162086	0.5317177759097389	0.6887729150548388	1.4291225635686313	2.073218340407717	2.5628487999106544	2.7103490761038036	2.461045735821369	4.663606631902283	4.174199570607399
164	-3.556715717872573	-2.4942309793441515	-1.4214858972899993	-1.6164510209280087	-0.28588050531688686	-2.446455234072928	-1.5858207901017172	-0.6603891236798152	-0.8469010570124762	0.640586434177505	-2.157750601089069	-1.994964713781863	-0.9711743568696147	0.10110126410231068	1.284281846618645	-1.910916442814865	-1.5065745077242803	0.21168389862974937	0.13890069688060216	0.8631930329463795	-0.45620533708786204	-1.0121753190234826	0.7510425429455662	0.3002304725219439	1.2127165763754408	0.6645240766913786	0.7534553389599823	1.2770329681579429	2.0434429593946355	2.622460358674334	2.7674786974653025	2.1453580802158156	4.281040180841803	3.854468335910493
168	-3.3583223734943175	-2.6910376480824922	-1.0057034467101105	-1.6316817957690104	0.4154225279333214	-1.7020884709299957	-1.100778934560583	-0.4667637336390397	-0.8537454583547538	1.0547860834193796	-1.5339982470883304	-1.5829604824154573	-0.8235055783461107	-0.025534454668665014	1.4583920203581362	-1.509837504389626	-1.178700920943744	0.32367962517079407	-0.00012957469120037846	1.0182921860734686	-0.2384281599462369	-0.7934249619479053	0.8174221495017592	0.16031996865326778	1.3899363244250134	0.8504449107632944	0.9757817958991197	1.3721227611231255	2.145350450821304	2.793450825314158	3.001854412129298	2.089049334020091	4.136392106103244	3.8146395586978183
172	-3.007797472035558	-2.9361801073329516	-1.2922104564466497	-1.502964373608639	0.5418246970802053	-1.2794072595719312	-1.0655021640579125	-0.4478853929655726	-0.7206047755167685	1.055156109053211	-1.1602569789203032	-1.369272228598584	-0.6025109871911167	-0.22053381744972114	1.366541620619028	-1.2266845672154192	-0.9239661670245095	0.5181966410905134	-0.068929552857891	1.0364334557115042	-0.07456430028924797	-0.5119976984448789	1.068704006357873	0.1873626853265534	1.54276191798753	1.034512636433822	1.3354853357929575	1.7171838240184094	2.3683714806842553	3.0629970950041026	3.4210653218680114	2.332965606521327	4.286968220377617	4.103661526809661
176	-2.533528559963929	-3.176707736577973	-2.2751445712821794	-1.2237895696259877	-0.16662467974078926	-1.4340819084200016	-1.5662964542898052	-0.5841595515761338	-0.4593197393741579	0.523248134722474	-1.2185561626186319	-1.4660919867693598	-0.3690240373831232	-0.3878677775603856	0.9926390622826456	-1.2117248742981717	-0.8478280880503273	0.7111248356031115	-0.03997983028331509	0.8736337401267453	-0.06775677187025139	-0.25498837168211347	1.429988619055031	0.3564853063166054	1.6073400933692246	1.1212682695689722	1.743629928001322	2.2196423951375186	2.6198577814714326	3.33874177089788	3.926522245030332	2.7686088015273906	4.621936309589278	4.597506034687579
180	-2.063215250528187	-3.400727501866259	-3.6059999374899636	-0.9068573690406665	-1.6143301684629654	-2.188194507796263	-2.454328769209299	-0.7842160443533578	-0.19816961834465577	-0.45813518646920487	-1.7401587919169461	-1.8467459632024048	-0.18638139916093244	-0.4941273617189858	0.41240998998468953	-1.536206003125237	-0.9684934591636758	0.8480175712155898	0.05512093366176877	0.54039460284172	-0.28533059286557755	-0.08404595383643794	1.8138039066296918	0.5860537275776686	1.5421700438664048	1.0352193091004949	2.0996706432736705	2.7624545027605802	2.7928616930066856	3.5125648886688574	4.38362644996146	3.2213935770718414	4.957635390162618	5.096333014018982
184	-1.8178377105593269	-3.6277551559408963	-4.724118220799799	-0.7437450866994947	-3.364695063679034	-3.3177959835209534	-3.431017628590321	-0.9429568624530945	-0.11657623917234046	-1.6144510466822648	-2.586120598939423	-2.3666922986358823	-0.09174505598031439	-0.572668968185345	-0.21786154751609169	-2.1441852992281762	-1.203989979565198	0.9397236085054167	0.157796844441651	0.12871488896297476	-0.6996825915791134	0.006080965030486587	2.176314586866784	0.8037226179811714	1.3815050090242422	0.7901369313318172	2.362169736620323	3.281182519257925	2.858896248275145	3.549712648966304	4.7207460284255	3.579347124599492	5.177813993732697	5.465968595055957
188	-2.0358767458059503	-3.8793258569048623	-5.130299555223508	-0.9135718322576618	-4.814360129599059	-4.455383289532488	-4.197333325279217	-1.0071582768761151	-0.3414715519866831	-2.571276419823459	-3.5024146945263936	-2.8383884358269222	-0.0817672608218473	-0.6788031441716543	-0.699987588545659	-2.8572168278081937	-1.4077833855371804	1.0544238063893494	0.23476482868526805	-0.1935476953865069	-1.1668884724719806	0.09491111314175828	2.5397615368616444	1.0069106791823432	1.2570002047273805	0.5193092213870819	2.58733033480673	3.7992074393672737	2.9207630083728526	3.5422456175062744	4.99139116934375	3.8818464181167602	5.32680414762289	5.733126149007914
192	-2.8539876865809948	-4.156044472691811	-4.65939139143441	-1.4856413565320141	-5.448461041999574	-5.253014074414416	-4.581914413328018	-1.0060943339695605	-0.8660029151032868	-2.9943368359306266	-4.222051132986586	-3.1142680566361305	-0.11781193286238165	-0.8313408473006327	-0.8525727369717588	-3.435821286109931	-1.434216614916854	1.2738741604114014	0.3100324861328316	-0.23316068888447802	-1.4665884934590852	0.3026309899795673	2.970113031517909	1.2719181743933905	1.3593790496837426	0.43657988199634407	2.9075028822924396	4.400734890317435	3.1793935218647706	3.6826515104775894	5.354958043883595	4.303650845152393	5.591395840833034	6.071556552816546
196	-4.200810898665212	-4.4365401155993505	-3.5831122307911576	-2.368155711870713	-5.066566931330462	-5.529757962570685	-4.589810836647926	-1.0284013722204306	-1.5390418729072004	-2.727015726833819	-4.570395458126388	-3.1397256771925837	-0.14784297309742023	-0.9806986426388726	-0.5784243926703255	-3.676712026850007	-1.204275366603662	1.6376610952992021	0.45353895311288933	0.14313234352690835	-1.3957056963968362	0.7274622898808636	3.5217723757519344	1.7016636090231094	1.8456672383439834	0.7363973241333597	3.4550599964648003	5.156519876812582	3.8215911291911318	4.161268700583895	5.979973777931803	5.03740357080839	6.177564605374829	6.6837234328322515
200	-5.778615460111326	-4.701123702577825	-2.4738352236278236	-3.3343269740798025	-3.8774347207402036	-5.336455808517711	-4.36152743192033	-1.1593859166437548	-2.1319103187141235	-1.8676931810908024	-4.527745712292906	-2.9573054238994883	-0.13323719765879427	-1.0253144476753069	0.08277510830722921	-3.5022487551957577	-0.7416067700735762	2.1085848755051924	0.7341483216823729	0.9265453196020736	-0.872842607678639	1.3853207791638393	4.184513558313292	2.345130676070691	2.7375192573096196	1.4824162684206499	4.273327339827341	6.05087278745739	4.8901553030527145	5.042954908990175	6.926027757324252	6.145641788225201	7.157868367243061	7.651089172119624
204	-7.1606812296322	-4.958529936669148	-1.9149156760506176	-4.114540566546598	-2.413283103571963	-4.910278784752396	-4.077717770771647	-1.4175395929786738	-2.451337569723443	-0.7450055461193775	-4.222453583547093	-2.668102972923722	-0.06550760550649183	-0.875790295773919	0.9475102996745695	-2.9962568207432843	-0.16171087283791222	2.5831444198240123	1.1619375914801469	1.9385625075033663	0.005803673979143242	2.1874756757820863	4.868702876196476	3.1375324646889657	3.8743314645224527	2.5526223118230704	5.270946966214844	6.9609632316318	6.219887240918609	6.20157335622974	8.08141515598799	7.479590873907596	8.390505769526458	8.851448036734274
208	-7.968988875296497	-5.2518825398408575	-2.2124240342548647	-4.511542308860916	-1.3027880158910743	-4.549887168841009	-3.87095831847384	-1.732785935795424	-2.4324440894702413	0.20636999554982766	-3.862591495298553	-2.379324191761949	0.03420252716846679	-0.5207216726507583	1.7436025098647947	-2.366068834053106	0.3790493597950981	2.9427401945203684	1.6653801160727242	2.887898199419573	0.9964574550266062	2.971755020268036	5.441571221918092	3.9114627739379824	4.9630489224060295	3.681158533339025	6.252449019858615	7.707605342478644	7.491848449865419	7.361907463560187	9.201971030844405	8.728264786618034	9.570461249030268	10.00210187294048
212	-8.050133684814526	-5.6358451700970305	-3.2618145860335086	-4.480918872964111	-1.0049817536729921	-4.477029312274468	-3.7901155852947697	-1.9821841666721018	-2.1588113253448133	0.621785162309538	-3.6409790423973774	-2.1669201796181636	0.1304103132770078	-0.04595876100976828	2.214215273035132	-1.847493286236712	0.7489217500851675	3.116008273840599	2.1236298030642535	3.494663706539371	1.8155846549925054	3.573359718837631	5.793907627736291	4.48055361570185	5.710223183520084	4.582482326382005	7.012236100612456	8.150075891898622	8.387427308840872	8.23514745540454	10.035227750237215	9.579635595930933	10.390746090404072	10.809640857107695
216	-7.544932346368357	-6.133077129138272	-4.640552032198527	-4.134815205625048	-1.6233349997543174	-4.748912322452288	-3.821152200588114	-2.06095671133406	-1.8009808018036686	0.3589997580524293	-3.6573762801336884	-2.064624542745698	0.19429528664171475	0.4097900082255573	2.2290937844264005	-1.5986053903273127	0.8898247457926541	3.116620532750186	2.4410843787550673	3.6245331672710526	2.2726883830864764	3.8992617031832646	5.899078831084041	4.75263022176541	5.9719033090495905	5.094303118241637	7.4405689051645645	8.269334772212757	8.76088712387698	8.675381638558193	10.460029575641745	9.903810476093915	10.72168633615056	11.140104265697182
220	-6.814162713966547	-6.702020628220626	-5.862489685516019	-3.6714749243546843	-2.8740379737770767	-5.250746713732885	-3.9302122493697706	-1.9448879908095396	-1.5105364284524976	-0.4376036811747437	-3.886312951766372	-2.0711042828721604	0.21792113725955545	0.7400480490119904	1.8533482504782162	-1.6322582918918225	0.831017432498898	3.034088842361024	2.618624442164854	3.364409915059148	2.3597655236747332	3.9679424662544913	5.829025730674971	4.802786338124374	5.839017376462732	5.260067449640749	7.580016117031732	8.186087587669517	8.72910783471161	8.765276886744315	10.557271930742912	9.844061826647598	10.6963662831139	11.103377314190789
224	-6.258228763038603	-7.233190518236973	-6.624833090268533	-3.2743298924746886	-4.216425885045466	-5.760846600292907	-4.091533173721386	-1.7052431063514133	-1.3385995592653195	-1.394998904520874	-4.1986670388073435	-2.162027830387352	0.21340829080107013	0.9347192621473545	1.3305129971290588	-1.8205462648203716	0.6640141589566125	2.9807720109068914	2.765447371176486	2.989096157156627	2.2466072979472465	3.891851415344918	5.714788899298352	4.8484535094873475	5.599809632468285	5.299087034197996	7.595726947680543	8.097284296572925	8.615215279762344	8.772520043159133	10.563398334536037	9.747950529282834	10.640587779836759	10.993417712112452
228	-6.1215233648241805	-7.580461959773527	-6.909243566235036	-3.031994335148905	-5.085231291329726	-6.049180015550043	-4.278907765075703	-1.466240521543765	-1.2230123250600788	-2.0712482876935745	-4.42199562863656	-2.295715326235126	0.19970811853055262	1.0833134623833047	0.9773431991697137	-1.9672530839842743	0.4946356403260247	3.0247299594806005	3.03922533221622	2.8273956704280403	2.1826190893380493	3.812259426028657	5.67306707857239	5.132716642772337	5.590748295973829	5.476940618038509	7.674342612917848	8.164735773453407	8.769686676772244	8.99493024462397	10.729013415905008	9.969943021398137	10.881709071342243	11.114705057692461
232	-6.385962946981241	-7.618438701468416	-6.901272756318637	-2.9179274962187565	-5.119779573865792	-5.963610634052217	-4.4370603449376365	-1.3320305313812089	-1.0491067144609403	-2.144541258165876	-4.410433281253642	-2.4143752990800698	0.18587697995463304	1.310980555085478	1.0380073759574693	-1.9082957457999974	0.3967495550629094	3.148040048280601	3.5442438036126798	3.0950052660048324	2.3595738351376196	3.8230492972172354	5.742199406431295	5.77691935034388	6.013616546706726	5.948457226039939	7.91037319093521	8.420516946513676	9.366685843660962	9.581055616984477	11.164516420786915	10.656469318187774	11.546303719932858	11.595719308187002
236	-6.807823163964242	-7.2959942633481845	-6.796079618461666	-2.8366320061591157	-4.293771256096526	-5.474995599275109	-4.470026958623935	-1.3289277520006149	-0.7459740619898876	-1.5469361504599013	-4.097577561523508	-2.452705615526874	0.16145402152306237	1.681486721561844	1.566073890546776	-1.590018745222649	0.3864934732692692	3.2551660455534686	4.243207920805484	3.7795832061709707	2.8086528707164504	3.923489560711817	5.863892063594754	6.685108644773335	6.817535383178003	6.661667330135253	8.24641702477306	8.745569207045538	10.291064236407697	10.429817173374275	11.764048546653614	11.639810532746093	12.466751067157292	12.30074211829664
240	-7.067812901772187	-6.655857069377217	-6.634227735935732	-2.69998907361226	-2.8951542304376305	-4.670882213243777	-4.267881382657253	-1.3960576022187017	-0.35099556953504024	-0.4796705233861163	-3.5137889296508744	-2.3577270448285614	0.1016526890214774	2.134119028425344	2.397963040973313	-1.0860292884109937	0.42731746923324565	3.228418103650175	4.94587277117376	4.643881786065853	3.3891858968996713	4.026313771572816	5.921521648715366	7.566501598328061	7.716746787615476	7.380179863416398	8.504713990673658	8.936675049153372	11.187108965285539	11.232243509544142	12.256084411195033	12.511456457974598	13.257667508031513	12.896031347140358
244	-6.940773946404453	-5.816325649835453	-6.281811698312313	-2.4838893350831523	-1.382115718213069	-3.713679781120686	-3.7668347263600177	-1.4289271795435508	0.003890710174527511	0.6908491832457027	-2.76778578059441	-2.113973850635019	-0.014035598339466722	2.504017346735825	3.2321827330046844	-0.548844514891614	0.45983284595741136	3.0007178707655906	5.391787515378744	5.34539602837429	3.87266968703031	4.015414227838128	5.812457546817876	8.072107294683365	8.33655736725788	7.812746028248346	8.493303277506666	8.823735214843792	11.645235032244116	11.635877579875164	12.354582755367735	12.838549581538414	13.522574390602434	13.034637418262578
248	-6.394448264190043	-4.923970210041315	-5.557309613502101	-2.234912628253262	-0.19219057213420362	-2.788222067469083	-3.0122973842861596	-1.3482444252306536	0.1740921433344922	1.5986968238521673	-2.0073065707071844	-1.7628533795671675	-0.18193776859601782	2.6164934569102245	3.772340765011888	-0.12968489494960042	0.43614143023048324	2.6023778849701547	5.386158452740369	5.607622132448561	4.069469441629874	3.8168024920419668	5.509777055180947	7.973937014474678	8.406923272841942	7.7739329141800795	8.122566202637023	8.367567994926167	11.421077699436035	11.437056512567079	11.921578377188506	12.399725882695167	13.070790257831947	12.55063721349091
252	-5.57522629283919	-4.0987787143219885	-4.398621548037615	-2.028248543386855	0.41283097758967524	-2.053023571553064	-2.17525529312251	-1.1469484538684547	0.1027650085477256	2.0255606123328507	-1.3730369771623823	-1.3964581454305809	-0.36327201036288614	2.4022309719470347	3.8603575132180117	0.09016832686547124	0.3439972988026634	2.1573619788061142	4.913726317397501	5.351038442453062	3.9267296691936266	3.4441974076097797	5.080684649037739	7.288631897644116	7.896944979756955	7.284051876751138	7.464536648023974	7.684203128487436	10.563657733949444	10.69165322465412	11.047896357299614	11.306092233722927	12.02040383165091	11.551132172984632
256	-4.700031745488297	-3.4061872873139	-2.9643146916887986	-1.9073018979555216	0.40705481068836513	-1.606725688692431	-1.4996435604380072	-0.888842103621368	-0.12593823639544593	1.9628432939563454	-0.9618036126649105	-1.1229243250152303	-0.49223247046171553	1.9590463588844498	3.5323297888264755	0.12088770388837995	0.2102732206042506	1.8268442107807281	4.160605896935666	4.714703071134849	3.5431303888510866	2.9937391205543284	4.649735915842332	6.272139056582584	7.0165147604222105	6.551251394897669	6.718759996617084	6.980032903214513	9.380196547667378	9.680398916599382	10.003893826976483	9.936172460265139	10.727382632828071	10.352272007554433
260	-3.9354400535405314	-2.859025232726113	-1.5915732343544666	-1.849788303473349	-0.04354756314488619	-1.4742891751260443	-1.2000652521352266	-0.6620590074036264	-0.3243737212574511	1.5687016209097093	-0.8102285841512689	-1.0190303299925034	-0.5006091582056879	1.5094001255073684	2.9728403016373663	0.031207553963547824	0.08348929860970539	1.729931707782916	3.4245064172114965	3.962646712788858	3.095070354276763	2.5919670993213906	4.330303181205707	5.285528169638723	6.088063224680387	5.8466052861420605	6.103316291658479	6.436949236830541	8.259517648824456	8.748375870551634	9.088825202883001	8.722598053844257	9.583191847447832	9.298556304343226
264	-3.343471995495312	-2.4460413394206526	-0.6311629994669524	-1.7851254894962874	-0.6893521529913036	-1.6121435124702563	-1.359910365485929	-0.5201834427097953	-0.3122641734345549	1.056932208253744	-0.899476168268897	-1.0933098765426363	-0.3479450038231377	1.2753183809506627	2.3997254311055825	-0.11268863798538982	0.008523067437945396	1.8874875259428652	2.9594747945452564	3.33309268109891	2.7229161193765186	2.330171102362733	4.170013417206103	4.605829227263	5.365588651461736	5.347278104632966	5.73780821305249	6.120848640247027	7.4592971613428665	8.114378908651346	8.470813729833955	7.9176149168385574	8.80390737218145	8.577719666758867
268	-2.9158787653737095	-2.1768438761110533	-0.27615094115154076	-1.6517485338470088	-1.3093037572228903	-1.9312483023521552	-1.887840147020466	-0.4521336842088903	-0.03755861511284573	0.5855123981951852	-1.1756708592295924	-1.2828899589573644	-0.0449427663145242	1.342371102758605	1.947774882167302	-0.2969480745447728	0.004961056622258281	2.215648407110493	2.8406076359555965	2.9165539667880203	2.4467585025047796	2.2215156499087905	4.137778271718641	4.2865195166128816	4.904733168616495	5.0398559443068365	5.585902199947245	5.9639849512204615	6.97911022331572	7.759786109406226	8.109343508273435	7.471906643122554	8.331927278463418	8.138183573203062
272	-2.652772419907618	-2.101851696429785	-0.4848678099788294	-1.4565938674390921	-1.7804443791260258	-2.331919425798871	-2.5591504509209684	-0.3989772488534428	0.36952653433963345	0.20007289895565702	-1.5766197403202602	-1.4883723221394378	0.34283235582579197	1.595330472733042	1.613964911200704	-0.568280158992324	0.0588373130564538	2.5705137187908385	2.926935903788786	2.6289427214051604	2.162579530978	2.204040283360504	4.156780709262217	4.146563042662038	4.557259548125374	4.741456496665448	5.490457997765123	5.8281082959849035	6.590988142539042	7.460668068169239	7.804144839610394	7.09500263330144	7.9044670859086175	7.75434778163065
276	-2.6129612856697526	-2.2945861758473516	-1.0408383581585738	-1.2953536477762992	-2.090534204926987	-2.7418708732043946	-3.123846284608774	-0.30614232939674263	0.6469344480393465	-0.15154008529073026	-2.05625795798899	-1.6302382904854844	0.7134888154135798	1.7708939269177777	1.285833236308942	-0.9996862386259372	0.12836064365880778	2.818501703775691	2.9422845766168555	2.2857220115173145	1.717206592992656	2.1827502195562243	4.1607274904107	3.889505853369639	4.0848822490555605	4.223110665149438	5.277525411632805	5.606906399875904	6.002355560407032	6.940150720240255	7.3375253492113455	6.455232603941362	7.24203250963921	7.195245724631603
280	-2.894748442017024	-2.8023185659228727	-1.7023241476948425	-1.3144572940064487	-2.299359792626071	-3.13808797997687	-3.422601214350706	-0.1740425075666808	0.5358625040830208	-0.5502926693374207	-2.593219750532828	-1.6937028126870073	0.9626265143886019	1.6046588380354179	0.8336348512583114	-1.6334079462773474	0.15987530310320486	2.894278280580223	2.6357273988935237	1.7315682129057375	1.0175739501057384	2.084126944048388	4.135135640194552	3.288662425321193	3.3244159137715736	3.36396311864304	4.867053496470416	5.302353845560598	5.054147707576417	6.051306709270259	6.6238875221862035	5.399868951515567	6.241932853198154	6.391123755531444
284	-3.5499558359163736	-3.586877575401402	-2.3312644899637323	-1.6300431448789825	-2.483926051544241	-3.5411007314923193	-3.449267855518731	-0.06998994928809034	-0.0691206900520419	-1.034424302350488	-3.1808698097028403	-1.735166664511032	1.0204615567192366	0.9899832581320939	0.20545735903365345	-2.4355714259644206	0.10792866321970908	2.8185355592138377	1.9307894657978326	0.9460877156213069	0.1092062142714381	1.8924528312586981	4.119289387793153	2.332311385941924	2.30534910573656	2.246375555088945	4.325175751256495	5.027308451357559	3.8366136454038138	4.883632170744965	5.7770886275346145	4.065245618093175	5.0605130067852	5.495632634592879
288	-4.494514453984473	-4.492686737161695	-2.9170222208761936	-2.2481424751742054	-2.6984345844804425	-3.9840898413205346	-3.33055185430784	-0.08975629485834044	-1.039356825111777	-1.5684045513608988	-3.8052477740535617	-1.8460451317909052	0.877865431476535	0.05904588833444779	-0.5285301791198437	-3.289357177058941	-0.04848396020807606	2.6716203622123267	0.9827092861160045	0.06819436681934571	-0.8224924782014212	1.6502056080162486	4.1716146363793065	1.2488386599481818	1.2538385359578972	1.1376033992655838	3.8290412329320875	4.934661852775552	2.6581454209926854	3.7335936928898663	5.057208525287196	2.8158619332745434	4.0383915799224495	4.80799435355312
292	-5.4983916143832765	-5.271584974330908	-3.4894082458135043	-3.035557977641739	-2.961019270096777	-4.473575103909166	-3.239948741362152	-0.2926464371445158	-2.0512556977934895	-2.0630359597571553	-4.424510467802573	-2.0945932812259427	0.5893672689816563	-0.8635390975130717	-1.2030612199926527	-4.031827439619199	-0.2985931031317755	2.5430381233859647	0.11348406196790915	-0.6685117466260739	-1.5301037988178285	1.4271651470391493	4.324605454016724	0.4003247012521557	0.4843601572205591	0.36738634016740934	3.5674219041400983	5.119551168867589	1.888582701683203	2.9579632207575686	4.729400622825036	2.052119249884815	3.5161297232545836	4.603712070285924
296	-6.2711744150139745	-5.669489846220582	-4.007853974713905	-3.760770072978723	-3.260627499931159	-4.964459406716434	-3.297984591740528	-0.6501065476216392	-2.7267403533756522	-2.4249792037774185	-4.963203417644897	-2.477629655304645	0.25567835504829134	-1.410963770165076	-1.6348853069990203	-4.513689506578883	-0.6002132281408268	2.490854018598283	-0.3399995854853488	-1.0469346020015196	-1.8158816053320266	1.2830789056808252	4.562088001177147	0.10494160625665436	0.24514453051186028	0.17209213928642586	3.6389596370374857	5.556699738778299	1.7712478592975602	2.7968344617802243	4.9201779241317	2.0020525404927887	3.652136793452581	4.977344023535709
300	-6.602615816612468	-5.545724377935648	-4.326355446382911	-4.187554348863476	-3.5722360520771623	-5.368858800684436	-3.517369261444203	-1.0427080366511676	-2.8028778959080327	-2.6023449832063217	-5.329999433411942	-2.9118959830198734	-0.008575480409667276	-1.3477997745817518	-1.7045756535409036	-4.6523132206759135	-0.8885905720210509	2.5295412476571015	-0.181911557453544	-0.9605299806185655	-1.6166410405350728	1.246248003674205	4.832272994238893	0.4858017253531347	0.6045956000322281	0.5902613386510298	4.006266106981098	6.110655769179011	2.310373777278439	3.2647495187348388	5.553400979326178	2.61554550464211	4.3478784451383845	5.789780602142463
304	-6.47814701352096	-4.965054976325526	-4.269363869378363	-4.1780352486983015	-3.8727805516693126	-5.601152405902395	-3.8214473627882963	-1.3144212928010952	-2.2496750297968013	-2.6035726004670163	-5.455863938861986	-3.2734098351802587	-0.11329236598021489	-0.6798019392016339	-1.4039977753477635	-4.456315506174422	-1.094293233969658	2.6426191263236336	0.5544708953209818	-0.4477542627473978	-1.0223826144154973	1.314675566215065	5.083362566511447	1.4168612921228423	1.431678291520858	1.4577666484267318	4.5258173828300015	6.608948214057418	3.2859036839493743	4.1605868234493855	6.395426257199048	3.6086306480851285	5.313104616102302	6.743862611910151
308	-6.088338836557133	-4.197178830040349	-3.768730630896247	-3.7535624409321016	-4.145166386629188	-5.630368218511737	-4.111104954830418	-1.3526304926100217	-1.2786867586277053	-2.4805195268946387	-5.330223070038574	-3.460216990317747	-0.02353158214707612	0.3541076472401957	-0.8289876559308416	-4.0118608373441695	-1.163923260611181	2.804810755323929	1.626339312261991	0.3416863671259113	-0.2241687619986874	1.4721538983370017	5.294361577972134	2.5861475402387937	2.4703009066201456	2.4965374406725567	5.029457556424155	6.93040750661129	4.374662865084188	5.1788449156661285	7.1757120904951295	4.618650424740395	6.221981986549307	7.536622028396175
312	-5.718034729826045	-3.6028561501138676	-2.958192817848664	-3.082892171705581	-4.367988098560513	-5.501463876185823	-4.326530922456686	-1.1455992431327253	-0.2394460135613352	-2.289667838991483	-5.009859072434329	-3.438841095825207	0.229367434399388	1.400385614674205	-0.12773303655322987	-3.438569537064296	-1.0748374434990648	2.995519868917142	2.6971065929981997	1.2224814860950495	0.5778933152867177	1.7049431757796607	5.478181348321021	3.641395798072595	3.4610497864124463	3.4449422272490122	5.407994256670834	7.055602532692908	5.3048419818458195	6.055619701355317	7.71308658559835	5.378045545351184	6.867888910119964	7.999638537236936
316	-5.574927315941752	-3.452169409619071	-2.1382772868529556	-2.4053475796051815	-4.5055432205887085	-5.310545907917844	-4.467378128216804	-0.7879679779185615	0.5356882797067822	-2.0600149579489866	-4.593525398100949	-3.2517087377466454	0.5576401934849772	2.14991163664658	0.5610398039958031	-2.840164177399587	-0.8416017272681653	3.1920380511754978	3.481608620436468	2.04451488932357	1.2540743319320333	2.002693648050374	5.651481137312192	4.336822021979044	4.240010250830648	4.156892765994113	5.6463594294088635	7.048724633540351	5.9547061769824134	6.665910227158232	7.974896887671718	5.807129368425566	7.22691581808802	8.146248796876547
320	-5.658916935938438	-3.7632875347491006	-1.6146643121007327	-1.9252752017050043	-4.505384910652585	-5.141331659687842	-4.557877052243687	-0.42791780721390765	0.8668252207805319	-1.7838236048483902	-4.170502175292027	-2.980484478101221	0.8483797886409754	2.4605793890818237	1.150726077035492	-2.2711160125612713	-0.5096004592427099	3.355928412547603	3.8518745801949956	2.7261938979937312	1.7750768616682642	2.3453564584645306	5.7964811178726166	4.610856521409244	4.768743502974728	4.624257076032393	5.796331867842476	6.988988858697272	6.350515349567076	7.027897817034096	8.043880442337638	5.985612854150475	7.404658298870953	8.108115175757005
324	-5.757101044424678	-4.261795510022472	-1.5060540399674156	-1.7254804329223283	-4.310765732371978	-4.999107825055468	-4.586979377609664	-0.185118972787777	0.7820876817030917	-1.4340604507479366	-3.7711696529542977	-2.689235203629035	1.006972668012753	2.3915421902357403	1.6133519370353815	-1.7318456129218216	-0.13814948464323337	3.431361666599096	3.8614210984966983	3.24375008717775	2.1856751386772575	2.689512961272987	5.846955284615299	4.568953502563622	5.094490992081495	4.924536215746673	5.912695869776468	6.901856404998804	6.584076387948338	7.229842167720524	8.0262737071526	6.04142902756302	7.516377430058616	8.014136294158341
328	-5.574979291191864	-4.504218090129408	-1.6459130007196523	-1.740483756439441	-3.8872814080322375	-4.789009558984352	-4.475515354300996	-0.08763474948930337	0.47756555555886554	-0.9942767594983595	-3.350636235360647	-2.3848545491088258	0.9960501168852396	2.144488567660028	1.9583312223582403	-1.1910815208880718	0.21865345482457815	3.3652331744107076	3.68895195983302	3.598108520960205	2.5453123982062724	2.968316309110336	5.715496525639338	4.394756782880136	5.278525815988189	5.135197626500204	5.997444614527097	6.736494524160199	6.712629301289545	7.335181694584694	7.9632100857908235	6.036232933063199	7.582231025625994	7.891318778141521
332	-4.9265994901250085	-4.111868371118774	-1.6666549402119617	-1.7984962417971242	-3.2442781843291266	-4.356810558763295	-4.098111619139347	-0.062250267557095194	0.21477380340710436	-0.47627931713018246	-2.8162126470035163	-2.017115587863816	0.8548149444932585	1.9544994781738836	2.2071335259979583	-0.6190018042194888	0.5272206650774346	3.144705526041705	3.539065828924825	3.7900349998152367	2.875980131517535	3.1133680265022945	5.353497491671707	4.246031273612077	5.344137655116969	5.271487699550881	5.990976318492403	6.4072742300390075	6.709024889219788	7.329982262224775	7.803175429670214	5.922461494751812	7.506781082274006	7.651570300811037
336	-3.861743917251987	-2.993007413936913	-1.232736822830632	-1.7059539513432098	-2.445828193211474	-3.580314388772465	-3.3575057898629566	0.018432114226773093	0.20598612673728214	0.07971749434609977	-2.0903480000171784	-1.5205529889817124	0.6881846768170357	1.9858555743624173	2.3778462349938296	-0.01637162636557365	0.7790077309013891	2.828425638687159	3.5476317316131594	3.8175921343739576	3.144907943414851	3.0885195654139075	4.806702601694809	4.185873974722211	5.27099035839613	5.280978189486636	5.814870819669449	5.87240837521876	6.48827551157278	7.141053658575797	7.449295978811964	5.5916952945676295	7.152072411599735	7.168916207333576
340	-2.657185070958489	-1.4255895578631348	-0.27018862894506707	-1.3374073471635322	-1.5974107940397404	-2.4591085848710597	-2.265887731553353	0.26255562835207963	0.5368064628399454	0.6223858579180677	-1.1724380225144269	-0.8706497528028888	0.6276697500594207	2.274219507197601	2.484070771621391	0.5750021919991868	0.9851434801978409	2.5458650524712345	3.731269111749495	3.6908385660446874	3.2872955716106547	2.9164171145239615	4.227427948768909	4.173945416402719	5.028455244720142	5.0900220742460975	5.436968312841578	5.195801721806178	5.983349308166201	6.704054815532385	6.8455729311724	4.971244799460532	6.449900610851797	6.390939696388842
344	-1.6741951661755905	0.06000698342670204	0.9483128166097992	-0.6949936133957615	-0.805280742996311	-1.1457844943682196	-0.9758727525868173	0.6981276852147835	1.1459667653714825	1.1151243420103263	-0.16128554899503006	-0.11741114378134322	0.775033710430313	2.728260987069323	2.5447878773335733	1.0856952639825157	1.1661765545965808	2.4512929854492636	3.994813670562869	3.449570170276268	3.2521805681134963	2.679885857491751	3.82266401279438	4.11139391814756	4.6205944898294815	4.669207084311239	4.915138232219375	4.545366752592655	5.2173056470753725	6.033349021937668	6.044331058500517	4.101842869892866	5.478722558494216	5.410017953565139
348	-1.1673299044700727	0.9469733214311437	1.9286328505460144	0.08645762481318674	-0.1307142373599502	0.10265626732418805	0.26270979576540193	1.2554303375972498	1.8594539118550129	1.5503045281369439	0.7739858011731625	0.6229777320391929	1.152692672680246	3.177728168093951	2.5880334311947255	1.4441534244315608	1.3406141962536413	2.6494774751527532	4.182815541197218	3.16182350314082	3.0386562270693416	2.4906189378798826	3.757375707676624	3.903934707321857	4.105146397716556	4.070957173559711	4.386679161440569	4.120174874393701	4.318687904898363	5.241898523447607	5.20623348828985	3.1402342240205234	4.449530113430323	4.442360389937683
352	-1.1557755441095352	1.0071490977608428	2.2337865773070082	0.788040218747847	0.43725433835259714	1.0339835856081314	1.2039660184980587	1.8003523304307436	2.45821070050443	1.9440162132772556	1.4619524442001604	1.214940425666396	1.6839132266445238	3.442497721563656	2.6405813627331973	1.601072664986916	1.5155074558142143	3.129868261064517	4.149109353080414	2.8978061602862817	2.6992623737849932	2.4367558894624066	4.061588753936148	3.5086131007302264	3.571366301102796	3.413701764071051	4.003698338890657	4.0417365925788	3.4663836868506395	4.493642795661478	4.5265931968844395	2.2816302718731043	3.60286211057833	3.7204625512604217
356	-1.4361512624720891	0.42222022903653544	1.7489143565844767	1.189257261134682	0.9711222028055679	1.5151720008742655	1.71555017991853	2.1989388410363477	2.751955263819193	2.3140387476671354	1.8013715698538295	1.565007801873015	2.2162272874190903	3.3957333479024276	2.7066917351096196	1.5423915347258308	1.6823224978887745	3.749456396173181	3.8124534987515553	2.691884034036166	2.30979680431847	2.536468261036829	4.596384990531474	2.9434420988154715	3.090259305781219	2.8219220567028462	3.8502511880939916	4.273729313550691	2.796597950550353	3.9161345859836825	4.13012885004606	1.6507487255380706	3.0778403204457527	3.36225008115652
360	-1.7213991836955718	-0.3194775871317053	0.7647560815576409	1.154836770956693	1.5549684723695532	1.5881655176119716	1.8332393123118234	2.377675765710203	2.638052933708209	2.654276602719372	1.7994686319695348	1.6621605115886655	2.5836450988388617	3.001597158483097	2.750708096235061	1.2870961395192544	1.8175828410989108	4.284373272569228	3.1800746837435443	2.5169343884817774	1.9253250311879107	2.7224378517080483	5.1058974137140725	2.264148944860356	2.670524352006964	2.3579499661994587	3.8893775841744063	4.622079837573534	2.329155916055482	3.526470890678426	3.996538390559735	1.2302747933797555	2.8319291996982106	3.2962500965819435
364	-1.8117771102938667	-0.6970291716143465	-0.17274145738380842	0.6897356492748202	2.216288084156608	1.4338629209556497	1.728291984009285	2.3486823976346	2.1300034469232836	2.9200901911443267	1.5557148417295463	1.5735869367924558	2.6787416867335314	2.3229839743138623	2.698480122428936	0.8733345248107284	1.8855042409976162	4.52741144944585	2.3382546842667624	2.2901508750315234	1.5487884243962646	2.865289442457612	5.332331167109667	1.531229253717636	2.250628465692221	1.986270065061139	3.971218337523076	4.820079314460108	1.95878254872734	3.2163343348360796	3.9616749186628937	0.8723655917077059	2.6609351567797095	3.2901415741822047
368	-1.6980025725409584	-0.4526313531891859	-0.5612631425992126	-0.05875104278393983	2.877663843518899	1.265448924684382	1.6073214967201015	2.1921288911786636	1.3520210947233768	3.035501710857213	1.203902122319021	1.401592370309281	2.500432484989505	1.5009256563438889	2.463423245886167	0.34427216562135116	1.8450522376207437	4.384502876656025	1.4203655683896297	1.9123260926602441	1.133895513532758	2.828900091658373	5.137981401822766	0.7901188711244959	1.735877151874961	1.5951689441461085	3.903890361466256	4.659410941757847	1.5202770194770991	2.8110752034740063	3.8004791640649906	0.39044156571993355	2.313789600252603	3.0742518824207554
372	-1.533521290722042	0.26961010626433773	-0.21785780732464147	-0.8514637925585126	3.361562243557549	1.2110106914462762	1.60002326561365	2.009612078361276	0.504198788323578	2.9227890894529422	0.8468726255969901	1.2272279231558199	2.154425138756156	0.712781487095816	1.991087074021145	-0.25770112807060436	1.6628793436028417	3.921388854616657	0.5688250050488403	1.3258911337755546	0.6228384359847046	2.5333664353305494	4.573362815754394	0.07631916533513322	1.0640170547324383	1.0671957704302846	3.5536141305848714	4.101081837790295	0.8936762787190261	2.1745300238067147	3.351098767402936	-0.31879755774117985	1.6418483215841015	2.4961402353207767
376	-1.502595420858411	1.017312643343703	0.6373364909293322	-1.444715615439663	3.4533698471618166	1.248101469703461	1.693230267064421	1.87426745418364	-0.19918791899458876	2.5395085747498563	0.5170940147695974	1.070979234852495	1.805356974812029	0.11754941165571184	1.2991318669897827	-0.8888660050838625	1.329228397828103	3.334696999713634	-0.09729985868206821	0.561127542032691	-0.003332244689545122	1.995776529041654	3.8554270170146396	-0.5638009891580518	0.2617491179056601	0.3595782509308363	2.9216835425044394	3.3063273346393864	0.09015614516622604	1.3021717038656528	2.6132311755006143	-1.193393585053072	0.7003812772234065	1.6215671259947426
380	-1.6796150165113328	1.2975556817673217	1.526117917022472	-1.6798310237434535	2.9999134464817327	1.227034327270078	1.7491346553510103	1.8033556892641032	-0.5971578344527095	1.907938594769405	0.18284264160722963	0.8935279227585547	1.6010813672650313	-0.19193085979641175	0.4923703956093775	-1.4975135288576915	0.8726128913782546	2.860414736201609	-0.49779233210768187	-0.25338542397421593	-0.6892229897264014	1.3315193619489056	3.266494742729456	-1.0533658239472574	-0.5389080034001302	-0.44769933706737597	2.1593816225845845	2.5702929431871477	-0.7278877478341962	0.35249006659204274	1.7688852503939183	-2.0105280825398713	-0.25324848230319025	0.7259160261900043
384	-1.9713742683229294	0.8603304602836239	1.9883084246980214	-1.537382360391554	1.9928406426660097	0.9640438532331375	1.590088363447571	1.7619367793421257	-0.6303628071128631	1.1199542255735715	-0.21150524860864736	0.6309022291467185	1.6073211390922337	-0.21134400314377585	-0.2613255374986332	-2.0235691019466433	0.36344787386685196	2.66700362485826	-0.5918075427372443	-0.9270178652246599	-1.3091274466840899	0.7144348007284216	3.028067342742438	-1.28531551036573	-1.1384303541051097	-1.1662862271426906	1.511621829031117	2.192657942004354	-1.3064696755802654	-0.404378949574897	1.1124396296071315	-2.477170699541033	-0.8662099816387137	0.17780840351988797
388	-2.185251230444685	-0.16640311437555733	1.8264703704496408	-1.1368945808317046	0.588073490565428	0.3475551894472908	1.0981723042418468	1.6903837876557142	-0.35614743738854915	0.30832090896010517	-0.7017355543539289	0.2395531827123708	1.7836596920756718	-0.014963706917533954	-0.7927483896267681	-2.412787908184419	-0.10201631460659219	2.7847936083102587	-0.3763398816620615	-1.282039400678567	-1.7160142616815797	0.310211747101541	3.2094168581994915	-1.1568161219953967	-1.3517762388432577	-1.5767317970521548	1.2119019000927076	2.3456942975902644	-1.4150202238596683	-0.7023703438191842	0.9192791557944302	-2.3654792249084764	-0.8522381164968347	0.268619775093895
392	-2.175613874664574	-1.362070795435003	1.1839739054351306	-0.6797397119526455	-0.9451255774477717	-0.5953053817024122	0.2803028814868223	1.5410023888782027	0.08054054508140275	-0.39873292941512534	-1.277896758667847	-0.272052674798744	2.010824198414368	0.28449463772471323	-1.0006539796360672	-2.6366803579517866	-0.43335634360574005	3.1051731031221057	0.1122660559561604	-1.2308655946172777	-1.809480066499312	0.21232911890781395	3.7115502263775273	-0.6237043126571705	-1.0936884852452937	-1.5300408563131047	1.3786303962232724	3.0012686176819248	-0.9574828719760513	-0.40225055712230867	1.317216631424714	-1.6239238936432114	-0.12812767890529136	1.0719063254949905
396	-1.9616230676715845	-2.255766386058888	0.42508649718725783	-0.3610385945264687	-2.317920202125109	-1.702213640683708	-0.729675767963654	1.305085178894918	0.5081928955598928	-0.9156742072828714	-1.8844927501783315	-0.839958367611212	2.156310552874931	0.5855342134951179	-0.8918935037982952	-2.7042622497947084	-0.5804786667473228	3.44680022323126	0.7952782491632275	-0.8160451033969901	-1.5861319263466591	0.40817093746128874	4.329135407008216	0.25532823736576465	-0.42393296849983203	-1.0221163008633132	1.9619837949808543	3.9492323298881558	-0.024347312686961105	0.43856289872069226	2.2231435719627854	-0.409428863683775	1.141550895669802	2.401701921121344
400	-1.7334035591230275	-2.568025344087038	-0.08697036631799189	-0.2902497939887931	-3.3110372936576464	-2.7377405097504672	-1.7225680307766662	1.0199424002645536	0.7937777022347956	-1.2128673761263418	-2.4374289451095112	-1.3655102218484385	2.141938919381553	0.8332862236919004	-0.571309684264674	-2.6534480981590858	-0.552210448778227	3.6492338088407696	1.5547237356987234	-0.1926365787887706	-1.1423771352535923	0.7902139405326726	4.851178633839598	1.3126867976425105	0.4711760270620428	-0.20095074126053145	2.765883200337983	4.891898142861547	1.1399239272901207	1.584419604115875	3.3746144686375104	0.9728614067310779	2.6106338435064393	3.8873634240232415
404	-1.736630793001598	-2.313488477587958	-0.1666187043751656	-0.4554407287066138	-3.8178665541578107	-3.475352993773795	-2.4864542421506513	0.7543454747228107	0.8832950569739959	-1.3002237048700218	-2.8418004441038303	-1.7460553602003985	1.9770048806820655	1.0238317225356177	-0.1846512402402442	-2.521540396999811	-0.4066137661204631	3.6436719802415305	2.2473263683800013	0.4406182158789705	-0.6248353703935727	1.2066172330909746	5.145341383341049	2.312147373083898	1.3526060547057255	0.6978588682675252	3.532664051673532	5.563612447043317	2.2354457321947874	2.7180268695872267	4.43767308068438	2.1879570428920774	3.890941133212207	5.123230921208152
408	-2.100656027258609	-1.7196067528224117	0.14918015859609648	-0.7437627892789482	-3.829970588551079	-3.758842935608711	-2.8616778778305	0.5819964394180515	0.8062497953086227	-1.1934664219288036	-3.0018436832932656	-1.897808427787535	1.7458492473392857	1.1818529337607981	0.1583518828923981	-2.3096079768042985	-0.2143923634838273	3.469474783720887	2.7378842761533027	0.9310799813604917	-0.15272232851570408	1.5298705062387665	5.190658079393628	3.0285103244612905	2.02582764114077	1.4574955665029776	4.051949013970251	5.823024258216978	3.025977127064732	3.5706608205290156	5.141663061511957	2.9946887417524923	4.701090800813992	5.824727043704622
412	-2.721463196559142	-1.0370143625780184	0.687233267479533	-1.0027658914044166	-3.393558016792197	-3.5293767363131794	-2.7695345808677048	0.5552965984629705	0.6489526017017011	-0.8899173118057565	-2.8317387032539894	-1.7692760184440792	1.5593924483029027	1.3323280777671764	0.4370227743082294	-1.9671587894364777	-0.01593439090699224	3.2356359876956726	2.944150201993615	1.2363138167638617	0.2440071099796444	1.7114964680375904	5.054799543970035	3.333137503791668	2.414269918068373	1.974190110944299	4.2437405479098524	5.684275135947657	3.423342457711261	4.025580872862508	5.380307183986831	3.321487418371863	4.95996140181446	5.923297390288032
416	-3.2843160546351453	-0.38708460233233666	1.270770665775072	-1.1103557320217556	-2.5792033607214138	-2.8269133496437355	-2.2221591416521607	0.688162384679946	0.5114435540638012	-0.374227880486745	-2.278855318037947	-1.3505330051656714	1.4977276287411843	1.481373663976871	0.7181109171856624	-1.4147216045900977	0.20183722623887648	3.0546421927577407	2.8708391117093477	1.4292399847185422	0.6333881004554447	1.7967716410095471	4.839341628254249	3.241755954187179	2.573018305957977	2.2900943698284193	4.178397168100464	5.283294187558181	3.49912594865457	4.146700848600411	5.234959589138954	3.2640492833697854	4.787415969205661	5.562877164147224
420	-3.4249861153914374	0.25416782434188473	1.7983818008794443	-1.0193665001881878	-1.4870864115363003	-1.778934474268388	-1.3200066056303164	0.9535316800838665	0.47122299552200725	0.347560166435117	-1.35792708054068	-0.6801841241829687	1.5753872354787064	1.6202018220049648	1.1012574406476319	-0.5973588213143848	0.49492853754971144	2.9882054253473522	2.61552166278426	1.6442093807669833	1.1317859859501933	1.8952355336976563	4.629121291870942	2.903074972452545	2.641722672468475	2.5521428520617078	4.0299920934019084	4.806437480235517	3.427352181364468	4.126475800586289	4.918429362276984	3.018870584495394	4.425364959987916	5.013008105019153
424	-2.9435081407617156	0.9388096308847385	2.231727117625929	-0.7617450933297693	-0.277674406065831	-0.5879517182764594	-0.2462020361167953	1.2941640582788756	0.5642669782697293	1.2058017223432165	-0.18413795484305687	0.14708389304696093	1.7454901889600654	1.743397469887285	1.6395490128130512	0.4542593050455036	0.9187049842527585	3.0327417773925016	2.333607429334648	1.9896336743666114	1.8188445522163306	2.1188211387544946	4.4716534501664595	2.528630488687233	2.7594840456910537	2.9166977331908557	3.9864392179930697	4.418059814742688	3.388120642690935	4.179545868811675	4.668885219230265	2.7872354913912516	4.121145238008195	4.544823635070833
428	-1.9439065407311458	1.6029529531062532	2.5316688950516317	-0.41727536811380883	0.8113332370301022	0.4910529541492333	0.7523368578035959	1.6396992165175062	0.7850179056374966	2.049361939024467	1.0228183243677051	0.981960770988805	1.9330898474524862	1.8642536354680777	2.282356256444636	1.5937830169492904	1.4749268256142414	3.14132641952863	2.1758055632016875	2.4757983622031894	2.6657822064806065	2.5171844895706235	4.3842310794765345	2.2993225993278252	2.988132230843753	3.452273598537875	4.159486283291031	4.212368000839403	3.482186547070751	4.436191547637583	4.644175517754564	2.6952741078038516	4.027819146477463	4.3258042226294195
432	-0.80935919080477	2.018550152450648	2.620908730565459	-0.07049769890390815	1.507567521103731	1.2025330036319868	1.4178466761077813	1.9251226138147646	1.0948315831199102	2.679934018044608	1.9876618335131304	1.646281238214145	2.075321192270083	2.0096623846813393	2.8796501086963793	2.588397734782673	2.0835192150917927	3.2618443883558212	2.222717994800164	2.99951028066549	3.521135082891605	3.0429906768264643	4.369691837722471	2.2910566272112436	3.2830901063045	4.092009534041227	4.534736621851672	4.198274124989976	3.6940381433681524	4.883656012602815	4.86055849755493	2.7582218577364768	4.157839764587913	4.370969284466073
436	-0.018379360390989766	1.898025150275391	2.4164309440638934	0.21934592668466912	1.6073602397391078	1.370370265361864	1.565494652610311	2.1053185409797477	1.431370612345304	2.930592529527235	2.473541491939112	1.9838468978385582	2.1462955420664764	2.194507116499197	3.248067847634378	3.2013423362014453	2.5992684298693627	3.365056983081196	2.4472007689678965	3.392466059702669	4.16459368607965	3.5637464433339483	4.423537720002295	2.452437394626062	3.522375097918381	4.658094871204529	4.9806613796369525	4.312602509100739	3.91373228038672	5.3767394883781625	5.196570860140418	2.8952562735892284	4.399580944397497	4.560885417867196
440	0.10171267364571178	1.1028629513552481	1.9127824258194923	0.4271648813430059	1.0900711985722977	0.9787136887635741	1.1677613228878678	2.1621823256262194	1.7211254791674544	2.7494881083688787	2.383375161829236	1.920552606502084	2.1555864756520275	2.3972721039328215	3.2634675420382466	3.292467585834047	2.8706109451297235	3.446038714291532	2.731059305925173	3.5071570784713293	4.404920566881574	3.916346778518547	4.525998580949661	2.6471073560638887	3.576826563387594	4.945916640192205	5.310219274465299	4.4502577669319034	4.0024380582847074	5.70934675682552	5.4558253150522695	2.9830055161502758	4.5822076681795725	4.7102537036228895
444	-0.4538381088242617	-0.189679383752673	1.2504595486541115	0.5519278631580603	0.16982273714581614	0.20482280798697675	0.3892887522882433	2.1028611606911523	1.8979195308451158	2.240660184925152	1.8136000587450747	1.5026931724755956	2.1257963126870796	2.5593800480120636	2.9300732538632626	2.884557955134794	2.809982769547321	3.5038313777198384	2.929998152011035	3.295361272121297	4.170875538785958	3.9769480128015786	4.629053580994648	2.7365434100678208	3.38309525589332	4.823024737578892	5.362930761148622	4.499403942192343	3.8657092950495926	5.708886608969015	5.455793366962751	2.918707363389029	4.55453490061028	4.65153359192422
448	-1.3610999549833527	-1.495303865472157	0.6945697051631892	0.6026644691510259	-0.7662646751130971	-0.630234120685118	-0.4609992194457538	1.954160804583125	1.9247542571109826	1.6292102295749942	1.0231772635376364	0.8880477525224518	2.06904816105118	2.6120219164704643	2.3827145039482134	2.1570060198684144	2.4371728835562028	3.519486656839858	2.9468483850464953	2.8324601578725295	3.545346251119662	3.7117962743505393	4.656867015525256	2.65196966455381	2.976756565207801	4.290588844910713	5.069070803241866	4.374018658085083	3.4960205466696124	5.30814550966951	5.102731691828755	2.6632091931814386	4.244304169429426	4.299654949776739
452	-2.1338519996174243	-2.2310743275579967	0.5221400247742525	0.5903539642687768	-1.3198809590394471	-1.1871288984844162	-1.054473635872256	1.7540302232326321	1.8124023630159818	1.1623233527401593	0.32357945956550194	0.28520905899518734	1.9787976691830933	2.5203101571347535	1.822228069473108	1.3669832910356985	1.8714098883110328	3.451793185102199	2.7814207006802243	2.2786390723872483	2.7265882423225696	3.1876542487726254	4.53093909073333	2.424589150982993	2.473467582179777	3.4817087562394375	4.472928035887118	4.042073239611641	2.9718069955181488	4.569352615264031	4.427753914144482	2.253793710740382	3.682945719003458	3.6819748785518076
456	-2.3829836785233396	-2.0247571417233066	0.8728741981402902	0.5268791900683786	-1.270667549739871	-1.2606517044663914	-1.1927431791709249	1.541316028518219	1.6234883029002927	0.9934737657259728	-0.06222319587256462	-0.13511960174301565	1.8404301358486608	2.3171081484467395	1.4188364708364225	0.7351120095766683	1.2744233576069752	3.2586936868409486	2.5281073983260045	1.7993488266338387	1.9367563675619424	2.538353675155604	4.213477124066583	2.1595663969829215	2.010061020544591	2.5997009211707613	3.7090005780990527	3.5427191168031746	2.417742961501377	3.654534330677973	3.572721710721566	1.7849394037957684	2.99095963676618	2.926528684856709
460	-2.019156212477194	-0.9436752772347585	1.6596394735396105	0.4275818158321571	-0.6893362981558334	-0.8795881845201285	-0.9026266313651908	1.3479763235391309	1.4493164979582593	1.1128327818430772	-0.09676315611012386	-0.31046220581825484	1.6515781837726708	2.095150942281053	1.2382158009738422	0.3581652632253583	0.7794970850337596	2.9311873838805913	2.3190731943707332	1.4913443289297248	1.3312779631381748	1.9105281781597785	3.7433006668948994	1.9694665620670646	1.6814156728254512	1.8352585984624257	2.949624292555966	2.982587568382166	1.9511107157083794	2.7636222769580714	2.7377977302093073	1.3681929076937163	2.3340151251038823	2.216696256762999
464	-1.2908618417573667	0.5050808178547374	2.59884142219527	0.31089135925955413	0.09630449091915465	-0.29472318217253674	-0.41973265899543744	1.193999764288907	1.366778370267478	1.364851948153201	0.07081231456998013	-0.3012729875587558	1.4363161289191215	1.9569956014814853	1.231773373354915	0.19272848915078222	0.4454574573714218	2.5174288686135857	2.2462594452412157	1.3564724887932538	0.9558224653907353	1.4166848623747526	3.2392637647861227	1.9088418435540506	1.509701128962724	1.305672523063052	2.350031608370329	2.507714026795462	1.6436976152882339	2.071443790927944	2.115350956344433	1.0919144126026783	1.8696687174322502	1.7316303209454365
468	-0.6476671679357204	1.614637251592073	3.3386127864469115	0.19280758451419946	0.6703025681738292	0.14636114202740053	-0.06070113539271337	1.0860182019470934	1.3980846369731053	1.5434818228853096	0.1996733988250586	-0.2407279008509607	1.2431197135057115	1.953536624744613	1.2905338970026403	0.11217103870204773	0.257833480183994	2.119834894550275	2.310966485864589	1.331466075396611	0.7653478364694769	1.1146318884364355	2.8622260021424704	1.9497485111601218	1.458011981144008	1.0386930677892343	2.01056479900096	2.2553467693607283	1.5128917655894951	1.6855665402771294	1.8332705451456068	0.996305105554945	1.7011874871218455	1.5902098377133165
472	-0.5003624545815853	1.83327638640078	3.6079480556948837	0.08174826184137311	0.7451922874709873	0.17708803668611253	-0.04958098369239741	1.019525525380047	1.498189922364895	1.5134431085522755	0.09874495838983784	-0.2463733696677696	1.1244574756842722	2.0508639760690146	1.327691909298962	0.002942377461142278	0.17255687670056624	1.8602522564651187	2.4283437667572048	1.351093527243724	0.6879252177989834	1.0171329949448034	2.748215429996848	2.0088341185396317	1.4753588400784827	1.0002038453598598	1.9654582689253293	2.3020598830275794	1.5392469128847102	1.6348376232833204	1.925796146299026	1.0698870393443882	1.8511502696030282	1.8158085300377165
476	-1.00715112431876	1.0391696665276549	3.3015620625109148	-0.01848394977850017	0.30903047245204235	-0.24983708497388965	-0.39293441077208086	0.9845304464278738	1.5827141960238673	1.289870854935833	-0.2622743540340947	-0.3434515288741555	1.1118296356740403	2.1511511748361993	1.3383070196695004	-0.15673942824368292	0.16961750345321144	1.8307826472789632	2.485916846674713	1.402028557098646	0.689548490690698	1.1162381143997873	2.94766759128222	2.0083870837049447	1.5416707953630264	1.1400001020259511	2.193310732072286	2.633153431920042	1.6940234856750893	1.8830760669848867	2.337817663012373	1.2658055988778174	2.261969083797134	2.3342084825710456
480	-1.9910553643502047	-0.4085362543281948	2.4687213835375856	-0.09783065294361414	-0.37942573332358204	-0.9386773085736712	-0.8742650725226123	0.9738861297814693	1.5815464218263762	1.0286756727949944	-0.7340920548978469	-0.44477227217913623	1.2031778066775392	2.1580228751057153	1.3982913458806645	-0.28259357738672425	0.27921384502488067	2.0558927007267283	2.423163884720722	1.5318188628622655	0.7980329970238567	1.4004942143367116	3.4025068197176016	1.9360133360620484	1.6834518866951271	1.4242520296377519	2.6360480718816057	3.1486399094241055	1.958616013350258	2.3543503225012716	2.9550397321480064	1.52932333560111	2.8221216130530506	3.0046391411261735
484	-3.03133415410504	-1.8629053784066625	1.254705545118611	-0.1341729756782441	-0.9415098404955358	-1.5542560776569962	-1.1738121479916095	0.9884982084112643	1.4889336786825154	0.9334303117073409	-1.070169446150621	-0.4015608717793539	1.3664202655625717	2.0489656873470006	1.6043972928548038	-0.24031680761698276	0.5598676786592545	2.480636113579525	2.2824325503897556	1.8073481275703684	1.0734553309995025	1.8508503390312758	3.9698111910727714	1.8647906733161481	1.9500269840598095	1.838130588659032	3.214540950288605	3.7033171560247786	2.3255724848206327	2.9576284810733555	3.645520439480638	1.8229988767373972	3.4082519922037067	3.672725429798915
488	-3.67460130717455	-2.718975537111077	-0.1475658562033979	-0.10083761785797357	-1.0846683951649179	-1.795364256140664	-1.0471349928167486	1.037198302511331	1.374754306183315	1.13527762603232	-1.0627351972451353	-0.09761913096100151	1.5568963249953012	1.902337188686135	1.9960153052480214	0.06314247085603393	1.041155812495846	2.9918525143426606	2.1956155244706417	2.2511396351245243	1.5464442929324564	2.4201767383507007	4.482774723179152	1.9179381083702571	2.3656763970728956	2.3628256261297755	3.8371438883223967	4.16486691377061	2.782569639810014	3.6029229073158477	4.29598568785363	2.136561865180651	3.9260256191313174	4.2238092315844415
492	-3.650127401672986	-2.69662665639968	-1.5025002918455894	0.013740617747185793	-0.7522333841405272	-1.5465248784119894	-0.46415540458793164	1.1320954532650858	1.3429496254393343	1.6113014180509957	-0.658767221694927	0.4659742999233052	1.7385277704214304	1.8519736481638767	2.507605784760823	0.6071607455183055	1.6688401656932	3.4606254013427167	2.306707376378272	2.797905438034845	2.16643928934533	3.015268079774265	4.815941321611669	2.1936564390111104	2.88917946086043	2.9483816549248263	4.404708851183867	4.459562767213587	3.2923829472386794	4.2091522110526	4.830382811748548	2.476570123141793	4.332540501146347	4.612485397137553
496	-2.987322084514011	-1.9307494114766446	-2.502976888059253	0.18390454305470574	-0.13692346180678258	-0.9275283194012276	0.36759722140009227	1.2794105974320302	1.4619612656875647	2.1883008424822736	0.007180492375543465	1.1453946799923727	1.8936165523403548	1.997946853361736	2.984826557252856	1.2485393254228756	2.2920172156640186	3.7834079170072616	2.677566998397264	3.3044071114081506	2.79769491443003	3.5022802264481196	4.921273695918484	2.6961228779433104	3.4108846101474994	3.5076370150698493	4.820493685949541	4.583454120507969	3.7868089580295585	4.710508811501884	5.21037768002133	2.8452575134920743	4.6341147305790376	4.858118044985408
500	-1.9843352982966145	-0.8429321625408377	-2.7921001840669577	0.34256288322744277	0.44782808309976574	-0.21655213778181065	1.109018323005662	1.4697143994417936	1.7112936930365765	2.6345615320446605	0.6813085658038175	1.707308288078377	2.0160570093752774	2.3296835363697013	3.260546914451626	1.7845839216952255	2.7099304130799586	3.9053101441012212	3.2316460527844817	3.6132914928762174	3.271548501337912	3.7443921471472708	4.823991763333287	3.3121502315820823	3.793872823673345	3.9405155082396313	5.009264933336708	4.578648078802574	4.181759346894465	5.0644202104496525	5.424929605138819	3.221335641357266	4.863003241658864	5.011879431468535
504	-1.0483795377965166	0.10775752338382982	-2.07809781503529	0.4070398797248866	0.7533766608290774	0.3015374235646342	1.4626085721281912	1.674631114546377	1.981748575929183	2.785092585207697	1.1182131739040782	1.9344896029268575	2.0958740658296424	2.714888804257015	3.2486054815288945	2.052586073461517	2.7594911982484085	3.820276489149285	3.7741005325397934	3.6382179168397735	3.467850437945569	3.6581435111193	4.586124885424321	3.8516516588240983	3.9402847190556436	4.177004803602026	4.940733420295623	4.49071072398309	4.408537376717414	5.259350286556622	5.478384480949903	3.555289497935988	5.046261774673964	5.113745676481123
508	-0.49769732230414976	0.6421200616837038	-0.321880041740279	0.3282754412945973	0.725882707193659	0.47531646370091174	1.3148708310308561	1.8521400643316694	2.138459200228351	2.628680699387389	1.197863575772072	1.7287619070275078	2.10781931344963	2.972415201311901	2.998525373517708	2.01033281772408	2.3976628719829822	3.5569155126413556	4.08620594900339	3.4187223824970956	3.37841390710448	3.259275428172488	4.265175808628439	4.135294903804989	3.8445174596996545	4.212791909071975	4.646164405536409	4.335998524208906	4.444624889596272	5.317241178439271	5.385116563552325	3.7843336963475753	5.184665190004461	5.164602266623719
512	-0.4239699531818218	0.7418954949721392	2.116033310316099	0.13599160279271683	0.5111628757922625	0.3413929334604229	0.7718691806378876	1.9575930784392055	2.1110062545884345	2.3095359743935915	0.9712626313483042	1.156247493685675	2.0143597075149384	2.9894933625084072	2.6768338612683777	1.7526907876586213	1.73087656060951	3.1612005153952007	4.043943394941391	3.1088225763031994	3.1133713643623935	2.668606512961513	3.892527093596386	4.083554734410474	3.600199690312225	4.112825383292872	4.2149701012051475	4.098625172757435	4.325198162602874	5.28462122536611	5.1703486312027165	3.859478702337662	5.251694666001	5.128005014824028
516	-0.6779021007588597	0.5827643856593987	4.511136997277466	-0.05512199164421086	0.34376549633971715	0.07423187773559431	0.07961504141257014	1.9558006475660454	1.9515179346404568	2.044738287531624	0.6163375362094002	0.413333236127607	1.7837507679726585	2.8072643209152686	2.481782191686373	1.4555175267664557	0.9722368096600535	2.6847238472866652	3.691207161167048	2.8999168799617387	2.842592947458763	2.0678629822974584	3.4783587367929396	3.7567658329528224	3.35223435509233	3.9754438299898247	3.766024103193119	3.7547786141010278	4.124733437614614	5.210504995542249	4.870068537814122	3.767554988885665	5.209169374665494	4.956460463407771
520	-0.9756506656809449	0.37781381511666845	6.020925029812053	-0.09291385835792527	0.39532935519543183	-0.13022661176227388	-0.5166069852183673	1.8288979484159238	1.814692135043892	2.005210871402173	0.33391120945549346	-0.267428069631587	1.411127444519216	2.610801690185703	2.5366487439007535	1.2784390417246443	0.34538727911531614	2.1792075578982986	3.222445241421603	2.9179727957486716	2.7027046612213708	1.6225358206791867	3.0320885104874127	3.3238489543919014	3.2188262858185572	3.8757884404556635	3.4028346452630385	3.305854073761065	3.9184849163305313	5.120908247416408	4.525566089648263	3.5374944120739342	5.031094538384133	4.626827228308619
