time	FP1	FPZ	FP2	F7	F3	FZ	F4	F8	FT7	FC3	FCZ	FC4	FT8	T7	C3	CZ	C4	T8	TP7	CP3	CPZ	CP4	TP8	P7	P3	PZ	P4	P8	PO3	POZ	PO4	O1	OZ	O2
-200	0.260635524330133	-0.07704843561269949	1.5344426593186538	0.26854136518389093	0.04124393303710062	0.13390195335913466	0.044696375614806	-0.49459773177204325	-0.44352564103680636	-0.26818168095590195	-0.4077159156042222	-1.0408717367595637	-0.6497696025655747	-0.40753799574001687	-0.742709455999137	-1.2781726089631709	-1.940304632056463	-1.4790037833065848	-0.11903120547282867	-0.9424726939248065	-2.100818628729146	-2.3928978382730888	-1.5918717344147482	-0.22408235016514244	-1.1686249941884825	-1.929022068875415	-2.4322316585167982	-2.018535847335938	-1.0546855899885421	-1.7119421915700954	-2.1153488105772262	-0.8688564278600593	-1.0561393472709435	-1.5448939761257627
-196	0.3072873942246317	-0.1096859199019599	0.9656795238909341	0.29218879268308584	0.227095811985766	0.4709016072781898	0.4306105662441269	-0.28792005704666185	-0.07678615282460818	-0.055086642364658	-0.06173442661076954	-0.5263293968263584	-0.4692848312927393	-0.21859531049374656	-0.49910241239421493	-0.9979243253308251	-1.3902288640208322	-1.2114737003257223	0.050008568786485026	-0.647078810488628	-1.7708002284164273	-1.7677150920106424	-1.048068639970153	-0.02223139995684108	-0.8321069457979967	-1.4487080537459283	-1.769009108845449	-1.380110975595755	-0.6894296986339606	-1.2759458986492738	-1.5383286437296189	-0.4696364390913816	-0.6672393662772661	-1.0558087799118536
-192	0.7054616195033655	0.10321757916378192	0.06763420981974144	0.43235856185471916	0.603853701020582	0.9432463026073931	0.8302515724201127	-0.015705848073048916	0.5237807618268422	0.3875152458897516	0.5172512518221178	0.1503679450530204	-0.21106076187251832	0.2539777153278536	0.053120054170484515	-0.38267335199061453	-0.6243647321196145	-0.8418781736099356	0.49509674185684294	0.03641407555088747	-1.0333695385592057	-0.9022219158281878	-0.46131679299231526	0.4888342606600382	-0.06628706289483226	-0.5863247498967781	-0.8702524878464638	-0.6577481610857749	0.04380601260927006	-0.4847593891302567	-0.7164021116289111	0.22531063797808898	-0.06005681290960846	-0.3992514302187174
-188	1.130208727844129	0.5318044410630235	-0.5656229243303013	0.5559934959679249	0.9285176968973563	1.3044244018046065	1.0861155959364106	0.2261449837935484	0.9795545314852976	0.8298988321332225	1.0739858123366643	0.7497001271393241	0.08293491581004916	0.7422907929752917	0.6939734799030063	0.31610029856029137	0.14308372103805558	-0.4153747250083322	1.0106402610058127	0.8729804732216564	-0.13763432169974033	0.0033076538155164172	0.08235650488802852	1.152262684773922	0.9111946202160868	0.42180380118686356	0.07608082126243938	0.05043414967439712	0.974389431400682	0.4860931622630282	0.20890138990588616	1.1005490990509095	0.6756368858445349	0.3372007003853749
-184	1.2236845462421586	1.026941773682856	-0.5241339789508893	0.5149049149864585	0.9774562095759225	1.328315969928185	1.0902533503662715	0.35962664990227167	0.9716255044247806	1.0278415653981137	1.3376301493251401	1.0645979615989527	0.3596794000127647	0.9479491686729425	1.1355881662308158	0.8031479099976981	0.7166414838817248	0.0217669046865695	1.3231701817484278	1.5250357350946622	0.5940915927192707	0.7538351993601768	0.5375186191339237	1.6988285737061704	1.7509289935727985	1.2604951826696065	0.8788125492796247	0.6769013387756075	1.8048194601268015	1.3589695657751695	1.05370545121233	1.9107819747365913	1.3582155670206644	1.0220078204100957
-180	0.7867194990322484	1.3649308647026845	0.17491470233147702	0.2273556137305248	0.6783512217561083	0.9342583394304701	0.8355358221893335	0.35287561923579897	0.4219623197392435	0.8526393749644495	1.156790968835365	1.0148023341306804	0.5653653130562324	0.7115102988399007	1.1657236785067209	0.8800444580747322	0.9993193720382709	0.4217348982176772	1.2434966532783194	1.7146346525770915	0.915206310822566	1.2349189488703496	0.8937917925203092	1.8864107084330717	2.1354291385141995	1.6760611491802175	1.4144637548974501	1.1875859468994	2.2469813766969127	1.8743594837549409	1.6580687719444551	2.393135064758696	1.7906907751649146	1.524734016383571
-176	-0.11380816967363765	1.3485765423105036	1.1062585087502397	-0.2723206870832999	0.1513829376451767	0.23817957877582874	0.4201703657032404	0.2292981290988504	-0.4642483878335465	0.35640904217380787	0.5780267104813882	0.680119870376063	0.6644657833489355	0.09896688883351809	0.7522761802753678	0.5388262854323496	1.0248275969380107	0.7419995050770097	0.7684478144317735	1.3572468723362205	0.7668615560243709	1.449355956233001	1.1607722014684407	1.62395274229121	1.9293516825601906	1.589317198555414	1.6676846700525014	1.5747951229390025	2.1580033247822783	1.907478089285033	1.9467401455366138	2.395344966562809	1.8537048054623624	1.7685756638697365
-172	-1.1745996445563935	0.9136682725726649	1.7017791228243924	-0.8409372546898869	-0.3604412963826826	-0.4974712120847652	0.00552322946957021	0.057295054052655295	-1.3120899167312368	-0.25851911241111425	-0.17179915265577214	0.2590311461107645	0.6619431955791203	-0.6396324022356389	0.056854992961389635	-0.03713254993719606	0.9292222834014673	0.9605522727556552	0.07758116702519571	0.599618254578181	0.29768973513784047	1.4992511234577968	1.3562288250060273	1.0129996512586448	1.2391204802699591	1.1242853374705954	1.7224643186950188	1.8478957367972193	1.604647870780807	1.5210250577671418	1.9538872192642966	1.949301357116146	1.5639370640369732	1.7623035863251473
-168	-2.0067467638848675	0.1760696168268903	1.594625111368551	-1.2887067762263087	-0.629456280072763	-0.9898788903993556	-0.25308704312322367	-0.07683716694982652	-1.776287432000596	-0.7448739986686903	-0.790404079349026	-0.026496170021752398	0.6106379612764331	-1.2075034349472575	-0.6451072676583701	-0.5637237415386179	0.8770374633580504	1.0882146331015212	-0.5657908306142095	-0.25306761200907596	-0.2160313571005617	1.5232983789131356	1.5000745020186452	0.2899441115688343	0.35552707224729313	0.5402842150398747	1.7086131529585054	2.023808235780878	0.8252300599243985	0.9279310083803134	1.797794218292732	1.251238700568648	1.0650000545315923	1.5915986259330768
-164	-2.322608226634147	-0.6092263444777816	0.837792334825543	-1.4643046818956373	-0.5704850540062885	-1.0721523734680023	-0.27138057282595357	-0.10148838881856885	-1.7126094059620267	-0.9324898696244491	-1.0396721336818429	-0.033111497676220535	0.5937239512712242	-1.413946386582106	-1.0945607396147345	-0.7915546874088651	0.9783770417307326	1.1660324305658778	-0.9503311490860876	-0.8814798571265892	-0.5072430359431503	1.620772715291182	1.6105564792024736	-0.2961866252096897	-0.38838881156137417	0.10373107317722546	1.7299787954521697	2.117349142450838	0.11098384084098949	0.384135036690751	1.6164519746023227	0.5604385123408271	0.55418515065465	1.3712060416887943
-160	-2.061141247313819	-1.156660196245058	-0.12691990999125694	-1.3185617890446086	-0.2819361977611562	-0.7668926100442205	-0.0679378358794607	0.014197570235944609	-1.228804704424727	-0.8006473759463941	-0.8489489533924987	0.24404998062029085	0.6853627545219142	-1.2553222147719003	-1.1607795924443742	-0.6170113667168847	1.2373355595820217	1.2436381547046589	-1.0101400588281204	-1.0922585698207423	-0.4400845158909991	1.8012359096826631	1.6984660582575617	-0.5992127045761532	-0.7669957260794216	-0.03153377390887021	1.8122889949819052	2.1332340186619536	-0.32673960841654737	0.07098464649875189	1.4991559944449755	0.07636688630373603	0.18811327171515363	1.1857989996535452
-156	-1.3921107018609298	-1.2798998323551114	-0.7300893049880616	-0.9171167588920833	0.021006436965477524	-0.26165124707918597	0.24810872909370132	0.24780967769045703	-0.5990605935230704	-0.466249077335026	-0.3329975298580383	0.6775358302176396	0.9051513052975678	-0.8856506325295721	-0.8801091887187948	-0.11609677941097774	1.55329727734356	1.3460301126828385	-0.8290487506915821	-0.8842149950591367	-0.057690258923550425	1.9827704379566324	1.7569206908690722	-0.6237696393476795	-0.7432244997333408	0.12350335686019633	1.8953663062879633	2.0610437341152124	-0.4350464631064015	0.02710210152578344	1.448999520458144	-0.13965158129242555	0.0180630553057717	1.0518101427225475
-152	-0.6028655156173457	-0.9699452494928046	-0.6076971873199296	-0.3981165279827369	0.13823759520915013	0.196164041262317	0.5273173438110161	0.5307092057180409	-0.10006585691937032	-0.10318776939088889	0.2782521836885025	1.072391388092948	1.1938387125391308	-0.5069146143512672	-0.41173881188389083	0.5090938793680428	1.77126538306308	1.4483507835060465	-0.566228388310401	-0.4173754443121341	0.46065714839025146	2.0367438741759534	1.7530304149236942	-0.4898896503000891	-0.44967749601318724	0.4264945079049096	1.8710061264483437	1.8763701868367173	-0.31076452057579235	0.1585157211593108	1.3940364087194712	-0.1618309463945091	-0.013096423786595849	0.9206731892229174
-148	0.061104222977860154	-0.3800969710290254	0.1948047573416461	0.09872674172032436	0.003771007051483761	0.42644032728294556	0.6446123702940495	0.7721157054480562	0.13261935081377368	0.15717670281781235	0.7572731356574967	1.2552965847747115	1.4288669788524797	-0.24989928242055576	0.0579407772449089	1.0370728943390402	1.7546238854930962	1.476932760324448	-0.3538659504062417	0.08912510402350446	0.9027755833721085	1.8548400355238883	1.6315153796012176	-0.34257206234271503	-0.09070292092311201	0.6964982134400279	1.6453193384591882	1.55160498227337	-0.11890798032064727	0.3136056653688053	1.2393976418674648	-0.1263882365612028	-0.015366275756007979	0.7214807849788206
-144	0.5088045584230336	0.26218464904393424	1.258765575091881	0.491454868267939	-0.2741303735010789	0.3991934348994974	0.5520197735200719	0.8928433634150377	0.15201984307531613	0.2884499125350549	0.9817942952163676	1.1471130818969086	1.4779123030542136	-0.11662732780336459	0.4055263091816041	1.328364607318199	1.4463463985166003	1.3422672714676682	-0.23182678164125614	0.46796595932112406	1.12771856500099	1.4050544464876737	1.3374294008820433	-0.2665643387263275	0.17135521726260586	0.8092158416344472	1.1926498382974424	1.0757429572602064	0.006907920335673783	0.3739089360333572	0.9296711063754929	-0.13891927862856399	-0.07562690209129844	0.4163248230436532
-140	0.8126681426511215	0.7652900199641908	2.030377859711435	0.7736217956084382	-0.47554266332726325	0.23160026909052034	0.2980990998371243	0.8561996795971842	0.13570736314366183	0.3622325947675948	0.9722304915677233	0.788565872108794	1.2661817041854007	-0.010253156509440703	0.6085801705254029	1.3710235322669528	0.8924461580632573	0.9907517408152428	-0.1512174006458922	0.6649352891346458	1.1172717781468724	0.7508212905047186	0.8522222020567198	-0.25353723700407554	0.2833534173964025	0.7446264605795632	0.5747383818420769	0.4758404779341316	0.025735279480212616	0.30991911809875505	0.4874174880596266	-0.2175806308259745	-0.2063669259106295	0.03547503417714443
-136	1.117076870958949	1.0477288934957911	2.119718307865389	0.9859426592729716	-0.39577758212301106	0.10828013690790098	0.006056842378881089	0.6818636042545646	0.2585456364779723	0.4839736509024889	0.852850017778554	0.3127598754615779	0.8211454132328985	0.1766001130652131	0.7211839538485886	1.2556898562199466	0.22116124574136517	0.44750845319296473	-0.03300587079536463	0.7282777410239769	0.9562078690228799	0.026881916380603617	0.22273714784176415	-0.2314702862617546	0.2948138706393335	0.5701125845820274	-0.08251937457946606	-0.17373329357152795	-0.014787299521185975	0.17650964811583364	0.007237255089339105	-0.30051290913049905	-0.3468153169935619	-0.3296234003327895
-132	1.5076556167684867	1.1418005199214911	1.495248433152656	1.1643226117301677	0.03637104472275858	0.17380930439458586	-0.17988882913471443	0.4362370956851062	0.5805005416519002	0.7140386682602444	0.7663263659202839	-0.1172583100219444	0.2688557796842873	0.4759691941641991	0.8110894540335863	1.1041700812118722	-0.40832996265314797	-0.1760886456096868	0.16345135826328172	0.7444080095570128	0.7637183050900767	-0.6126291736394173	-0.4363875974127841	-0.12983481553199322	0.2943159632404594	0.38076811932750176	-0.6397365911544431	-0.7630088906097511	-0.034010667267999804	0.060800324971949794	-0.38846498629720483	-0.30376255435544874	-0.4095893491894276	-0.5706528410809075
-128	1.9286247443143454	1.1370323867700773	0.47417431950060934	1.3012673821974037	0.7124915701043605	0.45597144846235393	-0.15788985748958817	0.20321394451810018	1.0127181981267261	1.02130162458058	0.7926223258033864	-0.37525838518766497	-0.21945506278897733	0.8167705515267197	0.9023874975309557	0.9975462530699694	-0.8627342559967016	-0.7184175830822576	0.40818267957627985	0.7674267272647043	0.6220111831219556	-1.0478717062243124	-0.9741430854044473	0.06541497243816415	0.33709466372258723	0.2395130091818936	-0.995275077691182	-1.177538034327112	0.017214957581210253	0.021431537290942337	-0.6056262835470819	-0.18625129712287744	-0.33942925844325544	-0.6174086912779544
-124	2.1983663980293704	1.1031583519740091	-0.46879920245065787	1.3420764173955793	1.393244739829563	0.8550869800913266	0.08310913273570718	0.045685518417646565	1.3721940482780968	1.2935260501628105	0.9122270322656347	-0.4176156212276501	-0.507268665940339	1.0666881772766588	0.9565389728237713	0.9405084824658374	-1.0764586898328623	-1.0348374817470278	0.6198311432447997	0.783939359593009	0.5398870692927389	-1.2294614283992042	-1.2628928391042877	0.29922842903883234	0.408030270499974	0.14956299922852223	-1.116998669665201	-1.3414477076040758	0.12291622130831872	0.05513350651649433	-0.6196879728884107	0.018799388733726025	-0.1492061909246364	-0.47484433531083786
-120	2.1147971099865783	1.0416294310020355	-0.955635485620547	1.218917962811505	1.8233846379974095	1.1987165182366544	0.4504826653551028	-0.023787610172772106	1.4869806728967356	1.397031780530451	1.027696726111675	-0.2927224330664126	-0.5565168247477316	1.1125175924823008	0.9014937258848053	0.875897703343533	-1.065480825595137	-1.063955304320607	0.7200895529686308	0.7313985210072476	0.4667212057250999	-1.1852542132016737	-1.2581367460910882	0.48212489364015826	0.43962818273175086	0.07090033572892995	-1.0434958908438197	-1.252289053616228	0.21749627535266913	0.10780775519808747	-0.4815622853995438	0.2239312970945018	0.08744855948065633	-0.22144615594267222
-116	1.5857722719209926	0.8910808540734793	-0.8835146404847941	0.901076493372431	1.848208184344343	1.3262641396416173	0.7791957835551807	-0.046879168481485455	1.2856823173487517	1.2476775614708886	1.0233547661693294	-0.11376162589676617	-0.44175860174225645	0.925249395418639	0.6845355612638098	0.731919823229137	-0.9121226645328966	-0.8585453607817527	0.681795058913246	0.5500507936895328	0.3390280297779629	-1.000352380134265	-1.025242922101757	0.5439174161529856	0.36497566011787747	-0.03911311914582437	-0.8599800445778741	-0.9888309811422052	0.23288488329263743	0.11584266245920004	-0.2898072295024532	0.34039097938427826	0.27714222599629756	0.027500083600589066
-112	0.7031257730851601	0.5765262231576009	-0.4396081853734792	0.42577519905357625	1.4716085158386838	1.1572694749224137	0.8968395568139144	-0.09523189788854892	0.8247987607158926	0.8520371892398041	0.8258031585824669	-0.008046019802044838	-0.3062769166843057	0.5720682129721705	0.3128175131529302	0.4694088685582037	-0.7274990063419525	-0.5612195119993473	0.5391288982131102	0.23120117129127316	0.1271342482933281	-0.7797356824261931	-0.7132344227903207	0.4712717819236327	0.16795289474044944	-0.19071596812734468	-0.6603612287061308	-0.6816865784600287	0.1448012884775668	0.04955261188155596	-0.14332318269783614	0.3296579710266719	0.3562878659312854	0.17358279184385006
-108	-0.2842408709502227	0.07225337606307641	0.03342154241110784	-0.11025765510378255	0.8320381024334549	0.7138082367041246	0.6975781303913419	-0.22811186256036442	0.24950249430128776	0.2986617676823834	0.4342229057316192	-0.06285913272722887	-0.28233382034544896	0.17360462204494395	-0.1432371731956424	0.10242156658539692	-0.6054602846118016	-0.3334326735661224	0.35849735050288595	-0.1685318793571746	-0.1456564661163226	-0.6069596394473411	-0.48294201371332107	0.3089601985760296	-0.1012516540712799	-0.35339778572503544	-0.5106182085496801	-0.45562821511628143	-0.011097993673676655	-0.06807298196056709	-0.09752938126735756	0.22242449167838424	0.32088115730333255	0.1786880488652623
-104	-1.0855967971095954	-0.5636045322493681	0.2292700404100709	-0.592822848253785	0.11697662592202768	0.09396062767624726	0.1914477343494046	-0.4531660068514713	-0.28505134510550983	-0.291933088757645	-0.08986389614304956	-0.2893683307017577	-0.4181358505659363	-0.16454181033553317	-0.5850160703193936	-0.3148254148164093	-0.5854517802716017	-0.27316912939721305	0.1898851538870793	-0.5551578984549285	-0.41926696790698303	-0.5138141499898228	-0.4237121034891745	0.12578208712768985	-0.3540741196275942	-0.475957452049208	-0.4263660896980652	-0.3694868972509579	-0.16182362992438137	-0.1764298971013255	-0.14306695723175483	0.09544574445230193	0.22221536878271775	0.07797925899606487
-100	-1.507486339577752	-1.2023358314675676	0.02468647056545738	-0.9425832009359411	-0.5266997800880575	-0.5779701456736392	-0.4935199307856134	-0.7124072295322162	-0.6819077712962317	-0.8234049061013393	-0.6574397070498411	-0.6175463780070379	-0.6514627321007896	-0.40056559342340725	-0.933718559768747	-0.7184275966625546	-0.636735080065067	-0.3644552221633351	0.03603469943843054	-0.8449831583623807	-0.6309605820938062	-0.4698409724294119	-0.5031752573660792	-0.027546053682756023	-0.5122368918837586	-0.5159661756840049	-0.369914888401687	-0.38385388158205536	-0.2384422564446907	-0.21100625342500884	-0.212087615788955	0.026902615956094757	0.1374751176939472	-0.03913595145000599
-96	-1.5367697438540993	-1.6956235127554002	-0.49324044460696725	-1.1451106042560903	-1.0402308676205567	-1.1957155435890796	-1.1589773864094957	-0.9041579938948938	-0.926395413920842	-1.254037973098812	-1.1878485649636172	-0.9246394610901923	-0.8442998507164008	-0.5583364353388407	-1.160920259405689	-1.061133501234775	-0.6724195463369718	-0.48654869075957397	-0.13762076164308815	-1.0003052924650115	-0.7440335135748346	-0.3971389820085662	-0.5809993133181214	-0.13773080671822688	-0.5440582023235897	-0.45842718962322226	-0.2678989463241237	-0.3769575645943094	-0.20796090311951096	-0.1338667717176448	-0.2079355264420619	0.060713056321638356	0.13497929240956863	-0.06854099017958125
-92	-1.3242396082822878	-1.9380570601169471	-1.1087235184333473	-1.2421901194681415	-1.4401832782623853	-1.6910757975798092	-1.6153048236118719	-0.9330282187747013	-1.0628826591359373	-1.587707992359831	-1.6270533759045973	-1.0872865887847114	-0.8600221850616239	-0.6887869817509703	-1.2845861879340998	-1.319948193078584	-0.590764878688821	-0.48083260534004574	-0.3618549099369291	-1.0332354281087996	-0.7554545979499908	-0.20792977459385562	-0.48536351200585237	-0.2171092772962808	-0.4681909966569054	-0.31401809970728733	-0.04504227254343519	-0.20620498009118363	-0.07845897952774783	0.054789252440882626	-0.04634924966315746	0.19816292772329663	0.25149366196078843	0.06642694754518634
-88	-1.0867683860043424	-1.9075438928126989	-1.6017382104487976	-1.2936907974005538	-1.7644793942725348	-2.0300462194687423	-1.7567164853565873	-0.7639042715813064	-1.1468535632742118	-1.8379139853804651	-1.945422167634668	-1.0361378166741646	-0.6424197538368778	-0.8196111300756088	-1.336283441984485	-1.4857323132197118	-0.3283688119704022	-0.24274893043741846	-0.6194190367318632	-0.9783780550096912	-0.6822835785805917	0.14800149164980017	-0.11469665885815819	-0.27266290715041375	-0.32616993702554486	-0.10298242393957552	0.3366395226562315	0.21187017804536334	0.12062767862620381	0.3256110242728972	0.30669733804516747	0.4145634461903427	0.4869165408238766	0.38544940851169707
-84	-0.9877759193276998	-1.6690272050680328	-1.8538565588875773	-1.3343691792177117	-2.0204117247115727	-2.2008109037147268	-1.599934097065291	-0.4507423925940558	-1.2046569555385507	-1.9946165034479642	-2.12669085919361	-0.789228496943089	-0.2537814372331038	-0.928856549302049	-1.3252153363147974	-1.5490026434890467	0.09776800101153278	0.2097764009901409	-0.8308132865910578	-0.8575122334764692	-0.5417829738289679	0.6455111487303484	0.49049138898989975	-0.2809965305386446	-0.14656877480695138	0.15890526731425686	0.8483827688732066	0.8433853366539209	0.36472144630855224	0.6379267557250526	0.8138014653640194	0.6836671215916249	0.811163721420789	0.8427392819108316
-80	-1.058345792005668	-1.3408911194325686	-1.8823504400412232	-1.3503988947152654	-2.1667606775891475	-2.2042858544963586	-1.2650424210080402	-0.11871807992287232	-1.2208178012542792	-2.0156805464398264	-2.1587212031221408	-0.4442167270889098	0.15149989685909193	-0.9555311178878088	-1.2237378327944533	-1.4939141235780828	0.5845061525846276	0.7324811201675697	-0.882856307184912	-0.6623661501373787	-0.3402107051366102	1.1779143780532737	1.1485064000696605	-0.1907816971492048	0.07239180039963718	0.4607141602328352	1.3907386029416644	1.5334838590052176	0.6455587132367591	0.9525779461652233	1.37020563733341	0.9887639855216468	1.1734489172872653	1.3397794928103142
-76	-1.1987949579489807	-1.040732023472563	-1.794242854356691	-1.2903624740446993	-2.1409089511224346	-2.0531525560040325	-0.9104735828300593	0.09387692785403273	-1.156495091379447	-1.8513075066555487	-2.0342423864503356	-0.1321594115735256	0.4046898474012605	-0.8410848357899781	-0.9867542957188289	-1.306441780606581	0.9798325275478281	1.1209086151433054	-0.6905568224638176	-0.3690818836907317	-0.07832130024924487	1.5903781612297372	1.6142896373046205	0.04208590452178171	0.34866100461669436	0.7832995633376053	1.8214290096072665	2.063946480308445	0.9583422517422531	1.232571241127864	1.8328336431005061	1.3108847108169213	1.507493968972264	1.7528074935527969
-72	-1.2573374478066683	-0.8347378352070953	-1.6996353821758132	-1.103941795422959	-1.9087152432888674	-1.7757943823802587	-0.658619104153034	0.10471147272375761	-0.9817355250367674	-1.4857542477289336	-1.7604589417832959	0.04398785147885949	0.40847715632304915	-0.5731836542916809	-0.5945081695805541	-0.9918934081783881	1.147937414132071	1.2123194902329497	-0.2580008500261007	0.024228818653446796	0.23112009407342213	1.741581793202721	1.6969668822359563	0.40716984765249115	0.6800883395190565	1.0841121646212784	2.0066814371943584	2.2468044701116656	1.2747652498485438	1.4361858331659716	2.065946812182057	1.6054511029717722	1.736004109768012	1.9670784423755232
-68	-1.125641343135812	-0.7103550416177808	-1.6399394232353444	-0.7796768526419483	-1.498145099672137	-1.4126729929543396	-0.5440461621853755	-0.06643544865762596	-0.6967895609429544	-0.9645872091735381	-1.3651604617937796	0.05866020903082177	0.186446502334024	-0.20136892744721976	-0.08762988426018586	-0.5853957519056543	1.0339248154285312	0.9706858968069136	0.30041429324596713	0.46623122574396086	0.5511398301514745	1.5680346449363567	1.3565727438055128	0.8138262608961834	1.0148664687282969	1.297370668950406	1.8763292980505046	2.009007925683358	1.52611028762796	1.515998717295213	1.9888170907352503	1.790851826914691	1.782728309898763	1.909879441207681
-64	-0.8014442900450292	-0.591324685511138	-1.5633778532611022	-0.3602302959407104	-0.989537653808878	-1.0010664437768715	-0.508746026662012	-0.3018004886636862	-0.3346054247514397	-0.38470742009308395	-0.8906400777264781	-0.02505330735080135	-0.12992750075438494	0.18239279045308432	0.43339365611327524	-0.14416468107065053	0.6947431546790476	0.5086782561810734	0.7947725633582298	0.854682324158968	0.8267060497392449	1.1190280886053898	0.7279865127303395	1.1100884647952576	1.2547200886518994	1.3564389909829746	1.457392688886355	1.4262320959321912	1.6159192282886654	1.4319968187417333	1.6072055060816615	1.766440863917851	1.5955517251738895	1.5737904270492051
-60	-0.3852793266582599	-0.38547086618376203	-1.353128310601929	0.07130736094591227	-0.469349472529835	-0.557969628355819	-0.44320085532824527	-0.4427615392950374	0.053604204072321165	0.14770449660679544	-0.379305927987886	-0.08966978616724798	-0.3706673970400764	0.48460087057787676	0.8467152693351804	0.2741319232218391	0.2768795781297579	0.03188030786213882	1.0372160646954292	1.0755043002631284	1.0068893407195676	0.5404080734914052	0.05517929778472741	1.1431537837730548	1.293744322371427	1.2268751828689297	0.8661288597173791	0.6860059482420615	1.460168119558669	1.1727870673133503	1.0127365563572706	1.4558063708743079	1.1715217799172528	1.0202143166533324
-56	-0.018253551749992894	-0.04328953463830499	-0.8959492422371521	0.4274306882557106	0.021809689645539313	-0.07433678191013414	-0.24826990005276708	-0.370895891445246	0.4203011382935474	0.5683180675463054	0.1395740207486074	-0.025505548278667082	-0.4149235774531663	0.6516262872456404	1.0679297420241955	0.63483249980864	-0.05025223629900192	-0.2658905380211653	0.9280760264806858	1.0611671182543432	1.0714700194963362	0.012501659771528824	-0.4293173242697004	0.8357528427004127	1.075339076188228	0.9321849918671928	0.2605617635824097	-0.00033273192737063814	1.0361769173210384	0.7729068975008071	0.34946638257486606	0.8544511773471127	0.5705293402572448	0.36101356057572626
-52	0.19595375607608037	0.39880379933758436	-0.1568133678053401	0.6546742303531795	0.5094373213303716	0.4707913386856337	0.11387209565499785	-0.07059653085527683	0.7338367682049185	0.8839612580869685	0.6525510533069958	0.21115313417052575	-0.24998485978907595	0.688623843838632	1.0962471934297517	0.9374205446417551	-0.1724346126732794	-0.29903310461839655	0.5071349131178008	0.8348317125223795	1.0450825664837347	-0.32843652284669606	-0.6148056372378956	0.2373623394933767	0.6343371256071624	0.5546520338359969	-0.22435967567542098	-0.4908130752569404	0.4113463749036805	0.31224146406495285	-0.23921847283047964	0.05283252509010427	-0.09462881064365358	-0.2768910222215259
-48	0.24130290685765715	0.8195725658705365	0.7864855508020956	0.7500588874953215	1.0515314314042814	1.0774035426594561	0.6006017312144919	0.35763057976075063	0.974264857693416	1.1555197209748052	1.147998449288167	0.5713761434434308	0.02493442588709698	0.6450851543352143	1.0141037676956766	1.202641841713072	-0.08318752774455009	-0.13023588028451305	-0.05909295737725001	0.5069509731844883	0.984254238504682	-0.44890177136571646	-0.5588013515669149	-0.48331510898635066	0.09310015267470041	0.20283488878060812	-0.5307275043439408	-0.766832945794951	-0.27251884272435534	-0.11120089860497165	-0.6637667996814192	-0.7864982465914008	-0.6959551555228504	-0.7943342308016583
-44	0.19336222063359534	1.0621330711251344	1.751005645145786	0.7520380001154467	1.6668575960036862	1.6911808209636383	1.104327914310839	0.7424340825409699	1.121879097967088	1.441560383971799	1.5944369991101146	0.9316906309446739	0.2525505119146326	0.579949496712343	0.937080976981327	1.4427300655179183	0.11640688002521939	0.06842394900927967	-0.5486664758181194	0.2218761736513186	0.9429327821766661	-0.42579862367891386	-0.44369679577384674	-1.1042602034345452	-0.3899427046467454	-0.03790017952886874	-0.6924759132068056	-0.9205524302129073	-0.8545361139657032	-0.42268958581063426	-0.9162652469389719	-1.4893461428233197	-1.1383151979316946	-1.1505293817082296
-40	0.1788637633576165	1.014487621607061	2.494694941897912	0.7165750843076126	2.275825017905217	2.1975817624875282	1.4936903677421611	0.9244254804159889	1.1524826259125878	1.7396281913704954	1.9303604315658225	1.1492017478538545	0.30046346707778265	0.5298114405607006	0.9429905986819522	1.6358854729358263	0.2712692611521166	0.11322841764711294	-0.7819437364863226	0.08278652259667489	0.9367700791549635	-0.39874994654116575	-0.46781569601202466	-1.4450631105178262	-0.6930425745632545	-0.14531317316560546	-0.8038802722662043	-1.085266825796952	-1.222308036579191	-0.6038473233236071	-1.0599137517871708	-1.93812334048177	-1.3933069670785516	-1.3675459588809575
-36	0.3092280916512962	0.6780374629068028	2.8009512353751775	0.6898584348427476	2.698339932304778	2.4527602133813504	1.657884116755407	0.8326790311771065	1.0451527807551027	1.9626028488199285	2.0742709584317924	1.1236834497691732	0.12727019158655634	0.49474593872090306	1.0193451617254121	1.7200471119369005	0.2493631833456382	-0.08978085197192591	-0.7008628231473311	0.09490001922727746	0.9252539849762751	-0.4947975265408259	-0.732099531232681	-1.4457324706769639	-0.7883282879953192	-0.1721029128259418	-0.9624862646597996	-1.3505978550190232	-1.358898755457355	-0.7010959965171037	-1.1892024248616273	-2.11523222389234	-1.5030883512694588	-1.5088732204488842
-32	0.6243967994184226	0.1831313516046315	2.5582897598525847	0.6925626975693794	2.720871203228727	2.341218227197513	1.5371421536737155	0.5143514262564717	0.8018622378131389	1.969328279291535	1.9536549995688381	0.8359895923488628	-0.2025337661159631	0.4485789228081057	1.0622842285039031	1.6125942427929099	0.0020539388008712794	-0.49645310514992724	-0.38914295932749077	0.16125087399301954	0.824460087125134	-0.7651619295828919	-1.1845413416519597	-1.1866742342552172	-0.750395355714229	-0.22122369650777093	-1.2168554036889048	-1.7094880299323096	-1.342435594984089	-0.801688549878702	-1.3803626264053612	-2.0972492641904283	-1.5499565562216235	-1.64126538815967
-28	1.0677212449772977	-0.2632358067542167	1.8025693847922115	0.7180605512609545	2.2085251752406605	1.8354588700683654	1.135974285118696	0.10453564647269473	0.4633983957988731	1.6402648645949964	1.5415902098834937	0.34917628676947665	-0.5582995996684624	0.36241406110815527	0.9331382489486788	1.24976694268357	-0.4195700277225784	-0.9524672603401549	-0.02695521519233109	0.1369345780730051	0.5475768433097316	-1.1647676200069372	-1.651013250950916	-0.8424649813362678	-0.7110539656806524	-0.39593076605969707	-1.5453931054198518	-2.0648105092369278	-1.2993495431519528	-0.9887184475731534	-1.6567333894862788	-2.005739683809285	-1.6093244511980769	-1.8002414657917414
-24	1.498458500893575	-0.4740445899915832	0.7128857356192649	0.7396236639422611	1.2039879530072808	1.0268819306196526	0.5227412568245838	-0.24422709582179375	0.11086119683409316	0.9606558060233688	0.8832882024398641	-0.22046424392828273	-0.8106785396135423	0.22857859673009973	0.5463101254021632	0.6285872443541318	-0.8930445290906467	-1.2760057417124773	0.20000021109153696	-0.08341331013838922	0.05640482143227947	-1.578288431951179	-1.9284836005158736	-0.5907887801513155	-0.7817381600670114	-0.7464044075240793	-1.870998139425964	-2.284473413421712	-1.3338413204849136	-1.2952012983046381	-1.981017465358214	-1.9397786806722928	-1.7093894438501	-1.9732903192290414
-20	1.737500186348097	-0.37150260712288286	-0.43347480783693204	0.7211433630855991	-0.04957932221292849	0.10711988034621318	-0.18319138838292992	-0.4342226673130407	-0.15347458383435383	0.06087444707283115	0.09636342501152752	-0.7453331928508806	-0.8909859634792364	0.07180851679791846	-0.06197227149456464	-0.1710258568975698	-1.2778773275536992	-1.3485974039361224	0.1921080942072039	-0.4946422266392557	-0.602343796162944	-1.8734124851611405	-1.887585754397207	-0.5240949975133047	-0.986648616683909	-1.2375435797917627	-2.0977170414414443	-2.2701306285763323	-1.4712518416452485	-1.679581637910343	-2.2730834426710502	-1.9263776492119866	-1.8179217531082479	-2.106430286811291
-16	1.6321386057654155	-0.024427819935397905	-1.3494129146838802	0.6274714454067537	-1.1880722015902498	-0.6970774513764927	-0.8341574647823826	-0.45969211939145194	-0.2475030862996677	-0.8172687271464947	-0.659924207451741	-1.1215218277272065	-0.8127703646166533	-0.061435073459011835	-0.7274571042767812	-0.9986171101153003	-1.4659868441762414	-1.1645857066315422	-0.019521225194520483	-0.9690949296325857	-1.2971051898632469	-1.9520204017946448	-1.5306161603430242	-0.6107326730567421	-1.2447493044897564	-1.7536368325781078	-2.148179048836623	-2.001564974499757	-1.6460022884773005	-2.0364475198828784	-2.442151301893853	-1.9155152987755442	-1.8629870367697985	-2.1301398223501855
-12	1.1165304155770277	0.3858027150427112	-1.827072138941774	0.43189015875493436	-1.875590796503602	-1.2080469100969473	-1.289185163104068	-0.3926133205514865	-0.15202127358678713	-1.4169077837456499	-1.2350969283391995	-1.28750204714915	-0.6467953904034366	-0.12873721090238677	-1.2223172156944633	-1.6772000747297102	-1.4077458346110667	-0.8144931772648915	-0.2974504820943161	-1.3120820489181462	-1.850591893292182	-1.7751189425473692	-0.974997875613013	-0.7239287477335654	-1.409774180667652	-2.136941665976201	-1.9823596427458776	-1.5327531060621162	-1.737808938407254	-2.236190074996863	-2.4153008400018052	-1.817901845156943	-1.7724924042773282	-1.9881685922017314
-8	0.2452446961171524	0.6530666334830012	-1.7942239000797002	0.12239500104281567	-1.95293485625248	-1.364690538775557	-1.4587396346455888	-0.3302875152832001	0.06952671689122675	-1.5810027082581077	-1.5387341937316468	-1.2301120726999297	-0.4723034787174452	-0.11826062172595676	-1.3619598115867115	-2.0635065980311134	-1.1123787136603247	-0.4216099668825434	-0.4785405087309951	-1.3589396442435677	-2.104100698880772	-1.3594435419092268	-0.38069456719603467	-0.7227766495576107	-1.3483111824326335	-2.2451927605210082	-1.5965512950642493	-0.950376687034581	-1.6370581347141766	-2.175961488952026	-2.1535496657359054	-1.5638967712972067	-1.5115247926696675	-1.6572109418990135
-4	-0.8162753561391761	0.6356765015765287	-1.3359335627205369	-0.29110509083683817	-1.508652206426615	-1.2422105042566032	-1.3430055345959924	-0.3384508183994153	0.285075872416773	-1.3266261782530688	-1.571343298759485	-0.9840033625554557	-0.33487242375703696	-0.06227920933735087	-1.098623392192368	-2.099857563439214	-0.634063242265111	-0.0736438928175308	-0.4664402294303381	-1.0617839071169217	-1.9796622941580222	-0.7590891103652836	0.13252304460922099	-0.5381193147424536	-1.013566610638317	-2.0052339980042873	-1.013804313961081	-0.3259571186419117	-1.303769942806625	-1.8199846698587159	-1.6559905964049633	-1.149576065022099	-1.0986402007021523	-1.1519925565244817
0	-1.8445640755812658	0.30416119021870014	-0.6653418524156323	-0.7728102187672256	-0.834404168406485	-1.0152207587359472	-1.0429440710438824	-0.4220929731202613	0.34422993573063443	-0.8381377437411444	-1.4212090933203614	-0.627172349300026	-0.2338077122030425	-0.027916708890646274	-0.5511251674088967	-1.834498520034169	-0.05640454203550779	0.2106157088922653	-0.28483435439675286	-0.5185474740287757	-1.5115944108945896	-0.04863767313598311	0.5305163250880347	-0.21524213200108339	-0.4742103803106074	-1.440970536408591	-0.27826282311756806	0.3076691619734542	-0.7886193970796672	-1.2120678394233433	-0.9570987796460884	-0.6439831836653891	-0.5943650588288097	-0.5175985680863472
4	-2.634483330750913	-0.2692099206803262	-0.04653958591989622	-1.263765331892307	-0.28825980352102376	-0.8815484024679078	-0.7307326775221428	-0.5369163141999891	0.14494329654338564	-0.38234054945735135	-1.228457328555853	-0.26912444761993404	-0.14342682027367767	-0.08658486582829975	0.04611056658904733	-1.401666399277905	0.518943725706242	0.4626268136742037	-0.061395793998204024	0.07144978624424347	-0.8336334207468404	0.683163700763123	0.850458798645492	0.11049456866500539	0.1164877858797171	-0.6664924604754714	0.541280327860846	0.9421909427696645	-0.20767578430194775	-0.4580936718342236	-0.12373793838969821	-0.15582635959383517	-0.07291071843574158	0.1821447010209943
8	-3.0702969950406036	-0.9622499918485065	0.29872149153629757	-1.6932809310123522	-0.13470502163732714	-0.9793932413169426	-0.5815169796566887	-0.628112254941116	-0.315381079115925	-0.1873686755933382	-1.1294008464908831	-0.024365911198729218	-0.048141814646767964	-0.27602305938649807	0.44976580029419905	-0.9684700941429828	0.9854059194481244	0.7135097366438431	0.0481052434720003	0.5015021549914581	-0.12688055602464335	1.3359029259331996	1.1456191510840301	0.29087510631555297	0.5937952980308403	0.15226781329811687	1.3473154272395298	1.5588287075740404	0.3135546437930064	0.3117057673213865	0.7489719968005863	0.22103163544162832	0.4063262333147926	0.8754089452576088
12	-3.156468621867719	-1.6554602342770908	0.2649736695752227	-1.995108480184698	-0.43580916413902177	-1.3311306204566622	-0.6929276568084177	-0.6679246408765186	-0.9248173213497531	-0.3413597336733668	-1.2007907598696008	0.02715071283876534	0.03475448852943513	-0.570402799596706	0.5192015753988893	-0.6681695563612823	1.253728624993209	0.9507597064809407	-0.04351342085938699	0.6541519148523314	0.4507022488659009	1.8090076400860151	1.4294749462276537	0.2532439225478764	0.859684167121956	0.8544718601587975	2.023430103915378	2.1028342193917817	0.6975882631809281	0.9855709051044461	1.5497961005182934	0.4542192507243156	0.8149366358209007	1.492475863503284
16	-2.9924395008829268	-2.257801765463539	-0.10732103112066108	-2.1220006889173657	-1.0439683172571166	-1.8364329291708257	-1.034105536711034	-0.6687879545492657	-1.4898099861677905	-0.7600228767279773	-1.4265143835291347	-0.12301986633474085	0.06090408920766117	-0.8758937098323432	0.2769988768259746	-0.547801314401389	1.2812066045838677	1.112887022069686	-0.2948370568460926	0.5514219389344841	0.8223651626805024	2.027718300468272	1.656302209487062	0.04891655581760246	0.9253858304501854	1.3380043472840952	2.463784926869751	2.4894971784680417	0.9443064308166916	1.501381989503137	2.1747162287165227	0.5864588603471841	1.1544043988645838	1.976663942114811
20	-2.703648798792229	-2.700428002215278	-0.6623758656944525	-2.0528533406880154	-1.6927194552599856	-2.3154590071392573	-1.4537290297998409	-0.6669619066565372	-1.8056975557514157	-1.2362940280218462	-1.7011849837267714	-0.39796575803415823	-0.010573662790782248	-1.0593137714343765	-0.11043833913338237	-0.5527430758825951	1.0947562428491042	1.1253994674879242	-0.5489609227625665	0.33438920890306284	1.0130416129284607	1.9747568319053925	1.748876805658363	-0.16767501788720815	0.8969116784339105	1.5885887105888084	2.6128184729412314	2.642144673352419	1.1184499235525283	1.8554943753125805	2.556727402907677	0.7090253216008439	1.4427338802151741	2.2967379035183106
24	-2.3730540215659874	-2.923054449330812	-1.204309222041809	-1.7938586428174388	-2.129656786310145	-2.5821399623527936	-1.7500057176275587	-0.6911898833943786	-1.7388900474514606	-1.543046828188837	-1.872087593120418	-0.6612431986326455	-0.18320092512606992	-1.0044530604751691	-0.4202171255469486	-0.5570072517637054	0.7881961444981858	0.9531841850057032	-0.6168895348232715	0.1846672887908095	1.1226423950461546	1.7055113272522253	1.651711459758052	-0.2211381638427342	0.9114680863256258	1.6713800388099562	2.491635077861448	2.537145846636925	1.302839395094741	2.0868387169602425	2.6878952912178673	0.9080786682090307	1.6973454909386136	2.455301278590999
28	-2.013270849866931	-2.87842964399304	-1.5787100752072554	-1.3778201306842415	-2.2194352093928025	-2.5149974759500466	-1.7679036811062354	-0.7391869407110945	-1.2849944797497803	-1.5347270926828038	-1.803493495202476	-0.7758147696934776	-0.409447460332898	-0.6714147312378852	-0.48171770451040324	-0.4264525164327713	0.4872746157264607	0.6326130016567425	-0.38731413981878715	0.23041468800544757	1.2662146059492336	1.3312902416949677	1.3728282416969058	-0.015395163519554467	1.0591915819128954	1.6891431765824914	2.191600794027287	2.2242484036555528	1.5432254037041333	2.2452418747481793	2.6197657519001316	1.2109451263371886	1.9215918730857637	2.486122601907958
32	-1.5918036659105865	-2.560293191167717	-1.7258180336294837	-0.862844643798547	-1.9696884105543586	-2.095644230319969	-1.4718397818598286	-0.7782285193822077	-0.5765812382445897	-1.1977660625734656	-1.4339286052740263	-0.6680882556260139	-0.6087033733258426	-0.12887482312566453	-0.24920539495015492	-0.08373805114346684	0.2956338815377606	0.2609976523485516	0.10126472984019448	0.4885894047799191	1.5130443534797349	0.9736356710647555	0.9854624246512288	0.40589478509467525	1.33468722960143	1.7286635593638766	1.8339929534384605	1.805682893008838	1.8167042686371395	2.360865110158773	2.4384698806232405	1.562132593025599	2.0998878425986836	2.437577718302495
36	-1.0927525731153935	-2.030161137223579	-1.680104132225125	-0.32897919333368353	-1.4818910322922152	-1.4037114346349855	-0.9557906365105057	-0.7684371452003856	0.165100827396309	-0.6329192503208252	-0.8022685030709023	-0.36399859098086373	-0.7079776507622719	0.46110778930593804	0.1934950942876254	0.45442318801589976	0.24813613232906764	-0.05092242719787404	0.6694419367100901	0.8687267281533555	1.8531492901744582	0.7108405214482506	0.5894605502504942	0.8737989045970009	1.6420783955123537	1.8194645597297188	1.5140564403454657	1.3847700322475052	2.0388154932045364	2.427219623159579	2.2232522908345813	1.840664024474169	2.1993386689924916	2.3460180700198667
40	-0.5665346965791284	-1.4127297365760225	-1.5220566949563095	0.13284660842256726	-0.8701996185266815	-0.5765059575784285	-0.38516515396148093	-0.6899155360922982	0.7144104820334146	0.009948182825959379	-0.03263184047447249	0.025218544464217594	-0.6799070817947521	0.9032506919944135	0.6885638219614947	1.0824590894072512	0.2988615922534884	-0.2335557782713742	1.0816963883746311	1.226834294082717	2.2036075536405275	0.5461572394887003	0.2583411329422643	1.1740618914525878	1.8450130177645805	1.921361083901776	1.2587871519732352	1.014251944842214	2.101049179494555	2.4016721187990315	2.0069904276720942	1.9071682643422727	2.1727490370253224	2.209403509283853
44	-0.12892579999797998	-0.8490586259386085	-1.3105164733224286	0.43974366673071164	-0.21071962959016882	0.237991794342938	0.08786497242916706	-0.558069108507698	0.9244130230452624	0.5966646060184385	0.7093096357557046	0.3562424173897589	-0.5581082687592165	1.0482813093421748	1.0793864699768374	1.6456648069794342	0.34876784594218446	-0.289481192096355	1.1611646384486511	1.4324789011074595	2.4456293521170056	0.41416767135003335	0.00425757746068572	1.1500219077638931	1.8304935647525324	1.9434326838063778	1.02088367681247	0.6757459623441984	1.916772718358551	2.220335716363796	1.7580838159042826	1.6578243929014929	1.9621744106343648	1.9759572694481382
48	0.09856097375304192	-0.43365606556123637	-1.0490086052158878	0.5439646230315286	0.4510202396449748	0.9131506658387423	0.38493090770810506	-0.4148097623842551	0.7761318067982376	1.0398349735709582	1.2686462370313512	0.5178544508257219	-0.41746500029068295	0.8550863840448802	1.2656419245236776	1.9957557866253246	0.30018126888780605	-0.27940115262061443	0.874577043232579	1.414329525237755	2.473030322506809	0.22501541617326185	-0.21246415323021167	0.776949284499268	1.554430600056458	1.7858289435121504	0.715435681920963	0.30788478177538475	1.4551274739720303	1.8229988767373972	1.3977481091495532	1.064280745680259	1.5094895324743056	1.561741824975438
52	0.07198009621805182	-0.1762795145829369	-0.7098866087156737	0.45458939556743627	1.0494631502357972	1.3502012457136892	0.5039898740441677	-0.3035461000884934	0.3744856407724254	1.2885341611754748	1.5381345710067202	0.4698677945194931	-0.3315136722301013	0.4061262895343984	1.2158937423525267	2.0352315851325304	0.1060014587944715	-0.27505820920163243	0.3413391104663266	1.1663254469988538	2.22715043459305	-0.08037030676577345	-0.43925866373739875	0.16892407791880648	1.048605439399645	1.3828130925551803	0.2770095460573625	-0.13602502609719025	0.7484570126710272	1.1771740883670325	0.8441891052866877	0.1831175978328843	0.7746697644702333	0.8916174746890373
56	-0.13634955848601168	-0.01688664588539056	-0.2935536198357069	0.23491674602325577	1.4505641423795477	1.4653189145285748	0.46680834771554147	-0.24888080295668888	-0.10829379382210066	1.2935827937844935	1.4636009894611959	0.2337484055816407	-0.33701556835916996	-0.13469555939999292	0.9390720701350219	1.7292754606455958	-0.21769019906395626	-0.31412544767225675	-0.23679464995680796	0.7188116889925175	1.700975771424138	-0.4995617853903391	-0.6853073222024131	-0.4833767699912151	0.3895069052875704	0.7243257146667673	-0.29837700649268795	-0.6382237060645739	-0.12674394217916307	0.291145234564993	0.06050934627276188	-0.8655581452450957	-0.24153234003597956	-0.05369676263484306
60	-0.3800898184716704	0.09993097905916475	0.11114617409062541	-0.02834274985190907	1.4558143578966878	1.1789970368182405	0.25704091722441663	-0.2534411543169402	-0.5159104453412807	0.9846900080615346	1.0252919171196386	-0.15163207015854765	-0.4244296838058137	-0.6039497241030727	0.4437696028472561	1.0874055596553827	-0.619414924011384	-0.38259082936013133	-0.6871302706536211	0.10011850272173527	0.9177802777960478	-0.9783025955295961	-0.9035486556128934	-1.0112440560558629	-0.34888011129033547	-0.15071794352625784	-0.9489164328459155	-1.1060125799865173	-1.0814579697961313	-0.7861267904460983	-0.9163205600491838	-1.9378888558098155	-1.4786657057622723	-1.2067065208486225
64	-0.5464084730657942	0.14075839483962654	0.319046615748745	-0.27624705364099844	0.8805129505814839	0.43083393464985875	-0.1961589152628793	-0.31295597474239384	-0.7813273648562565	0.28992485926862044	0.22043912057057333	-0.6709960086093952	-0.5568668828256137	-0.9171345806808262	-0.2765418284109909	0.13820280099785034	-1.055529234128563	-0.4327751387160026	-0.9526797508982426	-0.6776721460398968	-0.09197052544976925	-1.4482394420298872	-1.0140514348176959	-1.3459986414304765	-1.1237570019006402	-1.1757833927986443	-1.5772491653674992	-1.4080949986192792	-2.035816902742747	-1.9708341310333384	-1.97528480984748	-2.9025242255362107	-2.808732979358826	-2.4125890670899506
68	-0.6672070605598794	-0.04547407094083972	0.11578323662850902	-0.5222714530156504	-0.32601979292573474	-0.7773920277995419	-0.966993210258467	-0.4357868123972874	-0.9530889367835926	-0.8053919056585365	-0.9328124499611591	-1.3369876112560837	-0.70386630118998	-1.1017535897094894	-1.2188852994662507	-1.080215212955702	-1.5159040651195486	-0.42309495699872823	-1.1063810558995886	-1.5983283479390962	-1.295079108783157	-1.864636893333016	-0.9536938643218907	-1.5342537125951927	-1.9163926791444228	-2.275221103645878	-2.0935509152007423	-1.4363428317999136	-2.9199907705970922	-3.1507010380352347	-2.957081787272856	-3.6588456538329814	-4.046357621467279	-3.4604854496371376
72	-0.9502620673029674	-0.6698716265931911	-0.6316421612050921	-0.8598301388966425	-1.9931015918001775	-2.337341541111109	-2.045567268929067	-0.6493468268212502	-1.1602750987322692	-2.19884633462789	-2.3703138768432916	-2.152999634075307	-0.8668392874766634	-1.2680507866315485	-2.3256368578368276	-2.506162637105165	-2.0127301165308937	-0.3506969800677918	-1.2884482112779259	-2.6035187178682753	-2.636013501187723	-2.217320436601511	-0.7189401966063288	-1.6865131812430623	-2.6978952816558763	-3.36690281971594	-2.4430255828212113	-1.1565383643514446	-3.659211626350978	-4.1901345147199995	-3.691874733186847	-4.13546799569298	-4.978096949406611	-4.13482760339113
76	-1.6815552669031628	-1.8705407333831126	-1.8800052356938117	-1.4195132219714937	-3.7389423752799265	-4.02289198813419	-3.2766203797583344	-0.984161434073001	-1.5353980025627016	-3.6563780215455104	-3.9545202155406987	-3.061215869804132	-1.075196859506153	-1.534375544488806	-3.4542024048379374	-4.027702321373998	-2.539254182126597	-0.2539482110287643	-1.6057258803834928	-3.5669443517273636	-4.00633238734592	-2.5070867475154293	-0.37259161378250216	-1.8909736823976864	-3.392912856118777	-4.3487563023444205	-2.601796143638616	-0.6185805185912799	-4.15807532214347	-4.9367332333855565	-4.0327157872426875	-4.277769554781946	-5.40413664407071	-4.266892899230793
80	-3.038675062137043	-3.5836682229162187	-3.391974202175224	-2.2883756102960153	-5.098247038367178	-5.536395535796115	-4.382945526501265	-1.4432307445327675	-2.130573505744476	-4.869170653447493	-5.473454461583688	-3.9201202293604602	-1.3548790182238517	-1.9476213406027483	-4.392806995745166	-5.468051896594886	-3.0305790824669314	-0.18281044019797102	-2.052270168845005	-4.306573856924798	-5.228982435375969	-2.706968777497836	-0.006508108677674945	-2.142826551749307	-3.870419969323588	-5.084969984567691	-2.549420111895242	0.0791343299536703	-4.30132960187212	-5.235675798548767	-3.87659787152967	-4.038068284330004	-5.181402670176272	-3.7697780037115955
84	-4.920257079099762	-5.506920323773365	-4.821466433749819	-3.430938950459416	-5.7191953514661815	-6.607225878246337	-5.08227347044486	-1.9797469327533894	-2.8678870128703653	-5.566135869278157	-6.6838364432384605	-4.541316974618261	-1.693041201131671	-2.440255397357624	-4.925347315750728	-6.605353338730801	-3.362761965844559	-0.1610917742953545	-2.4931940969462567	-4.636608588910144	-6.0793065871292535	-2.742306225528735	0.314252137344407	-2.3273496569047687	-3.9738120932385734	-5.412502275153105	-2.245388740592535	0.8445222356454963	-3.9780311484037023	-4.956641184690274	-3.1761469760813417	-3.3783059034884197	-4.257060040216312	-2.651183836919075
88	-6.904546243401437	-7.187508564922133	-5.857877239696366	-4.659589755691721	-5.527509198538278	-7.097217065058544	-5.235830293787635	-2.500549071674391	-3.553828468886943	-5.626629815200864	-7.386991959041288	-4.773554313051694	-2.0240871855177227	-2.848980896432503	-4.915811526285058	-7.22924373708849	-3.4011893186528126	-0.16721825259428635	-2.7227649619977496	-4.43677519631775	-6.345361216737071	-2.5126259263497106	0.5880174621994807	-2.2692282142567115	-3.580380192300131	-5.179288374222138	-1.6354906517698309	1.628428574265383	-3.123883716325598	-4.0324349301572155	-1.9504508922923818	-2.2893559874908056	-2.6874875954486326	-1.0106642220729518
92	-8.391576745781078	-8.206405618929255	-6.360175593530723	-5.679639801944468	-4.765530574210867	-7.053597432447726	-4.934849726615409	-2.8971893714237034	-3.954600562601653	-5.131283747115555	-7.4999532510229345	-4.583812225212875	-2.2488825264418684	-2.986052267164922	-4.36611508220782	-7.209671955979457	-3.0723156851447597	-0.14496244453547139	-2.5612926418487874	-3.701339235497546	-5.902120575308539	-1.9463342379067181	0.8717536904259866	-1.8183519794331504	-2.6579332284578205	-4.301141251195106	-0.6885645372172301	2.4240548549485754	-1.7583920911262827	-2.4929940637588954	-0.29345518276510885	-0.8127186277851188	-0.6341918094835669	0.9760587786826916
96	-8.873110748776748	-8.366670587396696	-6.405543311159101	-6.198409541693049	-3.8773498437262575	-6.676903230975692	-4.463037002739483	-3.0919411104339556	-3.899636497188666	-4.320678700028835	-7.084891778224429	-4.084499825655647	-2.2824468555044657	-2.7285184791341024	-3.416610947565903	-6.547411425272354	-2.4176187454219784	-0.04069415842153195	-1.9414497564889965	-2.5445232327114384	-4.768149840714265	-1.0600284311234291	1.2324492900249613	-0.9299230552083223	-1.291602131443608	-2.815231316134412	0.5535970912307807	3.2297081865784367	-0.0004472963908104295	-0.48192149279037577	1.6231520134953188	0.9454464292497875	1.6602579313322385	3.0791220587237667
100	-8.196791628169837	-7.782044391057793	-6.219820483716629	-6.0505575980966135	-3.2884259140913215	-6.211214526707106	-4.141124238049305	-3.0728542727135904	-3.36592554196267	-3.4772710712378245	-6.314549430163252	-3.481094351562644	-2.1045587009700695	-2.0807485527910483	-2.2855319919102506	-5.377273545994002	-1.5919711549619824	0.15689334233726557	-0.9441330409054778	-1.1596764296816566	-3.114443532709906	0.016950927631973377	1.684194798985732	0.299121379097086	0.3328241995514691	-0.8999191499877492	1.9475423048439757	4.003069867517731	1.946985001416733	1.7568865970123468	3.563404789510958	2.8172821927466654	3.912231435435065	5.0432667604908525
104	-6.671912176453381	-6.8158354587133	-6.037368759171172	-5.277324186352551	-3.1904449382339632	-5.811601147283905	-4.136593808220655	-2.896436207134223	-2.4992995199044747	-2.790485851871937	-5.3876409394614795	-2.963858120110972	-1.7809933379030212	-1.1798622578396156	-1.178600665931485	-3.919274558662522	-0.8005121330077403	0.4004707326314867	0.22963440360266293	0.24649383065455652	-1.2169984548360047	1.0745547982742536	2.152475828458343	1.6539536672795516	1.981566781763077	1.1567224234940463	3.267066470480698	4.641776073180544	3.839654912791155	3.925029506310346	5.264609800398324	4.597080695943536	5.847585186499694	6.626567823845696
108	-4.937911498000501	-5.897235378635082	-5.968310817908758	-4.1161022082357706	-3.4456982525614346	-5.463381276642079	-4.353288639521698	-2.6546785764427225	-1.5573219021579228	-2.276804203007115	-4.439593780752773	-2.606507771586925	-1.4388139211567728	-0.24301434991993315	-0.21616083328984817	-2.4013051926067206	-0.20700524695107872	0.6026326998754409	1.3315772976634812	1.5116946659068486	0.6267922504812529	1.8980795097112888	2.491586440471434	2.8719241546600993	3.436368218329009	3.032092563603247	4.268540371608226	5.007786261312854	5.4459724288771945	5.735258564774014	6.494012339408639	6.079275115876892	7.252828579710829	7.646017055280623
112	-3.653249731377017	-5.308815465875094	-5.9439287035599175	-2.9006674216468555	-3.664879074380493	-5.001619326361383	-4.477886188645596	-2.425763600900682	-0.7996544817762326	-1.7974137022414467	-3.497373333684019	-2.3361449182656195	-1.2068054645586999	0.5170233832657168	0.586978493639024	-0.9897435878560571	0.13373607363314355	0.6784260255851126	2.1498532240948474	2.5444505150449963	2.182920450421273	2.349705451754942	2.5498263771530056	3.7280836011221616	4.543097007725339	4.460570800963483	4.775262820585222	4.986237990188059	6.5945968461432125	6.977405053642291	7.108080369169301	7.101080399704552	8.017180422568623	8.02081201435633
116	-3.16747259293979	-5.057770716295298	-5.767985329370342	-1.921277995027169	-3.4214808854503365	-4.225947369396427	-4.1674322976752665	-2.2388641777733147	-0.37798201942379994	-1.1646387547652584	-2.5057322915709728	-1.998041863165268	-1.1537976235823024	0.9677445268039638	1.2808568445292088	0.23742414950985272	0.27797943283469895	0.5847526773947962	2.5662012035429376	3.311449280961294	3.328879824816822	2.4098112522318513	2.245456451468829	4.0977826015010175	5.227130399858185	5.3010153636609	4.736665713749076	4.543703067751886	7.198869687024796	7.559591274248827	7.087870103107045	7.574019889782467	8.150457361624222	7.793655852667881
120	-3.359181872469809	-4.903126227397408	-5.2468223439307815	-1.3141899075706613	-2.4834122595075745	-3.0438792628685323	-3.268989077897719	-2.071786398425248	-0.2771062843955887	-0.27138987115051505	-1.40496289375353	-1.4752345047897952	-1.258726474445007	1.0941499444039797	1.912779445587261	1.27020847476697	0.3323790720654103	0.33518281494392116	2.573062890232156	3.8072309397895214	4.052000989220365	2.159788841516662	1.6123239953341804	3.9788815874732104	5.482318864332304	5.555992112437312	4.2345695388692866	3.7527422810220625	7.258388024124283	7.514221172434665	6.5357179476712615	7.497926216268531	7.771323184419822	7.117902737766328
124	-3.7361106778230866	-4.518759239232099	-4.32139300209002	-1.0348449919322504	-0.9419832205831468	-1.5599249561979815	-1.9391682099020446	-1.881439442652776	-0.33946117673045206	0.8269689658266853	-0.21257597154352798	-0.7882369140751092	-1.4301605188501294	0.9823718642227829	2.473501914455081	2.1174976772252436	0.37051165010367154	-0.015020111537800558	2.2533616962761407	4.0287055867523245	4.40773390610787	1.7214065746715053	0.7894165495968807	3.4725205810612194	5.347696290819654	5.339272485604106	3.4363405617739033	2.768690579099816	6.8436589068242055	6.970736009164499	5.634655938227475	6.955533963762207	7.068785649572465	6.211254581028295
128	-3.742257824032542	-3.7032916452368796	-3.126685373041547	-0.9239516830958656	0.8257952907693764	-0.05692432806424955	-0.5846966490288488	-1.6465496975335354	-0.3637064388152348	1.9226608227824669	0.9424606537865923	-0.10820450606445255	-1.563284631596909	0.7608839254242287	2.8882758544479166	2.762848131833683	0.3818106343643137	-0.4010767628557104	1.736866469766445	3.970295896042861	4.466478336501546	1.1928560703678446	-0.03892642994827859	2.735459320791383	4.8877835150338	4.812653052577002	2.5231287415697756	1.7721426442226693	6.072967513964106	6.108873828723305	4.588876235820207	6.089590057257099	6.248118861635905	5.291213499061624
132	-3.0980617921811975	-2.51940178235067	-1.9467694710217691	-0.8245993831796223	2.3359036386641776	1.1238626213309157	0.347780882434163	-1.3937721217252044	-0.22237326148632913	2.749696724625066	1.856691474995227	0.3300863794099134	-1.6000277955666413	0.533458887183877	3.055473081503812	3.152796022084511	0.2869162254242115	-0.7749494294628133	1.1542935342255816	3.6396083739895833	4.278629769013172	0.6207020863120588	-0.717009780980862	1.9273076008774244	4.184782971306997	4.125112999991585	1.6328366953632625	0.9094063020634059	5.09001063015433	5.111909853426676	3.571919432204915	5.070227133347589	5.480172143451493	4.518092144049457
136	-1.977280492558811	-1.283600446321293	-1.0911922427284029	-0.6814131719551342	3.2139766135132968	1.7369472936645565	0.6108384713009513	-1.1895878284937718	0.06343630685287355	3.105715982225349	2.340355628780501	0.36532336381229685	-1.5557926853954263	0.3348864308485238	2.9047472403621413	3.2222099222846237	0.009313687658636993	-1.109100935043112	0.6023241266302177	3.0762905996855054	3.8711857697977288	0.020245958068514685	-1.166096445954205	1.1701233357450633	3.3366053020159447	3.379226914457164	0.8435286262195991	0.26118898325779755	4.043325890823078	4.13358496575999	2.7015607288817294	4.060580720186252	4.870299803835267	3.967784394736946
140	-0.9122509337281294	-0.41856706036747515	-0.7684574107795581	-0.56466173983108	3.336606732527416	1.7354342893653978	0.28204470801669584	-1.10250830371973	0.3338334849989026	2.937002174591618	2.308370345963307	0.013327967341867008	-1.4985049925163823	0.12874463168064257	2.4414539275517417	2.940891735281261	-0.4439185548541737	-1.3806513513039242	0.1282412257533018	2.3595285356077045	3.2715876019847863	-0.5755476937067938	-1.3849104607902414	0.5311806784570239	2.453456872467726	2.6344902448896894	0.19717068920422587	-0.14947050772122553	3.0688028258091467	3.285502663900338	2.0455045648429215	3.1890172877859078	4.455477226452417	3.642478218418983
144	-0.48343431827560046	-0.24118964313170868	-1.0053559516319472	-0.6107255801040317	2.8333048748961533	1.2684801784914261	-0.2992711357667061	-1.159080144816829	0.383932827933861	2.3457391202830222	1.8233044101457443	-0.5289943800921825	-1.4930458031151874	-0.15159766337743794	1.7523946717841248	2.351521724485952	-0.9478351449877751	-1.5517737826269475	-0.263640254070319	1.5957198102717318	2.537474625856676	-1.0783845159006928	-1.4100942576092879	0.029163082987946183	1.6461864668291912	1.9348423432137476	-0.26175939970685785	-0.3236123911316572	2.2743067683973317	2.640134089479932	1.644180651328274	2.5336003239560574	4.224891175093673	3.5081014544607663
148	-0.9724333857780265	-0.7992651442375427	-1.6480492311830088	-0.9163328386059766	1.9732440660248125	0.5849700555337433	-0.7424678187698276	-1.3197846379337332	0.08885890223002905	1.5294467172154835	1.0710663768429365	-0.9831028555844628	-1.5463445147573545	-0.5429006205203294	0.9767970418110157	1.5777504404287945	-1.297127243581758	-1.5639511307331047	-0.5877743348540557	0.8952346421527442	1.7716158583734745	-1.3486578430457719	-1.267254706997938	-0.3427073946883359	1.010008094144921	1.3374680246917603	-0.46393263222864606	-0.2545973652133741	1.729818578167418	2.241145843569556	1.5309823712795996	2.1224899238404467	4.151001919756544	3.5355458170318568
152	-2.1824536268445707	-1.8505585146911923	-2.44527744629514	-1.4535547458189577	1.019643900204272	-0.09345715469368128	-0.8322504141776088	-1.4906370602166057	-0.510264037751319	0.6953024846642077	0.28550442981162605	-1.1328034372339404	-1.5896466930309006	-1.0083414290719195	0.2620823376714356	0.7961407879755945	-1.298193809092676	-1.3558392490487587	-0.8488955476309147	0.3504467299673341	1.1094338865879867	-1.2459819285405993	-0.9464289522117845	-0.5907163605080963	0.6096983536585662	0.9210326648346502	-0.3284463576130592	0.078545316855487	1.464067216991452	2.11072730485159	1.7340331033795555	1.9458299826131915	4.213070381971662	3.7217504884214763
156	-3.5380265623411455	-2.988712064826664	-3.1565122524675844	-2.061359400313146	0.13991586828669236	-0.6543715579677742	-0.6339045150964748	-1.5664395054369051	-1.2058290212704548	-0.0005427197888761019	-0.3354234984989165	-0.9272485948040029	-1.5116926393489314	-1.4317949974150335	-0.26965787938700464	0.18594099534296019	-0.863195655550743	-0.8976877309069267	-1.0206234429340377	0.02724377804076655	0.6852065307483524	-0.6979464870951237	-0.41640055074464916	-0.7012503725466822	0.47622540472911923	0.7694519142751246	0.196868627766428	0.6901369673470797	1.4715596400300914	2.252461904560883	2.2611901703011754	1.975383515138979	4.405508983933311	4.083786477268776
160	-4.404244411792949	-3.8434255026101263	-3.6334006694611887	-2.5201640065461333	-0.5927262887294926	-1.0919474335758004	-0.4148891855732178	-1.4801356755080117	-1.7173427300009794	-0.46699449302070506	-0.6814612132987019	-0.4825450169777969	-1.2237887351609629	-1.659184928519701	-0.534140585504452	-0.12023841559331973	-0.050466190896173296	-0.21950462405098292	-1.0451501581507392	-0.031124977316355454	0.5934439882554211	0.2554479234921715	0.33554807220618255	-0.6382411106208044	0.6149467810363674	0.9411137676320033	1.0955290766713108	1.5565626581946908	1.727319474627585	2.6514098577314926	3.0817670744336416	2.183467382640351	4.7310252070189325	4.633804309589832
164	-4.443123806226039	-4.253136147251365	-3.8489830396749523	-2.6673533849129187	-1.1372444600956526	-1.4392825328728138	-0.4401387561176078	-1.2322282760026921	-1.8302010251567136	-0.6578731520255534	-0.7350844126262069	0.01212041170070164	-0.7188177686662692	-1.5688484867540653	-0.4829889523709632	-0.06659299118395016	0.969926593239037	0.5870195612391705	-0.8566850998230094	0.20180118033003958	0.8632506110330872	1.4696030579656343	1.2680849996975632	-0.3579537859462292	1.0178883050014902	1.442398425275225	2.2709557952765196	2.6005368167069807	2.203211301963061	3.2760076440115906	4.122238625609194	2.5554640228602072	5.188638197196578	5.3556532724584995
168	-3.7984704875411315	-4.3145680318618895	-3.8696782491258754	-2.4878792699943433	-1.4328033887927976	-1.6968634085728873	-0.7806360105832523	-0.8883003570063722	-1.504268642442321	-0.5522258267765402	-0.5437943325618352	0.4170877922971743	-0.08924810565826852	-1.1359224290778724	-0.1039098796605196	0.32084223547039253	2.0003535697024004	1.395912286095106	-0.41975545777200646	0.732078073560616	1.4547629319655044	2.751250498501148	2.279708856548976	0.1649327273973056	1.6698769288818054	2.2211408559033887	3.5733866601370017	3.7056548501869675	2.878183596020028	4.083901871860769	5.283474432003527	3.0923638265736355	5.767602429133272	6.200805171569813
172	-3.0037701054075425	-4.284517754227799	-3.7920887374504324	-2.1260807460512297	-1.4099035227464882	-1.814254398533767	-1.260583278334362	-0.5484624491195684	-0.8973497129672589	-0.16087746579560566	-0.1872026468557355	0.7131881695860918	0.5077512251432222	-0.4589103448725517	0.5678190574615057	0.9490691399454445	2.8969306872660314	2.0896615929296782	0.23647507965465153	1.5300846061222593	2.2749850692531632	3.9296584030119157	3.23784517424405	0.9119876004081765	2.5427541668589715	3.1820504585035705	4.850064742240848	4.754199016011938	3.736293544872796	5.028063284577089	6.470236285086343	3.8019425772998217	6.449147208143738	7.104216557686136
176	-2.668704741415855	-4.401053894375468	-3.692088117814604	-1.8088350250351815	-1.0597271892494948	-1.737468715095735	-1.5762883384961457	-0.30635178011795455	-0.28508078979995455	0.44810613876694094	0.24288108883571302	0.9799238418633935	0.9205140448217689	0.2745995216589215	1.4378621541914023	1.6855930047393428	3.6044533161712367	2.5969142848252575	1.0156662438498738	2.5182917054491756	3.2062730708233955	4.9064221258265865	4.028786172231857	1.8164211465751714	3.586039057260819	4.217842091401754	5.993489250309789	5.669112191192239	4.758190143016021	6.0632347907525945	7.619351367786913	4.6873350025088785	7.216191750427107	8.012458781040017
180	-3.128682843892217	-4.737528789003245	-3.609967222636197	-1.7248396829926105	-0.5030035363849149	-1.4843504391387279	-1.5107610187534442	-0.21978536192716622	0.07916834930458996	1.1335684032430564	0.64714920357393	1.3000025716384633	1.0684552165712087	0.8684531428345272	2.3574788510883433	2.388676875759332	4.131415833532801	2.9057888911316057	1.7871168806732054	3.575565329107331	4.134315003447356	5.660098538413482	4.598589408708281	2.7821338106485167	4.723048675056649	5.239638315323431	6.962271672790606	6.43578146263305	5.911468967771508	7.149051171372989	8.710013367596732	5.738267407234679	8.06230829110703	8.905635811255666
184	-4.262206066814648	-5.172592626863555	-3.566756239468927	-1.9295750807682448	0.016437139320597	-1.181015846131686	-1.097260472388375	-0.302952497432674	0.08639495052936365	1.7078008608615571	0.9250479913244515	1.6631464916200505	0.9674469804179964	1.2038969963195831	3.1578252235793816	2.9362788126244506	4.492740142923279	3.0478238982498085	2.43816327433129	4.564445960918508	4.966631399966564	6.210756763036388	4.961023318163097	3.716257562791424	5.859314426887561	6.191100104913408	7.765527705613654	7.08947275279172	7.144000989043209	8.246422746818943	9.748198484604472	6.92471073309662	8.988320327953645	9.79549214750997
188	-5.576884732471234	-5.493968949752109	-3.5954394249739017	-2.3280663431517383	0.23189884365660765	-1.0212058995213122	-0.6218144281900487	-0.5365793095392799	-0.18604378355261583	2.0068516680594075	0.9956539844170625	1.9401082943570684	0.7057404500309208	1.2880444494152368	3.706987848459359	3.250595084566474	4.666238296171762	3.06633614719599	2.919871322889264	5.373111234450556	5.639987454479883	6.574151976199714	5.171649919804167	4.558896053248195	6.902294618346087	7.04228590140939	8.42512605447323	7.677415351557552	8.384078958324423	9.309967017510218	10.735123607234797	8.193472841557123	9.985426877560217	10.699928256676685
192	-6.5033311679678745	-5.567955956706423	-3.759147396133455	-2.7408142020644846	-0.003091381622123958	-1.165233251490747	-0.46029770258084096	-0.8841313101380833	-0.5322702513607671	1.9683515975847112	0.828466532522886	1.947936649172814	0.38721182844628854	1.239105221480935	3.9606737990517735	3.3120722687069133	4.59430073531823	2.989495746694192	3.259888640756389	5.950133308646791	6.118827804375663	6.737284643329347	5.287162290575759	5.295029149991932	7.782824019809487	7.771229724337051	8.941737152412077	8.219924906004497	9.547716116641404	10.282258007792235	11.640078515228327	9.469153380328526	11.015247317159877	11.610090226424644
196	-6.721020204741261	-5.45916698984852	-4.128758420056844	-3.0109579487121487	-0.6132761820568206	-1.6364113051107072	-0.8465165474500009	-1.3009211984214224	-0.7389310579717198	1.670448418214469	0.4672933507088543	1.5690638979397395	0.0787502078213851	1.2168862788948205	3.9772095579821927	3.15926360286347	4.230480183410861	2.8256430554574896	3.5349359423080546	6.312198146142089	6.3903341131994535	6.670694334354405	5.337074266310339	5.9420385210695725	8.4664907241686	8.347366311932738	9.2865504984043	8.69454286287505	10.55002305228221	11.095502825380104	12.396025626356852	10.659608814029458	12.000380485754198	12.471411673529802
200	-6.322897895107995	-5.417839513451397	-4.730793940997788	-3.0881423872227214	-1.3200197186521339	-2.287994140570416	-1.7209953026235936	-1.736229415324694	-0.7004044634301656	1.2978169885293573	0.023207990394052667	0.8429293015178957	-0.20856036193166477	1.3339772190746582	3.882415046426482	2.870770208740161	3.5941030888414116	2.57836174313931	3.8164906405412893	6.518411619895132	6.458855612660242	6.363712771561343	5.320766912378122	6.5189175441187075	8.947818733512445	8.727538086790767	9.420392012653785	9.049431777994666	11.316121072808935	11.681082696033004	12.920945134919254	11.664955109708975	12.833187070870801	13.190729107931961
204	-5.7270650719052965	-5.7225441788197875	-5.491900430165046	-3.040731422376602	-1.7862341358863105	-2.8704416679389886	-2.7563779284503607	-2.133255714752597	-0.4634014356357489	1.0443768474913757	-0.36919385101565955	-0.03246970839051218	-0.4975269126251672	1.59799086644123	3.799018611853102	2.534275525370368	2.791885607346308	2.268403524393681	4.124308575707727	6.6263518166135755	6.342545970162148	5.855797752854692	5.227293001328721	7.0189199270421145	9.23355100207815	8.869152046699341	9.326506591137893	9.236449218318391	11.79173180464036	11.986245125072113	13.155089345143526	12.392855612937122	13.404538120758845	13.6689090383653
208	-5.403912053769764	-6.470030768271676	-6.217044814625736	-2.9965777321499445	-1.8110089256339408	-3.166663161865784	-3.544646731010344	-2.434780829958116	-0.18067824794928783	1.0045307849317602	-0.6146060212830468	-0.7962100485726487	-0.8019583205002743	1.9179936598990477	3.7784349822969165	2.2146077100153425	1.9869103381536997	1.9446141670721326	4.417824734024287	6.655671102885988	6.072387203144038	5.240442739607289	5.061858641242252	7.40425680198476	9.327636695199981	8.754177071403687	9.035389877395353	9.243352866677427	11.953037231784373	11.992332428218365	13.094228711447087	12.778311697169016	13.640829051863928	13.842719043114458
212	-5.590089783860013	-7.458553295377947	-6.644167883310538	-3.0531012934848976	-1.45205270877441	-3.1131977956372454	-3.8297157190906628	-2.5984258586129454	-0.01059757915443799	1.1214330168067153	-0.7023237329870875	-1.260456797278468	-1.0954711409567355	2.1662633364343975	3.7778000736223722	1.9367581557012812	1.330649134137382	1.6735277133650808	4.627850044010382	6.583270056315852	5.692631230286912	4.63695715687191	4.8582525130636816	7.625782947360518	9.230270362437995	8.410407998785292	8.625685670055733	9.105365730184989	11.81475540992891	11.727045029596159	12.800332990753555	12.802370039088256	13.532241787123436	13.714134181683733
216	-6.161447509468254	-8.24837301079107	-6.5553617311910015	-3.2144632258320143	-0.9906548236630827	-2.828985207090897	-3.6391718295723505	-2.6120102339601177	-0.023091381357424622	1.229891297096239	-0.7028976661101807	-1.4008237088121982	-1.3112632003102893	2.257974380514373	3.6983334924784015	1.6932160811590002	0.9009842849871963	1.514870282163174	4.7069787860286185	6.373140318992375	5.260972009727577	4.148260106103798	4.6693515659698095	7.654700259909579	8.951951957989314	7.917058924713496	8.20102117375242	8.890713669264532	11.432716340764072	11.26472088830736	12.383398978439512	12.501158682732042	13.137997594088045	13.351309742597335
220	-6.740575773386955	-8.383802392773363	-5.889213547142884	-3.3966944131923595	-0.7576354722921714	-2.536244862828775	-3.242150536934596	-2.5012719568044024	-0.16875538187335684	1.1676727503859552	-0.7183130365355855	-1.3487926687519134	-1.3750694955440914	2.199079746416241	3.4601251991650246	1.4683577977301308	0.6830911023059699	1.4956606588748818	4.663328635839752	6.019467338623107	4.844176757026221	3.829461564885982	4.543732154818462	7.504469852574031	8.530628182807938	7.388143997612599	7.85585449142686	8.670439698263053	10.895660372881727	10.711605998651596	11.962849586801102	11.958104103414646	12.56468769715905	12.860877958252061
224	-6.95692060621476	-7.660616855353626	-4.800678241053281	-3.4895601184480083	-0.9233942008546889	-2.4203693805621285	-2.965787164829612	-2.320474141937997	-0.3224503389800501	0.8875738359930392	-0.8138746598676189	-1.292652961328345	-1.2500249115855067	2.074570889003545	3.066768638497388	1.2649465767394834	0.6042172297481493	1.6001239974630659	4.552687633464065	5.572781071898098	4.508351314606276	3.6851882841528254	4.505735862800136	7.2266268547708785	8.036528567051024	6.939168435696836	7.649079303502873	8.492371537701889	10.30540177604435	10.18015000634105	11.628539056028945	11.28040501607538	11.928836792392348	12.347646682082026
228	-6.689180357256951	-6.278075679187224	-3.6250166801482497	-3.431910983003959	-1.3804712260678678	-2.5153458054932343	-2.9876601620583236	-2.1269016212170038	-0.3698691418369374	0.5000606166612048	-0.9734218095998413	-1.350031730104376	-0.9630811786178007	1.9846794555146787	2.6179952555361936	1.1146020861141228	0.5981243237653024	1.7828694536972347	4.433309067023523	5.128147112296814	4.303472031218518	3.6926031019441634	4.551387298536928	6.880606157097134	7.5545568275452295	6.649280054470727	7.595556239978337	8.371802308880321	9.748479818527104	9.758766149677891	11.417524308942077	10.566454860712403	11.31952569010991	11.880383461521028
232	-6.1406159245904295	-4.776281344752572	-2.7573056151393027	-3.252346507444132	-1.7976816847236803	-2.688927882081349	-3.2366547502816014	-1.9555100153188543	-0.28050327230205124	0.21626973097557786	-1.107972380701784	-1.4938985071611912	-0.5968198165130417	1.973153586174272	2.2609977665083263	1.0639442178567067	0.6549316032086698	1.9949254939256997	4.317541588372937	4.781802165356309	4.247850884203186	3.830356111392513	4.660194385206797	6.501132948674107	7.153132897436902	6.536536677069829	7.67523382156428	8.30045888712441	9.272866225672736	9.48923013198682	11.315415353816576	9.880987142411303	10.779414149725513	11.480228395087476
236	-5.702814564611787	-3.7739415073479345	-2.4962055620112853	-3.048303358011171	-1.8181812717309447	-2.735207312353909	-3.4566521557320207	-1.8071690752179153	-0.12052636563150264	0.22289599421968953	-1.1127439709225861	-1.574862595396718	-0.2501572662236535	1.9977488467322921	2.10909056131019	1.144947168320529	0.8260781744127662	2.2082393113650394	4.158830155363001	4.582514751308681	4.321279514846654	4.094243039284612	4.813667762047096	6.088132842905309	6.858305913775751	6.559364302286854	7.8521852295037515	8.265321710699451	8.882418610081373	9.362088179793176	11.279334039820759	9.250539756307719	10.311753246975579	11.135024042626513
240	-5.699964508924403	-3.6535115149762096	-2.923358671436978	-2.9203553126036184	-1.2841882673265839	-2.516041749323875	-3.382840863270061	-1.6565861660140553	-0.002397262718063938	0.5641165957513407	-0.9376998520064673	-1.4220857584335045	0.008431678616574264	1.9630830238370267	2.176808590161435	1.3481250967321146	1.1827249497116605	2.4248137412839394	3.888736238198242	4.50816010290632	4.471915710602809	4.490085590470264	5.006400095697457	5.628439889048833	6.649512274166185	6.643079740918266	8.09158513887247	8.263438203929304	8.552344300611995	9.331748938841942	11.268187494438745	8.679830529232996	9.906015371107879	10.82785031445918
244	-6.178658946650142	-4.380206573871462	-3.8857948681952923	-2.909958355232407	-0.3498873105752071	-2.0629630036721345	-2.9164833948887847	-1.4767950735953643	-0.00844469198687651	1.1043747635615142	-0.6276814921744118	-0.9582855677252149	0.16752897160671598	1.7934056475182896	2.372374767035842	1.6170130927268216	1.7550228789842153	2.664331667849015	3.4825513274958553	4.484608638884971	4.637053477977624	5.010652529463576	5.240949617505179	5.135817037967146	6.4829211071368364	6.719881040773189	8.36739442620102	8.302926042574725	8.259403207906777	9.345581031092177	11.26472088830736	8.178695658061717	9.565649962116145	10.561803791083031
248	-6.878497583188883	-5.553623662278497	-5.08027456908272	-2.981689207178379	0.5908566698415433	-1.5723260601400606	-2.1887154523902845	-1.2647870747104673	-0.13980533147323548	1.5992191989576598	-0.30354061646118796	-0.25562709505391396	0.26659342579290446	1.4981672725999375	2.555476182207711	1.8727885437412068	2.494067185780722	2.9406166002416723	3.010022155791538	4.43906353783419	4.772377478948219	5.6170296527189985	5.512619958310976	4.6805434108817385	6.3311433632268255	6.765140516366928	8.662405945841929	8.392345407278162	8.010721186439913	9.37477109449504	11.280833215842364	7.781719664953877	9.320960975001991	10.367040607981012
252	-7.400670986564125	-6.649056894681251	-6.175737842226364	-3.0586826724075733	1.1209896774599952	-1.294125553678448	-1.4791749678459476	-1.0497390005311213	-0.31993243017483797	1.8331062747450204	-0.09395411586882199	0.4998507189051583	0.36447089818487144	1.1865560978495708	2.6246423655047626	2.056959147028357	3.2824284947491638	3.2445521272758224	2.630220168148761	4.354076851342218	4.876184451189794	6.240854724386179	5.798913941047626	4.381161678696931	6.2132501445303365	6.811949235883757	8.966033912909815	8.529112794322995	7.852819899759718	9.431854224233732	11.346917123756572	7.546283226034136	9.219919181433855	10.287629101528674
256	-7.465644340739683	-7.300700646087766	-6.91169164819907	-3.085945121603269	1.027250525742013	-1.3859122956570968	-1.0507980558568166	-0.8815250970518594	-0.45120182519482455	1.736837382699868	-0.06336262806153659	1.1057929964757192	0.4995259928012418	1.0120658848959512	2.57550787275467	2.1629106943835357	3.9825107950751315	3.5387561231913542	2.518447154362357	4.282978523885005	4.99090479544361	6.8040366001005115	6.058696731529433	4.350563992006604	6.190132602321857	6.9318933311925	9.269500709018635	8.69220063875987	7.849585036486634	9.561626410185387	11.48885437925759	7.524492721633585	9.298562980063425	10.353239033308826
260	-7.089958649854702	-7.459573250056769	-7.143311959351346	-3.072283260218084	0.4040647138884345	-1.8199934913461202	-1.0053627465614345	-0.8035118559577777	-0.48394569632415985	1.4153978788880117	-0.179454892420684	1.442672249012632	0.6676222069096919	1.0779204341376434	2.49470161761811	2.236580366209867	4.493497360328594	3.7711007499851115	2.7618913580781643	4.315242756439043	5.178883539475845	7.244542580433653	6.246278270209888	4.623473632583443	6.325058444266358	7.191154938661706	9.5609664675601	8.845714546758515	8.039670923915649	9.809313749342751	11.70536229039309	7.7239336772457685	9.548150038454274	10.552423450530544
264	-6.570848448376022	-7.342343311845666	-6.836077196027918	-3.07974290070218	-0.4149406541838514	-2.3942434727301407	-1.2440197436395475	-0.8257135131969511	-0.447085647646318	1.077884909769447	-0.33541673337175154	1.5184860191154101	0.8282802084037886	1.3664152587724232	2.4996290143799613	2.3476102292870875	4.784902083713961	3.8996214768182207	3.2902703202145944	4.516552436869507	5.48603771731974	7.533760051779866	6.332537635073891	5.113438116514859	6.635359747346448	7.606823901998229	9.822950338358615	8.951848007489088	8.400360086213004	10.184779141461197	11.958953827228418	8.083964327429307	9.901351903712428	10.824915858595007
268	-6.289760573719491	-7.220015984426241	-6.045373424525717	-3.1677057663095627	-1.0533177826036897	-2.840451710205258	-1.547507759001854	-0.9175038314542775	-0.4209269274574643	0.9120532251219086	-0.4139153052846915	1.437809940522711	0.9298476553328718	1.7392086938816251	2.6601602963995856	2.545159095060297	4.888305174883557	3.9105026623223647	3.888674010949254	4.878430831036417	5.909799084047697	7.673898677524682	6.315809233932044	5.6319036341572755	7.06442449693455	8.124857882013561	10.029833768317241	8.98236081716547	8.839778877828188	10.640769931630732	12.182946174380177	8.484485604799437	10.246569607613786	11.07653805797193
272	-6.454083903230151	-7.201830368932605	-4.91463850687884	-3.3296227371074267	-1.290479775985321	-2.9618327542866174	-1.7130641894005145	-1.0223201487479303	-0.46876963854692394	0.9833229755370625	-0.3506369581906545	1.3257850375081222	0.938918707384402	2.0134904333777293	2.9536640569500636	2.826244347112466	4.859886634000718	3.8224205874257318	4.296078671099245	5.311465249956538	6.390336020548081	7.681228141464917	6.2182793460252075	5.9689726678826736	7.495829086452048	8.633943535940645	10.149111722117656	8.925146080371446	9.227581000872519	11.080639811196438	12.303240744999314	8.788774468166922	10.467555973327821	11.212423296276313
276	-6.942084294911887	-7.162491780317326	-3.6878468897216745	-3.470141878903529	-1.1427476377245809	-2.719314091492546	-1.6609952407862485	-1.0869119139885992	-0.5731500372721126	1.2207874028855206	-0.1579964603964998	1.2582198349656952	0.8567788579290044	2.0743839688380015	3.285214892676089	3.1375572602211297	4.741621959158927	3.6757302191437455	4.344604481218428	5.692886815003063	6.833609563740446	7.569144706689308	6.07034967797218	6.001081928360687	7.809339503598743	9.01230619062502	10.14894578278702	8.783999420876732	9.45364186761134	11.395831079321553	12.266354529882483	8.902869202070756	10.491315815186779	11.173911066454114
280	-7.352921467336537	-6.858359796374492	-2.697206967219748	-3.4449760826871594	-0.7933538536068678	-2.2236578408366094	-1.4509669505679228	-1.0876507731633696	-0.6223106368565511	1.490584727338625	0.10101957593685225	1.2376757828935405	0.715630648713531	1.955187315772855	3.557184687216482	3.4091293725725853	4.5449180488279195	3.5122501761452383	4.059478749516426	5.93966005733046	7.154416543063544	7.342242222368382	5.892091736222532	5.76378582452865	7.946644286119513	9.183157897652157	10.008987401487548	8.57193181734721	9.482163405320092	11.513404817122854	12.059272735666545	8.818082787184723	10.31796166675971	10.959266634928168
284	-7.236228447764215	-6.141711696377214	-2.2733676376166216	-3.143125526121988	-0.429958729850509	-1.6464816290293738	-1.2106215923261647	-1.036265489822951	-0.46210750820790925	1.705044503675523	0.36936303879942733	1.2230983941669173	0.5624679312810158	1.8323939992417528	3.7423338795590837	3.6004743485146564	4.264803875645979	3.358837834461034	3.658905020059028	6.06186579127485	7.317512970569245	7.005639058545372	5.685834393451045	5.443245874013473	7.946863154374576	9.150049186493073	9.731183981168426	8.30480668832193	9.369413352198997	11.428811998122562	11.713021248808811	8.611673333360153	10.01652715061402	10.619273158918894
288	-6.365729792735451	-5.1134958138108555	-2.5913746291538193	-2.562260621277496	-0.10569263222950873	-1.1142061920645243	-1.0369288895176263	-0.9637477969632856	0.010803574668906801	1.890599365229442	0.6401487572720244	1.1805717915292304	0.4398958075861167	1.9297451924240043	3.907866944937051	3.727080812580992	3.907328834205378	3.222353688687459	3.445800057294454	6.158715709395806	7.351479034936614	6.57883070238419	5.443979249560938	5.283155904782651	7.925568083780147	8.990221954535759	9.342905974641411	7.998108366800126	9.230666137278304	11.203265161838987	11.286372156258068	8.40172574783065	9.686278318745181	10.228652928276697
292	-4.893898951572315	-4.0981993571762345	-3.532322397850542	-1.828438515815155	0.2798272960273602	-0.6538020951930279	-0.9378868317766557	-0.8939802624066131	0.7682868222866416	2.1653425638842316	0.9556055640889453	1.1151311369398136	0.374266891726652	2.3806776940320913	4.169125069582614	3.8475344083919887	3.5061430842569705	3.0958027761499136	3.643029919009631	6.35333679502504	7.32483623562644	6.100800975655308	5.165061460805909	5.450252996035577	8.002886751950415	8.806487061200816	8.887865997762932	7.665776233392357	9.169507957195897	10.923570605355206	10.835838290513232	8.276306131448086	9.400300002206466	9.845814680036726
296	-3.2954869187121663	-3.444127074129122	-4.652274120029039	-1.1450571984945066	0.8722245075138787	-0.2170109892372943	-0.8462691881748076	-0.8235667327114958	1.6334471661335106	2.640339844713177	1.36110674991284	1.0642681094955986	0.37591510916214216	3.129350415912016	4.599131095718633	4.017453183521456	3.1161458413603933	2.9719757958717268	4.263267983163285	6.702696783309251	7.2973923498925055	5.621602997891777	4.867423998941405	5.933343395511692	8.220494249569954	8.66341970163771	8.409561135994462	7.32101295530162	9.208744979496736	10.646775218785981	10.388293240068467	8.237118700211575	9.16270158361689	9.483277296918843
300	-2.135833258004756	-3.2878775513607725	-5.3245072230376245	-0.7004506570297498	1.7037638382811124	0.24037411748278958	-0.687469063453669	-0.7232627254345267	2.3400490224885506	3.307351342434042	1.8439115239319122	1.0615664693733302	0.44421693570516596	3.9294049640629707	5.148937689179137	4.236943711073986	2.788710825555007	2.8553128170402955	5.084870802439035	7.135897141560007	7.274249058477548	5.18537567736839	4.591315257878258	6.532268984514686	8.4957513594707	8.543416955358657	7.937017897594012	6.978860360645452	9.262724853017676	10.361748669212634	9.931923841196275	8.189735391920562	8.903875328472024	9.105301834005951
304	-1.794984932182271	-3.4510912808070957	-5.027807699860937	-0.5854680523395843	2.5947048598583016	0.6813669187509053	-0.4498813140954821	-0.560544668212904	2.642475598339377	3.9876282114440476	2.2989389838350194	1.1010462017870812	0.5719349965914339	4.44779537985316	5.631583199587771	4.4257125742753685	2.548031800512639	2.7669951845881053	5.7484660003485795	7.460928898094117	7.191428643189823	4.818534362071431	4.390501488091075	6.9465288940522765	8.6438665171778	8.350550630467179	7.483967762171693	6.662296278345335	9.171389556617417	9.99376580576182	9.434259390853637	7.990093687865283	8.521012284699891	8.65779302318512
308	-2.301842683702566	-3.5596971421967107	-3.6438150313886304	-0.7664241771421134	3.1926882186390664	0.9701279377285799	-0.20867864734892289	-0.3297937206048051	2.424247020322846	4.385846603764448	2.5518457825128973	1.131636974338631	0.7449742536809494	4.426646221428773	5.79149101702462	4.447521675325042	2.3869087635811788	2.7406353881306096	5.930714592265154	7.447027187618962	6.946347695932617	4.532327163697355	4.31722496850069	6.924725515048487	8.465067842092113	7.964888075746304	7.06304214601641	6.40850542357838	8.78428743051956	9.45404717919479	8.879246689313014	7.52679298407895	7.945995787585995	8.116071680558694
312	-3.361061802961278	-3.3167471801941337	-1.586538430023001	-1.1248090238782698	3.138855926218217	0.9308959818225346	-0.08716006555009122	-0.07070010137589317	1.7484428838454937	4.227089871224597	2.434210055881188	1.0880407067485056	0.940463421354501	3.814982404613701	5.427463040953955	4.176233757919158	2.286319250056456	2.8108770776352734	5.503398881368925	6.942352277394121	6.459857447527098	4.339024055970066	4.4078783877664405	6.394711955137863	7.852969626627015	7.3205098921009855	6.7064699957325855	6.27059982623979	8.051461199459613	8.708935715621914	8.3031968860799	6.795176488886309	7.204684716154402	7.524440746383473
316	-4.532719600677565	-2.746622078636735	0.3353995374317773	-1.5288654527211014	2.267262929914139	0.4514546978996457	-0.18246966554348928	0.14239671790410893	0.8297367671044874	3.404839268671063	1.8747668218963074	0.9397320723649534	1.1300605506975916	2.804084770752398	4.505862701483898	3.571476212067484	2.246387952855027	3.0016570015463	4.597474563435217	5.966223224835416	5.737884506997609	4.270715225881299	4.677405822388684	5.506878362103548	6.8671192949485675	6.465718729860932	6.478776438568199	6.31196926430673	7.072872144007949	7.830156783361858	7.807730178193871	5.923359855955598	6.43444822594208	7.004076940019043
320	-5.455035672720279	-2.24075269133361	1.2842280832291935	-1.8931029987222665	0.7251362186243767	-0.4293609548695658	-0.5024988638588758	0.23678420424283744	-0.05418491722374044	2.0612623639516965	0.9579291915550026	0.7249205094154791	1.2886556354412204	1.748568530436363	3.204109899060669	2.7230641773137667	2.3045642317761392	3.317358723847985	3.54336666166238	4.726483333098515	4.896214472806704	4.381928432845386	5.118754373978243	4.5696139220260665	5.729413971740675	5.567876801738361	6.465569002993634	6.586893065034733	6.075793250956483	6.991560918322127	7.533086280877026	5.131661402143898	5.842157349141572	6.715388281079942
324	-5.983708366545421	-2.3410925806066434	0.8143990615310287	-2.1924517099339518	-1.0536541912179527	-1.5007319412488578	-0.9482175087830439	0.18537342501568072	-0.6679049713437923	0.556731282259092	-0.08283566662616812	0.5474020824916914	1.4077491724711657	1.0113704179024678	1.86060642726348	1.837913866171176	2.5262911255949945	3.7409572506868267	2.7208833625762305	3.5510141759863334	4.131670464574638	4.72960661647686	5.703382000828616	3.9103705784298755	4.743909347001051	4.856087672370905	6.738788587722523	7.11236618153641	5.328386293309813	6.408026679072753	7.599649886971176	4.643084991176507	5.618482575536375	6.788357240704063
328	-6.1837711178103305	-3.378242484146539	-0.8855488874011974	-2.430510753217188	-2.5174860890724253	-2.4446124968797047	-1.3497341837184085	0.03260096526855679	-0.893415687212726	-0.6631949527208879	-0.9399009323231757	0.5358120189490235	1.5044244489833707	0.8104314187569275	0.8499591329096015	1.1705281704913557	2.9701619073265015	4.237675179272823	2.393790239012413	2.7621641089319677	3.649442425096957	5.338296876780885	6.380373461826896	3.731100311395917	4.175717820115285	4.5267085914764325	7.313631992948428	7.843033770786622	5.0286521784659834	6.24271057460122	8.043713549332688	4.586540210588068	5.847441658515438	7.252217274475556
332	-6.210373385962161	-5.19241188645707	-3.0725884359985636	-2.596228592993493	-3.222289792508421	-2.9573836251932364	-1.5343430003528409	-0.1159074601584879	-0.7484526615319695	-1.2401868073622986	-1.34304403919642	0.7869685272374912	1.6188021857398827	1.1401160926643912	0.4416701186473108	0.9275805330699189	3.647644510596491	4.762861239805986	2.609013074009799	2.5535447533032856	3.58154510547468	6.170959933913232	7.07733247877452	4.029875268298444	4.148089398401592	4.659383762039898	8.122315386292442	8.665969826753342	5.223709570093872	6.53054426451782	8.782798744915409	4.941405760686991	6.458098872092084	8.002870539487077
336	-6.173853381781903	-7.11952636828591	-4.806118953014642	-2.647310250274192	-3.0006477757035115	-2.868716232686387	-1.3907768691235136	-0.1389574405022851	-0.34928357512980146	-1.0342118713970447	-1.1581314772929792	1.3231353726359667	1.7985724165329546	1.798620219457944	0.7066329699795341	1.1900539368147385	4.502227294998936	5.272670732537396	3.2018403926119308	2.9258286879102338	3.9363872905529105	7.125655633101978	7.708863238898807	4.622544276964452	4.605578410918419	5.186537729519997	9.024146057233311	9.426070189519331	5.798737988136693	7.159933548970025	9.63469979714689	5.551445470145325	7.247406941235748	8.831456162089923
340	-6.0748782004522015	-8.287203767834146	-5.40987633292951	-2.5332243378577632	-2.0014624545110022	-2.203184599082269	-0.9038828588553053	0.040207769620231586	0.15305946728686368	-0.15926729102454737	-0.4315619755816296	2.082392687308382	2.074338430889508	2.498716348061465	1.5082896909780064	1.8871848535574598	5.42072628559987	5.731894001794228	3.8930690190253157	3.7051234151754917	4.602734077276919	8.0638322626608	8.193657854374038	5.243862615697287	5.354669557403611	5.930830940531463	9.852217649380913	9.976181958760316	6.537084086126065	7.923115233444543	10.386253330710824	6.198319419470376	7.965589980041407	9.505362486682419
344	-5.841482624564418	-8.069958666453926	-4.78591917736984	-2.2406961861305055	-0.5951070770497452	-1.1593422860438893	-0.15222741625022235	0.41160836711912924	0.6324277504212483	1.0836091014206441	0.6362454279094734	2.9430770799717885	2.4391887126374168	3.0032508297435703	2.575866454296733	2.832328312398619	6.272008403201566	6.117786868861934	4.424586761747693	4.630296218625788	5.405108438196675	8.858508087680804	8.478433587602803	5.674119935015044	6.158307059952258	6.691235525403617	10.477379772436318	10.233668301494014	7.220838528522065	8.611783005906263	10.88263604277545	6.699187738670894	8.4257030274332	9.867401098134081
348	-5.4257426124915025	-6.442471964782906	-3.4143576535805034	-1.824359293146316	0.797340271844026	-0.020766137115381937	0.7221339326746203	0.87761276738797	1.0199553940770818	2.3377919138058947	1.7729710295736663	3.7662985229769723	2.842851154779278	3.219086162069122	3.6204414276268424	3.80060004228429	6.951615316005987	6.4181904630741915	4.667529571192915	5.46410893014366	6.179616435661396	9.436529135720953	8.557574250549964	5.829532608572861	6.834933740525433	7.33035800990449	10.85586068273563	10.214298222502391	7.720055560647894	9.10672566975675	11.09091279090683	6.979646188280187	8.581373193055795	9.902356122765067
352	-4.872270571805145	-4.027474393212953	-2.060171598955061	-1.393165465652212	1.8657214594466107	0.9572614407212697	1.5569882353573126	1.2964823213269165	1.3042877879591261	3.3251521503419803	2.7353980472167088	4.436374176268714	3.205931655418984	3.2104222693450244	4.439274299857583	4.6107873800214785	7.408966999421598	6.625586492976592	4.655199992824387	6.07495640174595	6.830311281125483	9.791318868711913	8.473590829436318	5.774816975318671	7.313890915524679	7.815973262126916	11.033002825537901	10.020752881499348	8.02595422625741	9.412263846475575	11.100997896777361	7.085188847773239	8.530322053353144	9.732529615625479
356	-4.307596672626561	-1.7953865482777536	-1.3511530126790596	-1.0575704547883873	2.4984357293945707	1.6357794958776832	2.2130601350223014	1.5480947455421201	1.508782979016922	3.928974618528779	3.3884472761434794	4.88450382906796	3.448170414801897	3.1355719487179634	4.967338072633238	5.1766080725626455	7.644776324998111	6.729358656105706	4.5350155715885165	6.457873804953981	7.340156536643668	9.959370587953151	8.292989709897174	5.660262093558333	7.6269841001589995	8.197538355157697	11.098222704523627	9.785510038465349	8.215629556894248	9.61795899823896	11.059300394746408	7.127092820293174	8.43948934331636	9.539490675683167
360	-3.85853194216244	-0.5741997942732463	-1.4669878445780722	-0.867441115573441	2.775677435542747	2.02211403336206	2.6078855925520745	1.5888888795791394	1.6652950006401999	4.20215557944795	3.7350630665891593	5.093839632525033	3.517956963240205	3.149589769040848	5.265192495404176	5.511773095520145	7.685724239018263	6.710757238611166	4.474674690393206	6.697396261472048	7.7395858569242675	9.976553891742775	8.06910322059427	5.6260623789840345	7.8529581825352475	8.538252808948355	11.116642923898507	9.595426535222119	8.37617872030726	9.81374261285696	11.070380182926442	7.197398644395454	8.4338102127765	9.452147459961305
364	-3.556533327660021	-0.638575671491084	-2.1004953331367004	-0.7818441371251544	2.8910212443793397	2.237126344754631	2.734988444098846	1.4678537808551826	1.7964924528541242	4.308817852585636	3.8902473351487727	5.0912484994139	3.4095172795998043	3.323925009918443	5.457822785902939	5.694212422299521	7.555215339659045	6.545060618088348	4.572059142967158	6.897886735666786	8.056665400191102	9.841465925164893	7.810229281733704	5.724637970776171	8.05009649151628	8.846064545231751	11.075755091360136	9.437162375465448	8.5337390684202	10.00976273870483	11.12046238952607	7.3013677412704086	8.510598161191028	9.461657500220499
368	-3.299457541718499	-1.6016323525999439	-2.688308470614407	-0.6941891295072592	3.0474061889002773	2.4413096843117494	2.6634166173447333	1.2950116363254416	1.9086971234769015	4.432178009287121	4.014513482448557	4.9323882932109795	3.1622555176050615	3.61827110330676	5.658655629176403	5.811781868566407	7.2583603675691775	6.212089046053044	4.808983313816737	7.119599801208088	8.280675867154827	9.509008383584835	7.472135048120757	5.897195324313894	8.2149381430166	9.046698547410747	10.879224749754277	9.195881820349525	8.627859093817335	10.10987565349113	11.067664118480174	7.344860058360307	8.529039361400816	9.412453627664062
372	-2.912491314210387	-2.657987826312297	-2.752256386483838	-0.5014574515079895	3.37408541781182	2.755513422684721	2.512978547427312	1.1795581549427394	1.9986199090088403	4.690690505582682	4.236168373856705	4.683911311721624	2.8419892716180017	3.9147560497627976	5.9146404117027105	5.9162268489240475	6.788645250346891	5.711058602219147	5.069499956683165	7.351042728937959	8.360692003122239	8.920020080933703	6.984704953678792	6.014353736951447	8.28788945966591	9.017358757140585	10.396476719356889	8.715655304838346	8.546748139737453	9.95880505908495	10.711856814996176	7.187412720653576	8.287263849315927	9.082768417314796
376	-2.2739086093712375	-3.0333931369489626	-2.1555190031943123	-0.17433221594188014	3.885455360139509	3.2068879523373464	2.409674638386371	1.1716021269782073	2.062338823833622	5.090300070308628	4.591149795384779	4.404993046129438	2.5130639012784144	4.086944569759582	6.188260539643478	6.001315578567617	6.148980125161352	5.072343336650351	5.205380426615979	7.5204896737005775	8.234821298789154	8.049784640015602	6.301383002584189	5.951612457507803	8.193262079533728	8.658985116077618	9.542864775406095	7.893495062926065	8.198883035940435	9.435811972636825	9.909565900578896	6.730115396673863	7.646023254163665	8.315125444399392
380	-1.4227279388746932	-2.3933520256651306	-1.141644474961863	0.21516133790529432	4.485244262815251	3.719506015923481	2.4361140666490857	1.2388771741106002	2.0995118565003894	5.527111993186497	5.005334364651564	4.131789673863888	2.2161672059373085	4.062555779690542	6.379518492804397	6.0114326325276695	5.373044954085732	4.360447872596884	5.111394869297117	7.535578708696661	7.870863894617725	6.948348027806229	5.445299611648669	5.6573791361071155	7.887639025800958	7.964673975862811	8.348646142862124	6.758668882472135	7.578724842010579	8.54155252207479	8.673796631848328	5.989515289443357	6.63083217854074	7.127724152689041
384	-0.5788849577593422	-0.9946435664813812	-0.1542625721374562	0.5241541849254172	5.007999407522033	4.149674405111458	2.59747957527488	1.2892307010525614	2.112277264030416	5.8354525418770065	5.326260076426753	3.8702523610629025	1.960524315652569	3.8510589502379484	6.374387724995085	5.872566208317727	4.532520759583097	3.6640972998615924	4.775785434109293	7.328756790731287	7.292475681966687	5.747867569716545	4.523968685172315	5.180537210736319	7.388246994438511	7.041823846204258	6.976726991205037	5.491255269491626	6.786302549394553	7.4244217685170995	7.201106053291123	5.112496839966942	5.450253472872734	5.7409281585707355
388	-0.04912264632697364	0.4856877910749342	0.42602884661877755	0.6125770791800151	5.282522665038156	4.348409641731282	2.821288816958351	1.226873871566748	2.1014435238233933	5.860729679569535	5.390858159759753	3.603059044324171	1.7341513589944915	3.527664890919552	6.097369655473542	5.53067730460938	3.726034155021379	3.0762514990386314	4.28317307344506	6.887084943549282	6.5759787393481774	4.630945670833621	3.7021207715978677	4.645622718526057	6.766911489568023	6.073400005265504	5.676281914684879	4.365147579616269	5.987389549397455	6.326583846331599	5.806000694874949	4.318679321829537	4.413118351284705	4.497347343534205
392	-0.070644333780266	1.3284416165190542	0.4726371455180554	0.4181931306294208	5.19403599381381	4.222460259267291	2.989907495579261	1.0109192107426572	2.0608932919921794	5.526372895593148	5.099582182406775	3.3068814194158196	1.5248417815810529	3.1876695075616492	5.546627507511004	4.981364237606369	3.0541939658301613	2.671584361006973	3.7702779674707094	6.25624130576823	5.820736393537696	3.7728135490530526	3.1432681004319307	4.189530362042081	6.115282996950532	5.237895475514599	4.691561210231362	3.6390769389781075	5.334555612447069	5.474871144777133	4.791141974750453	3.79678796763266	3.783305397018507	3.7105376626746396
396	-0.6801609975808542	1.139645454390433	0.1326637264716969	-0.011683064483411556	4.726616847502474	3.769604911823605	2.9912140293894387	0.6814330203017943	1.9746193835948875	4.8687882300475795	4.464421737843409	2.9714403077444165	1.3349647488268037	2.8986267970334776	4.799398410123895	4.279228199645206	2.591280453815312	2.486372464578226	3.3596858893447568	5.522343144779348	5.111275660007867	3.282379142103414	2.942960016449745	3.893895854655552	5.503405080251967	4.63091563009273	4.167554367987458	3.4457211407449706	4.89218996720163	4.973765837509587	4.316319931576705	3.6082103161312333	3.6469290164424137	3.5174586684111406
400	-1.682082291170936	0.019550522739998768	-0.3160740427143341	-0.5464147911581245	3.9711933035723335	3.076760045866571	2.7648239065937092	0.3400265863893639	1.8212805940421504	4.0264282124904955	3.610181560938268	2.611499302946393	1.1831960648227757	2.6760532788423697	3.986900319523888	3.525007239025017	2.3670978486379104	2.509665006023324	3.107142678999091	4.783421981178636	4.493909347632241	3.1708791175893927	3.0894563120088328	3.750096311637874	4.956481444242679	4.233466614525147	4.100194920678276	3.7369856740061804	4.60963343410154	4.761386859316544	4.3354887852880735	3.653199901894111	3.8678295514681897	3.81569122304758
404	-2.736489050631923	-1.5328568181437636	-0.6638069136072517	-1.0352835629074004	3.0882708948365325	2.281320089302476	2.320379728180911	0.09621170138863483	1.5858510692611867	3.183755389758421	2.725315802369117	2.2624628486732066	1.0929419966760114	2.4928619798664067	3.2477850832002773	2.8341801094978254	2.363089317077596	2.689656727675822	2.987334005442936	4.121603955353228	3.977118482085206	3.3592498217646813	3.471665135201563	3.6732597258333324	4.460210312072792	3.9420435329092354	4.3534726986643	4.313031185704881	4.3583240398996095	4.653586852722258	4.6338930013010335	3.7220106030906197	4.159525383937905	4.320677269517364
408	-3.520997276953232	-2.9043111727820654	-0.8865997768905791	-1.372219916693864	2.2430465164773548	1.5165765247202068	1.7256923870386145	0.010319242227845991	1.2743136850608654	2.497217410458438	1.9855594584879208	1.963583702851876	1.0741366120875653	2.3129198492782366	2.680805437949024	2.299599641716042	2.5236277516545753	2.9526917859869424	2.9224824831609917	3.5864868073512413	3.551311483953722	3.7185630704455153	3.930628051370674	3.556700935920706	3.989195813597682	3.6414179710003953	4.732615458937525	4.920569407437596	4.01337670266627	4.453135479174394	4.945238577754951	3.6077172665108965	4.238353718547232	4.714764106290945
412	-3.8751985928924557	-3.6702027228198104	-1.1190842361806264	-1.5283603629625502	1.541058774872018	0.8656137563785307	1.075188276437327	0.06429220719794541	0.9247363186377079	2.0365695901950702	1.4860329590471997	1.7388935045208487	1.1118029327932482	2.1263432449061574	2.316524022929415	1.9630141208678404	2.777031653068625	3.2275531210473787	2.837026827325111	3.193082801386483	3.2131724276480176	4.123750676234038	4.328784931697822	3.337815037883252	3.5401313215521397	3.279282561605861	5.075746046602697	5.369468198571082	3.535008659974497	4.065337647664476	5.087155806095375	3.22229789874009	3.976921071502208	4.809553611056507
416	-3.8518278501536094	-3.760777940791814	-1.5228044948277737	-1.5413523873514403	0.9983158086367214	0.34433951886977726	0.4560663688589191	0.17569252804267083	0.6057784542048094	1.7713456109147452	1.2154427736112947	1.5888775546966607	1.1705074280750263	1.965058321759896	2.122124428159607	1.8094094946000763	3.059332363033985	3.4657556923148714	2.7079026630698193	2.9338147566156567	2.980779640301403	4.497482288449636	4.601775157754193	3.0407564563273444	3.1514682690208464	2.902938120188486	5.31963108627015	5.607984051850723	3.0056393070629794	3.558005562382256	5.044981943744578	2.654250376675737	3.475144854354765	4.635241496781027
420	-3.6595580485455383	-3.4230682763459868	-2.132801050523398	-1.4786426983694472	0.5638258442948604	-0.07860081623021337	-0.07003561389645359	0.24762321946090918	0.39905175465922393	1.6101355512021325	1.085800883412791	1.500235196140554	1.215485927374003	1.8881169509901041	2.0362584539501283	1.7883043244034227	3.334436408207334	3.6536192801736913	2.578633778737378	2.797581665605242	2.89209698900553	4.8280272361929715	4.771540152900529	2.7694485117608663	2.8971435950566313	2.639168494237009	5.509857163823323	5.721805081226439	2.5992591315448013	3.1318752686583267	4.961463915696164	2.131772989612908	3.007435314214817	4.408462036446608
424	-3.5310332685965946	-3.0265633983492624	-2.7837169100097543	-1.3981071675287735	0.18423765851235316	-0.4357542980636445	-0.4636279332853236	0.22682224156809885	0.37186005617669843	1.4726700745594534	1.0021334861249465	1.4684277735829205	1.2390078274916179	1.9485896776593246	2.017086023960082	1.853107209295353	3.6050879864272027	3.811328401479616	2.5326704914999087	2.7879235674088014	2.9912605210122463	5.158403383582729	4.916595446571165	2.655302994699813	2.8587691711728045	2.6323237352668634	5.756637558708075	5.862246498565949	2.499038451561018	3.019398920065349	5.043305384300569	1.9093350123836772	2.875114195240424	4.399548042633664
428	-3.5929400830154905	-2.8418507504238937	-3.176967612828537	-1.3259741034408725	-0.13052073088117544	-0.715791462044729	-0.6917399150549772	0.1366939839249767	0.547950683640819	1.3524343933292058	0.9323445535008537	1.5173028669196058	1.2726424900348725	2.1572937910926635	2.0750522561135356	1.9968849370130988	3.908626546528151	3.9770848650656374	2.638913386358014	2.92814611649325	3.3108942425105465	5.553829179093164	5.116000162559415	2.784431450489518	3.088325969528166	2.9739184304493413	6.1622009121763135	6.145219787341257	2.8044693399195175	3.365004292575348	5.437076554876217	2.134737963055129	3.2425262846143115	4.772782790531669
432	-3.8100769423610714	-2.91677808025181	-3.045935623108092	-1.2589929072064803	-0.28861978577223585	-0.8492393472211112	-0.7185354214646811	0.06531634910305166	0.8900500513493362	1.329946633795833	0.9354989505036928	1.698098655228094	1.3742401565187805	2.4652788576826294	2.26896309279742	2.262297624598306	4.295829285266135	4.183314789700597	2.9018366263558177	3.2487370885842264	3.857533445155684	6.061919673873591	5.398456083019378	3.143734447171476	3.5792400746577453	3.6586694625034704	6.7578325100987575	6.577918036065693	3.476507893368047	4.149230469718292	6.142209514369121	2.767387144731159	4.045467843332318	5.488260255308514
436	-4.02183674750575	-3.100600234786483	-2.3157086313909465	-1.178375956421249	-0.15830098052588845	-0.7341649513782232	-0.5109902607414288	0.11770927876317641	1.3081697192542567	1.5284272393738192	1.1318820686373285	2.0643575139377788	1.594309683589196	2.7790002752712963	2.666438095990059	2.717959158710933	4.799905764858942	4.435968864685265	3.2465357698489394	3.7626290226352848	4.604927528199115	6.682341081914111	5.723292336319119	3.6158914474747554	4.260094631883455	4.58644293580804	7.481477241700685	7.052129727678483	4.349582184300343	5.195601450200239	7.006772977304716	3.592683306206446	5.021623121934658	6.3193573792172755
440	-4.042050828265261	-3.1754264751371157	-1.1702351540583797	-1.062284586131771	0.34807053120471776	-0.29071116374051215	-0.05622870833386433	0.3574266424691665	1.691297169229946	2.0338997789530313	1.6293679434646715	2.6349470548860943	1.9386808823275914	3.000975839667527	3.2894127285877315	3.4105029020033215	5.408267007524637	4.705361354392077	3.5506489187240717	4.440611828082966	5.494834886029219	7.3571247868754845	6.000518783678271	4.029843797046081	5.014357077336303	5.603721604504306	8.20314405277538	7.404024105452144	5.20428703901498	6.253559096760109	7.804342250193391	4.326552856965908	5.8451561780219405	6.974149686371457
444	-3.7595205212088065	-3.003256313370876	0.01687151561888156	-0.891188798084895	1.1959154575671516	0.4824940252043203	0.6171032174742518	0.768112121073246	1.9504216860165156	2.82430505039495	2.4463722644076102	3.364860764591091	2.3505737722178375	3.07517432390097	4.075630654535461	4.317530621118326	6.050807937604038	4.934679972587517	3.707844486411908	5.202075945117974	6.443275912229606	7.984104613173373	6.137430175544518	4.244108666195056	5.718174919950203	6.559761507638633	8.780800797227581	7.5041622926077665	5.863693222500285	7.110871773886374	8.346445062545415	4.756016719254419	6.291537745803627	7.2511505897553485
448	-3.1848730960544276	-2.6002969676170102	0.8537489750287867	-0.6482112391318565	2.2106611672854384	1.483640309402667	1.4283404314218633	1.2560017077206242	2.058474773931879	3.75382803922855	3.477633944314301	4.143802155523013	2.7266871860326467	3.0184366626825248	4.884144293851582	5.3313903673989085	6.61406133889192	5.0635557046840125	3.6900176908789133	5.932344898504935	7.353321533711259	8.448642709382119	6.0856532896889135	4.2215533149946785	6.28206489884268	7.351854782616329	9.117523170339842	7.326420765499147	6.266149028216359	7.678373317405963	8.569540002167702	4.843029963663638	6.344897254183311	7.143198948945137
452	-2.429387324875298	-2.103337759429573	1.1129153938805274	-0.32253211655247543	3.142783395461841	2.533476107876659	2.2559730949664467	1.690576549076431	2.0650460667924855	4.608871925161813	4.526072013871839	4.827927100390002	2.961372368011535	2.9198768065165694	5.549539075191642	6.28782842955933	6.978588563465963	5.0536680093964765	3.571322908921509	6.522971613627515	8.133509615390155	8.6613206644726	5.862928375700458	4.054028977649082	6.678582174605486	7.942155341123523	9.191766715684622	6.956949216444181	6.477738364077411	8.005354861075043	8.549860932698344	4.734612929788195	6.189689620603005	6.831250173487614
456	-1.6385164219495696	-1.6601389604615673	0.8297449925454456	0.07991092631906874	3.789363613098182	3.4447195442966936	2.970585815559074	1.9619122694073043	2.076471561911344	5.211173044399205	5.3881854874947726	5.293521867738658	2.997362367691787	2.9041881487955594	5.960546001644183	7.030403596294127	7.066385728161288	4.9056677694442135	3.4967741877962495	6.9181442086075835	8.720471360124039	8.588946320783256	5.540193543751614	3.9212810894191747	6.945748788463426	8.34764573850674	9.0517911682475	6.54276560085171	6.642472250380249	8.225793817732844	8.444787957804937	4.676078307743598	6.096944316729498	6.576461775388218
460	-0.9281797981669778	-1.3229167427994826	0.2719569199371541	0.5229210840374172	4.098039139891483	4.09615658679565	3.471167078791077	2.022640223164809	2.205823654327681	5.50724361936581	5.94382332254822	5.482756600842428	2.851994507264738	3.074233285771632	6.117419227413888	7.4759053995211495	6.874160272408818	4.656089770959347	3.6091227440311515	7.140592080207822	9.095920539779149	8.26536176502064	5.200733648521021	4.001925458340934	7.162798386609276	8.613522507854997	8.781502701522685	6.210044845160987	6.897178155651485	8.468936898784005	8.396824815531012	4.873677241418292	6.269424899484944	6.57253168354023
464	-0.35562303572513926	-1.017677781396675	-0.19948743233382893	0.9377597546743154	4.18496846096107	4.470720756687369	3.7105359937445903	1.8965259742537854	2.5119922097680587	5.587889657217619	6.199071391666965	5.418729291586358	2.604060643297205	3.4576823624097175	6.130458339472032	7.643223266377765	6.4750261143284	4.356753815141611	3.969155539981897	7.276592236267042	9.286489463248204	7.777173499499046	4.895957934416238	4.377331245814756	7.405164223094529	8.782389618634703	8.457316377267935	5.998517974967503	7.292166214651794	8.781002022507835	8.452381112692992	5.376719938054726	6.727094156447117	6.838115674874089
468	0.06776644272384179	-0.6094229802003991	-0.307682781634751	1.2407474486496404	4.251269329781714	4.638511646003727	3.7015020753866614	1.6550365644630969	2.956309787915674	5.622342095485126	6.2586650690372565	5.184363828921238	2.3496398866458543	3.9793205160762284	6.153597816189733	7.628420810513038	5.987212642812208	4.049693574217645	4.509125221312086	7.421403866150452	9.342948889985541	7.231345158439386	4.624068248518221	4.975723730876226	7.696659068702569	8.870975471987705	8.118725756174552	5.849520668519954	7.75577638575302	9.09678647605626	8.539025285142694	6.04031513596427	7.2923779303495015	7.207412701529595
472	0.34136870417238285	-0.022733233811679878	0.016441492322299762	1.3644077743414564	4.440423000568795	4.6927823901904375	3.4993734271390524	1.3778488601229506	3.401157132144715	5.73957203369623	6.242737754319169	4.875478732197435	2.151534790329005	4.476265895986113	6.283506854405446	7.537460308118179	5.523796067596725	3.751662006442881	5.046556936874147	7.610230426647831	9.305191970220028	6.717910272803311	4.343002785208068	5.587583527762825	7.980275610802669	8.85963533071995	7.764278869099472	5.6520824289671685	8.118283251292857	9.270883536773933	8.509994485350267	6.58710001236087	7.679308871907995	7.4208178332845
476	0.4497190404504908	0.6653818471321756	0.6235966070643334	1.2883068290608755	4.728266227228535	4.682098376850713	3.1753508964477315	1.122017380742618	3.659922113714907	5.933034405033956	6.203366263940056	4.557996738370094	2.0139396139796224	4.75840805759677	6.488072378943899	7.420512657504021	5.151537405359097	3.4597482593924167	5.35950039464117	7.780733565713202	9.175600982388033	6.286805137020409	4.011290063267242	5.952634319535252	8.130606630778344	8.701160408939884	7.373068314056911	5.32036207763183	8.187024095845864	9.15196130349264	8.230993250092762	6.73880336967439	7.638738612916187	7.265228253141437
480	0.3644199660160395	1.2250568835800024	1.2406003443867062	1.052326676572867	4.91864441583479	4.5799374464751	2.7939352918656692	0.9132547355482573	3.5779201894071715	6.050061687453334	6.092386230345743	4.251163948770016	1.896404976825197	4.68810700186606	6.61000774622027	7.247379761517799	4.878327834210506	3.173734418485504	5.286647306446199	7.793201426857261	8.918036438360588	5.9472074358514435	3.6313581374991823	5.877509579124338	8.00669191246327	8.345047929675408	6.935977441442198	4.856422888892276	7.8368568222548545	8.6607074518887	7.66063211414265	6.350990279375448	7.083296281097109	6.687630159659546
484	0.07171195727362611	1.374288078653059	1.6079376895362338	0.7416968326916045	4.758302676585074	4.31071137293608	2.402993196142498	0.7575715165084889	3.1101188581145016	5.879878982957467	5.800611004489387	3.94201420742408	1.755830641128172	4.24574803234082	6.450882418558058	6.938882333402637	4.672864425305423	2.9181215689416553	4.804760443954351	7.504442196018925	8.486023881467915	5.686154351183391	3.267392388677507	5.329063878909909	7.524204711990758	7.76895425742385	6.478034956789065	4.362166870547867	7.074771863241434	7.834754924066802	6.883098584916769	5.485358224371017	6.13184736611037	5.824973568514791
488	-0.399710087959106	0.9319547391250068	1.5971480567662337	0.44842210298809754	4.106268872384133	3.8156480692848715	2.035162205326187	0.6581233723236888	2.358041757352181	5.292846666324347	5.2448811398646376	3.617505541251198	1.5882996280623776	3.5509259611122883	5.893907532116384	6.435824854814337	4.501902568895019	2.7472431590337263	4.047048081670614	6.860478860700196	7.867475489780088	5.493470178085888	3.0250329894938734	4.458645809360677	6.7142405340430455	7.006262761546727	6.059870227772808	3.993978251863806	6.050916179638676	6.823329908309858	6.078998550325832	4.387858856566985	5.057650553331734	4.940440165444068
492	-0.9736157631134508	-0.06132391452207668	1.2531524864982646	0.23112741054354985	3.0567207259251004	3.11698221373377	1.713867540800769	0.6216012223762255	1.5431783160348795	4.350312221987709	4.448470104430314	3.291448346410961	1.440681334672871	2.824480526468726	4.997908579605615	5.762337670082844	4.360945690588792	2.7231671741396783	3.252643338574364	5.956676468115134	7.119724732543222	5.3774990899692625	3.0003142281121904	3.544355621925996	5.736964688121757	6.156177505209099	5.757558808095397	3.8846619031102625	5.010961996778469	5.8371853681055414	5.4512410026248785	3.385993472133561	4.170652855833639	4.303785790067823
496	-1.5487210711478385	-1.3342616524388082	0.7404938321491401	0.0945465264317489	1.933545942193156	2.3368034303794354	1.457285281316741	0.6503843052655913	0.9231684184608497	3.3142192280063023	3.5622360616391533	3.0094439907386765	1.3840013707504224	2.3026230277099953	4.003693570519087	5.041800963070237	4.280857552210673	2.8779275344667195	2.6682846478805384	5.025338160224838	6.370316966185783	5.36344908313828	3.2261638559904613	2.8766896652071496	4.836559760280315	5.367024408141461	5.632502541626466	4.076163281639829	4.210223664144377	5.078131662899165	5.144771562938435	2.75648926992652	3.694464912623667	4.079020013047412
500	-2.0378575273561252	-2.4935657915101377	0.2470598959645592	-0.003588004960001579	1.1451028556522893	1.6533272224645439	1.2755540577155098	0.7271063905478082	0.6867188197917754	2.53816365554854	2.807420008247029	2.827851288331553	1.4639368020290124	2.1412219947160045	3.238184920718412	4.45006607839479	4.306558121298616	3.181862107826556	2.4500851569305846	4.347041595927851	5.77562426062547	5.475136266236424	3.645564785336239	2.641098015792806	4.251283634896423	4.792921054183218	5.705684647459766	4.498076904384415	3.8241670035132413	4.676012504215932	5.196393476718014	2.623499625258014	3.6921117212538754	4.270881642049091
504	-2.403214687001924	-3.1966319003460284	-0.10065908704616083	-0.12205067246139818	0.9736224984382933	1.2173925607462646	1.1641144723111376	0.807519553053067	0.8729156829729491	2.2920167388268613	2.3692500531460263	2.7803323198693737	1.6599662262014443	2.34975504281927	2.959181301275123	4.129213799541779	4.46168040102782	3.5394010454461955	2.6056237154978485	4.12327526958851	5.453981385766154	5.71143148887592	4.128840436047848	2.8469166683798535	4.114783753496668	4.537234771717191	5.947620376829406	5.0014195315926	3.8886141678860504	4.653862464599004	5.532655225136613	2.9261634275944473	4.064342011680662	4.745850551067195
508	-2.6588609151467626	-3.2994291699076572	-0.275501697559964	-0.29778709932483527	1.421006556737926	1.0803283425712003	1.1035257550034772	0.8343365767394805	1.356149073991519	2.6186609202073643	2.305731290717895	2.8574707435942956	1.8850185823532124	2.788570397012271	3.224966756307815	4.115243424516015	4.726133334625278	3.8240854643593947	3.000410310799326	4.377709854517414	5.431852326984133	6.0363726463502	4.529260623940693	3.3333177482370138	4.397568214757803	4.610748756211762	6.290974601121211	5.429329858423608	4.294353951102378	4.9327068204318545	6.012708171922642	3.4636373432449026	4.611794936934218	5.307952390620925
512	-2.841924898601807	-2.8998398707608835	-0.3234902612148208	-0.5209755884368603	2.206561321409559	1.1792714566020936	1.0718251439690114	0.7680932264008999	1.9070348691476022	3.309153071631764	2.5271787579627487	3.0140149517256707	2.0296273180263182	3.2342984594702897	3.863644590159786	4.3245916257391706	5.042060362483644	3.9377903838873807	3.425721636706109	4.942628371157538	5.634906754572056	6.390038950999271	4.747640597754571	3.8489000700096345	4.920834528896888	4.926774489361628	6.658026678441564	5.685365662525714	4.837717997734667	5.369993673118095	6.490498526398711	3.9902527231561713	5.1241283287376245	5.784678444562571
516	-2.9772851391963346	-2.263917202002054	-0.3133443288044474	-0.7364093046669293	2.917118780400486	1.3856383527104008	1.062118527591846	0.6163554772074323	2.296577209396402	4.009170998941537	2.855477802696617	3.196261874712197	2.0215959497909806	3.4788281829740053	4.557092178283266	4.605153072174375	5.341179357394945	3.858927001747014	3.6895725633928547	5.536477074949961	5.92785833769473	6.711242658836991	4.769870269176717	4.161314000113809	5.434512601483032	5.336343274948659	6.986385327820057	5.762673363441371	5.301613317455778	5.811857208837213	6.864208204105087	4.312438953955889	5.453122125209241	6.080649837400521
520	-3.0545127314696154	-1.678307529026841	-0.2975074045299329	-0.8689933397287627	3.228730908825167	1.5882967670394357	1.095801112269379	0.4416012454804467	2.3945019184692344	4.402374256463198	3.129247419086104	3.373268118924723	1.8678784323262967	3.418349734258901	4.9989499919565015	4.823830115537064	5.5776114322985	3.6535019782330695	3.6911010648996156	5.897249683749791	6.184518798472505	6.960339051793288	4.658775317827566	4.14889859105702	5.726246819343886	5.691563115055233	7.243193608116503	5.723899350019979	5.5358223775334015	6.14219520925441	7.0963277637607405	4.350098598941373	5.546773419681046	6.184718116404131
524	-3.0341796798394327	-1.3119009700077757	-0.2983944110489184	-0.8593028762102906	3.0706171911915288	1.757430191371326	1.2178288667449189	0.336517958983519	2.2152714673378853	4.367583740651378	3.28985952500384	3.5494351297409303	1.6513565737039555	3.089341394253996	5.040812002806621	4.936608778887579	5.743295178218079	3.4387133034671313	3.4479901703565514	5.901961788535258	6.347570403285449	7.126825314648097	4.506756771153271	3.8359820745893685	5.70859192360599	5.905890926708932	7.4216055682678626	5.647525773094884	5.5037340978902956	6.31095693902242	7.2015371140810505	4.143164624244105	5.439790711973856	6.139468654390689
528	-2.880905620930758	-1.1665039033048608	-0.3206154994022394	-0.6911495906546122	2.6398632459747566	1.9474041412777352	1.4691002331835787	0.37579980397711527	1.8951930951906832	4.0248203175970945	3.3974397096687494	3.748450031353334	1.4804662428671014	2.6404225759599167	4.750941741392476	5.000092493784671	5.855219349383252	3.316853991717301	3.0739900988215627	5.613425717486398	6.445225222527419	7.217506390468954	4.378261078270905	3.3653719340233943	5.445569024642373	5.982595905458141	7.5252861786628324	5.575425133933659	5.281277643221231	6.336092932916477	7.217474919216593	3.8132080935525066	5.218335138497333	6.0013298836823274
