time	FP1	FPZ	FP2	F7	F3	FZ	F4	F8	FT7	FC3	FCZ	FC4	FT8	T7	C3	CZ	C4	T8	TP7	CP3	CPZ	CP4	TP8	P7	P3	PZ	P4	P8	PO3	POZ	PO4	O1	OZ	O2
-200	1.3325200047228687	1.7271525816226352	1.720726366467046	0.09554665511565189	0.3836827268450149	0.6247699840984192	0.8877752996918714	0.5066348301493978	-0.4076556255061841	0.043222799788066826	0.015587341001018596	0.15095342657600966	-0.011527771101099376	-0.2587792270802573	-0.5904666766517626	-0.5636090622023596	-0.2408405536293018	-0.23786909818197763	-1.1852477759000541	-1.5189897975717799	-0.8150852898045953	-0.5903877601022792	-1.0015866731151577	-0.7770323137692305	-1.2927350965286382	-1.063441869911808	-0.6646822674182131	-0.8850789643829746	-1.3507400717010982	-1.155335065785757	-0.9809638237028088	-1.1080068321863774	-0.5920761808705688	-0.7072164994504119
-196	1.0964860888454082	1.1971255510623264	1.2072598903693201	-0.215512409262135	0.18703176033959593	0.09981483195853255	0.09232539660270477	0.02810006581602849	-0.836960313591224	-0.44343274719815845	-0.5388048277602846	-0.45850250009170584	-0.29350113794611465	-0.9050322152176073	-1.021136996552126	-1.0672680112595698	-0.8598610737072028	-0.2918495528482032	-1.5853910406139715	-1.8438100768267607	-1.1860867708777942	-1.0751112672364718	-1.0703989240324268	-1.0442091200214012	-1.6151200492135347	-1.2781949011002607	-0.9767937635555614	-0.8820309020661463	-1.6200613934622283	-1.2886718479045585	-1.1417458028577254	-1.303403493451471	-0.7279828172423729	-0.8362367728101223
-192	0.9034979320603177	0.8128892758826799	0.8473335483138745	-0.40092372793063596	0.08114706704394462	-0.26041036778506244	-0.5117803203059319	-0.32004177489540236	-1.0464595529838592	-0.74295449069319	-0.9079486108744592	-0.8850936867301971	-0.46635109068430153	-1.2511509625317603	-1.229168292756939	-1.3502939905407256	-1.242429372511666	-0.16746564167180203	-1.5941165645406112	-1.8367849542019803	-1.2875493732369823	-1.2714241710987395	-0.8256198146956006	-1.0534595224486079	-1.5839431245867435	-1.1991989582302482	-0.9731724237667307	-0.6577885134301861	-1.5766899545916282	-1.1251451940739543	-1.0262382004577038	-1.2151042192298251	-0.6129069908880139	-0.7363163214213144
-188	0.6719778759203012	0.5537033663121469	0.6025632604644529	-0.4414601910889419	0.06579241885025135	-0.3884565224376681	-0.776163516469178	-0.484847931829847	-0.9750764941392732	-0.7869475464025832	-1.0015975211604793	-1.019463894177505	-0.44508793837706967	-1.0870130034658831	-1.1566147775058537	-1.3292484249886969	-1.2651183573252924	0.06356197579548457	-1.188132879118478	-1.4760559760020155	-1.0659451457767648	-1.0861469479794832	-0.3965805758953978	-0.7836438397649588	-1.1667566269980703	-0.8026168922187349	-0.6111295207806546	-0.2569539242455866	-1.1675312489596157	-0.6399740560586288	-0.6076667293465263	-0.8011604527273254	-0.21358250027614756	-0.3619892290035913
-184	0.3042712799973223	0.2992794506146313	0.3424480250772506	-0.3833550801135118	0.09191298461596448	-0.32604432023699786	-0.7307320814756966	-0.5175735341356047	-0.6835214478401617	-0.6135230048902123	-0.8546122887015338	-0.8994100667180079	-0.2702906720966649	-0.46708625437110507	-0.8545317628266456	-1.0550037595815498	-0.9792888735842045	0.27644041110816164	-0.502607999963184	-0.8696538784004959	-0.6089082344894184	-0.5985325559763384	0.004163237743744368	-0.32677376187791746	-0.4809725272433027	-0.19568674216932194	0.002712392474195802	0.198443769907608	-0.47831496475573443	0.060775045152048256	0.020925277791240142	-0.14765275977526102	0.38732656738719146	0.22182600144170558
-180	-0.24499905047549203	-0.08391590395244698	-0.06256666018663505	-0.3032087974045611	0.10244883571031281	-0.18360981298819676	-0.536503969268474	-0.5242172466394304	-0.3140534452615499	-0.32992160236984786	-0.5894390329737846	-0.6603274328726284	-0.077475271923439	0.3201898030303283	-0.4481824923167054	-0.669410346248439	-0.5590863809775112	0.36636149790772876	0.2283952230409112	-0.20087982663458898	-0.09444071328637854	-0.011613197595362874	0.19705018351395545	0.15909329016572613	0.2599395506971703	0.4316837478705983	0.6612812263959161	0.5678601250616523	0.3001552812627496	0.77993321221848	0.6804452521310704	0.5631250724880054	1.0209614012690609	0.8602457024789673
-176	-0.9153910852209032	-0.6350191219509606	-0.6377574785343179	-0.2608733468621864	0.07692799697765429	-0.06734582019730442	-0.3703705063051998	-0.5876129254764114	-0.01739057894130724	-0.04869899141414098	-0.3384144297638718	-0.43960538395518184	-0.008971270151137791	0.9044986344389252	-0.07313791643989057	-0.32128995575849245	-0.1912496830164772	0.30694240254154276	0.7725732903048416	0.3517996063887079	0.299633859831571	0.4537270057666809	0.12908238139940958	0.5234737383023793	0.8387365916056908	0.890224394934864	1.1496494979442768	0.7542097549469997	0.9482107138535567	1.3088986840580195	1.177660581476461	1.1249445648401468	1.4990198574366522	1.3688040937197
-172	-1.5419841965844643	-1.2432882754407109	-1.260495421088185	-0.2668064825951162	0.049869064115740436	-0.01927724103232902	-0.31833764830325406	-0.7120986562869931	0.11624342918849674	0.16589835244255136	-0.17351575151980822	-0.29724970384889715	-0.12066772549681118	1.0207864020324422	0.18516851914862145	-0.09186886972836147	0.025188468333068897	0.15757508536132406	0.9941583250694898	0.6819810254044757	0.4769381868718661	0.6636884195737375	-0.10984385730905474	0.6871766430671392	1.121867534666031	1.0691274377532884	1.3345414366406776	0.7359992843165546	1.3027079072486984	1.510841604232977	1.3812928164893776	1.3883048260923403	1.6874232249571952	1.60535132479667
-168	-1.923425908000872	-1.691015954516606	-1.7136318640359223	-0.2822697453524772	0.09001126862688463	-0.005374635556181612	-0.34108024749472066	-0.8250317552717313	0.08896295703838299	0.3138730816069149	-0.08233749100639318	-0.19928137907736063	-0.34254878672898903	0.636177001777444	0.318679302126244	0.030472781432224618	0.11349055142359268	0.017618287310225817	0.8986522532662469	0.7818179110815194	0.45463240031853314	0.6225252135772007	-0.3513958445260188	0.6666735989904865	1.1033983202732691	0.9736555194114156	1.2095416753748507	0.5602413401764079	1.3155565228626211	1.3710988725377589	1.2687479225550813	1.315171357649055	1.555547233468861	1.5222666225146784
-164	-1.924577350525736	-1.7767527058565378	-1.8100488140183228	-0.24970538851159094	0.2522857778855311	0.04407455388504699	-0.32721200502752207	-0.8319447615599723	-0.022007713038789543	0.4335725594541169	-8.865766699626539e-05	-0.06806325150233207	-0.5213574157903275	-0.04814371081952509	0.380061834091019	0.11695515334880155	0.1742024268282094	-0.04260098550888839	0.6124067291056771	0.7223073821904789	0.3339379123362854	0.44661915189516116	-0.45391696576910046	0.5493221865136381	0.8889597631898575	0.7071887832906613	0.8773125387929944	0.3031958333943552	1.0606961223525173	0.9918783878079426	0.9224141216831216	0.9839244460059724	1.178760167960501	1.175580975425498
-160	-1.5602073630042144	-1.450441714439488	-1.5175392589401882	-0.13340236212904988	0.5320357666888128	0.17274692610995274	-0.19197119723966166	-0.6887080652014869	-0.11382700474133911	0.5583418593615015	0.1306661364117379	0.141567185163703	-0.5168203698461244	-0.7110044938256137	0.44074025638884	0.23700050949818122	0.2988073222245574	-0.030459118930089502	0.3136776975818345	0.6091474875329428	0.23493879974176696	0.28553602027327724	-0.38362339042129084	0.4404672969187802	0.6372757537964594	0.4148061563032553	0.4877107429111811	0.028916949333257932	0.6935294253005507	0.5402226434419771	0.4842848169497532	0.5488328919859122	0.6994808894617027	0.6932204944274598
-156	-1.0071685288749905	-0.8737583138340114	-1.0036370728902544	0.0532666406180686	0.8512693026031015	0.35778599887161006	0.050115838520358405	-0.4416291702564535	-0.11178997130779957	0.6855217201091288	0.3145067087816	0.39579740066734886	-0.29382952973567555	-1.0758149596709132	0.5487140999291747	0.4112186421502493	0.5014895188067977	-0.02089160116702707	0.15008732638612635	0.5385107384437053	0.23556360542904753	0.23927979110863754	-0.22265173438601668	0.41407483711603005	0.49017536516409854	0.2193506354515945	0.16879752235710666	-0.22922651411833359	0.38414156339933747	0.17668312743401443	0.09477847045572613	0.17599922374158827	0.2686560147178269	0.22145171407578348
-152	-0.5245923982726994	-0.3537120512138202	-0.5586325512133372	0.2515352660027366	1.0906635495305799	0.5199406133875936	0.2894520752274557	-0.2065109754355267	-0.0006631345005727223	0.7784582952872368	0.5022467958167571	0.5989432915824485	0.0492912306137146	-1.0315422985735845	0.7088698726876621	0.6076025947489099	0.7127030473834897	-0.09365814155535646	0.18456530524385625	0.5705810174841346	0.346695243436965	0.31776580134272275	-0.10042231504596898	0.4893499898476552	0.5228276239546453	0.18001508667319113	-0.015249564273896985	-0.45706498507496474	0.2540392869257511	-0.0026911911486688527	-0.15549313982805965	-0.01606350201783036	-0.0069411727424551865	-0.12676678565921556
-148	-0.32181903638650544	-0.1791875953918636	-0.4340929378040146	0.38937199017446195	1.1507027120147988	0.5783459529579992	0.3987041701740938	-0.09937053148691793	0.17923676922367915	0.7998686412643699	0.6336449368691335	0.6632212979738121	0.3378068200165656	-0.6533444507315979	0.8938260651909685	0.779172537743777	0.8359982350223335	-0.26281323962614844	0.39099827310073015	0.7258829456122375	0.5308693037935034	0.460242955714753	-0.09865723525411114	0.6415469034209907	0.7324760537727766	0.28879010604425154	-0.06407545490776696	-0.6343905313687463	0.34261330875679546	0.013620589825394967	-0.24124516485817676	0.013228910010435854	-0.08969660825732918	-0.2996562711779499
-144	-0.44502025730309813	-0.4505143154213986	-0.6890404206999153	0.4219408620671785	1.0060511802068521	0.5116475807623522	0.32862788355826433	-0.16283349651709997	0.3622097065840588	0.749289689556437	0.6896865350476493	0.579817770447722	0.42365538966981386	-0.12414894966728982	1.0701357099217632	0.9099390483770632	0.8234116414261818	-0.44705861693998056	0.6912994367311992	0.9927147005766747	0.7418498974190012	0.5913659319252185	-0.19444447706721088	0.8319825509046644	1.0590678426706541	0.49508476132327334	-0.01279067896802469	-0.7233112436152515	0.6095842703687541	0.17057582692949064	-0.18856418085174104	0.22979728819526166	-0.005993318263210812	-0.3065204016575984
-140	-0.7491471748511389	-1.0052657101999851	-1.138732072816201	0.35718446879805554	0.722523627841178	0.3835864653439457	0.1548706885242418	-0.3349481812603552	0.4945126163395189	0.677037118156063	0.7164505702049911	0.44077888019855693	0.27556019951866334	0.3820928921589349	1.2205957143484067	1.0343353722207076	0.7169970851915569	-0.5056536780942273	1.00661086781988	1.3356531824722213	0.9559758281413552	0.6745360476629575	-0.2758731239029441	1.0350254747961747	1.4206899368656785	0.7396451812189707	0.10102476154093462	-0.6812580210651756	0.9664395427145462	0.3876390447366375	-0.04547021154010025	0.5541863427475425	0.1810112739999683	-0.1956084961720906
-136	-0.974838492793286	-1.492082592058049	-1.4446878396752678	0.25117769773963183	0.42352151763798634	0.30997690480171886	0.037852693253554136	-0.48262384412031334	0.5573537931675545	0.6597959978611527	0.7974120358361544	0.3882935335369413	-0.0028256645820474253	0.7831356505648868	1.345290657461622	1.2098145454379436	0.6233853682037827	-0.3264940968853374	1.2902107206194842	1.6965178208433522	1.1713799208630455	0.7253099065588137	-0.2249493593258563	1.241351839746137	1.7398457483233762	0.9739447211471356	0.25063869293828883	-0.49312794084023776	1.3133028712493535	0.5949965700386106	0.14023955130932791	0.8951275922109979	0.40032747286813075	-0.027845654566317955
-132	-0.8908627606787968	-1.5579696854357064	-1.3008978334007293	0.17795933738123937	0.2269871825209371	0.38688254258705823	0.12152247100189345	-0.4775403129918669	0.5691561088497316	0.7527211289474928	0.9921389197095981	0.522338091008341	-0.23639939665713908	1.096303579423567	1.4453017675149042	1.4629360400457605	0.6396406872812417	0.09220107621517837	1.5264284572209676	1.996377343859473	1.3826253379246118	0.7831539491907866	-0.00602309450849124	1.4414527379836064	1.9546769808055766	1.1616525620695506	0.41398826136971234	-0.19673189471165847	1.567479725694899	0.7512743454085125	0.32971745646200756	1.1749504774946558	0.5936745986254749	0.14427094125085557
-128	-0.4239065636422632	-1.0455256674118762	-0.6117954834750488	0.19080692481504227	0.18912558209830185	0.6262757762355782	0.4369074393208802	-0.26930060914712295	0.5683760628655254	0.9500690674636719	1.284071919060276	0.8290347436000952	-0.28084537315987584	1.371851559990082	1.5065268240085803	1.7496650174788828	0.7840476612322924	0.6193931087114513	1.7052602724890653	2.1495759432880526	1.5558792313394216	0.868891117763231	0.2993313960624219	1.606105323551175	2.0204443880568275	1.2711894480082064	0.5630040750594169	0.12374104528179929	1.6769452052692941	0.8405222871540082	0.49216291184143823	1.3413721289146916	0.7236356716959448	0.2876634292492293
-124	0.302965372035913	-0.0808746067627836	0.44723266250228527	0.29802563711262414	0.2872763268847129	0.9424188113260655	0.8760895110899359	0.08985473937951906	0.5887693151867792	1.1807961434115986	1.5751757581995771	1.178674218062952	-0.10227419410156184	1.6159226853580537	1.4973927698476814	1.9617477605881397	0.978857037933897	1.047736522890303	1.7985346271882625	2.0896055645637306	1.6274582106508897	0.9597216820328073	0.5354366885018206	1.6795468287978819	1.9089515161001605	1.2707647053106095	0.662245629545947	0.37505876923281617	1.6187695223946283	0.8560197331750616	0.601009307774437	1.3661683763343868	0.7703446726423164	0.3881013681626706
-120	1.0397379372095088	0.9928613280024519	1.5185816249653885	0.46331554534284447	0.4480079401149214	1.2001363008716195	1.2559258906126614	0.48005780456456665	0.6397594793379792	1.3454209532147718	1.7373030141836778	1.4001816475802986	0.2128879869569782	1.7549732879198874	1.3862010205556599	1.9838685939292016	1.1003469200963418	1.197894689396566	1.7567515328876269	1.7996544792514753	1.5348287782065337	1.002878663392047	0.5676383957836477	1.596968169948756	1.6149630505795927	1.1370878190895783	0.684589086234683	0.5033581244157884	1.3933408225166986	0.788380918896523	0.637130735696087	1.240511056629058	0.7262268644117232	0.44455379135426365
-116	1.544628735457182	1.796187038655066	2.2482902946928753	0.6265231355107714	0.5984167441518322	1.29548704297097	1.4309551679722685	0.7828954438470485	0.6986039263253365	1.3726271356259414	1.690663810276162	1.3873357737800287	0.5194878565070228	1.6663613277325393	1.1672533721063743	1.7683422520813854	1.0640366050558754	1.0125216220087532	1.5306100806692724	1.3303194012433173	1.2614979712107757	0.9579727625502233	0.3640616526948769	1.316654082788744	1.1662322253346604	0.8730694629560813	0.6328569038625476	0.5220630751780417	1.0201982233992837	0.6262270792409196	0.5974590167219992	0.9716199611928305	0.592857180529089	0.462345658565508
-112	1.7104670958249184	2.10870599214307	2.46818827959606	0.73412096315049	0.7086667400587804	1.2204990356148253	1.384791013082413	0.9442296600344148	0.7201830130514026	1.2621371714197331	1.4615390263850419	1.1714997261987417	0.7071406227378044	1.2577037779525329	0.8784043766732333	1.38035487780156	0.8897038675733547	0.5876960739556631	1.109174844802447	0.7915400246662875	0.8663247205796165	0.8377119877645887	0.018382165534577423	0.8503152110565907	0.6292883737888546	0.5224046097917424	0.5496053085756063	0.49865963929161883	0.5388663397535375	0.3698514094551615	0.5024716245362822	0.584068952516304	0.38267534874620945	0.44890797024875745
-108	1.6022998054104534	1.9585819194935326	2.2599961700600493	0.7583597283290086	0.794927952666767	1.065521475962771	1.234523531657908	0.9881268118706066	0.6565361602419721	1.0831638547252962	1.176280137906948	0.9091736055307902	0.7614720444527425	0.5410500155140154	0.591692088540606	0.9774697398302523	0.6980099660416493	0.11705677926788702	0.5443407283391117	0.3145962945624712	0.471178619864084	0.7130511385080991	-0.3092142335714209	0.27108508280022564	0.09868142728924828	0.16558887022649768	0.500586568045375	0.50482219330171	0.008962404891572408	0.04606071475439917	0.39270836015734095	0.12184569953911371	0.12140314250335439	0.4112765778648247
-104	1.392602440179085	1.565221663337929	1.8734531355287747	0.699975190779577	0.8863543249640137	0.9571766829166132	1.1453589172055978	0.9800456141523621	0.4803756761343512	0.9300672388436699	0.991016743065245	0.7875534276151954	0.7561690192204649	-0.3436354390051456	0.38006296657926686	0.7294831257522263	0.6361443980368341	-0.2166401887430828	-0.05577683434709207	0.0006189155958799259	0.20765055663611023	0.6739600879819471	-0.49349248284676367	-0.3076747052054043	-0.3305641404389043	-0.10661846372388677	0.5369534478935905	0.5613402710093572	-0.49639311307511225	-0.2885169081556133	0.31234204690275735	-0.3539717784527732	-0.1528860624744887	0.355504452284658
-100	1.2403082816280442	1.1811166971903913	1.5564279516978385	0.5773184880939551	0.982545373343286	0.9711571907319627	1.2111287086426334	0.968229172169409	0.2020737076664258	0.8625402428784475	0.997108993397001	0.904618797402489	0.7852348069392866	-1.1761032313217015	0.2792267792327643	0.7226577978962286	0.777928946438323	-0.33438080464817077	-0.5652807340655096	-0.11914157092293226	0.15004532001282694	0.7686810474061907	-0.5180000053678959	-0.7730312923941394	-0.5965136274536036	-0.23130227566971814	0.6584309322899532	0.6199893339716341	-0.9060947276126908	-0.5615754709370472	0.28767025398103885	-0.7747929076660284	-0.39624610443208513	0.28739067839542576
-96	1.191823598713652	0.9378322339221793	1.4052910769268345	0.41284540191367447	1.0349523995018646	1.0763561698441073	1.3805704081965238	0.9459569430309999	-0.12710015443660266	0.8673456289327519	1.1598123282714015	1.1984622448226845	0.8839493371580435	-1.7427234605658666	0.2660279863316703	0.9049152709048532	1.0622646781804663	-0.2834315292831835	-0.8911621548087477	-0.0918418315714435	0.2729979746601726	0.9604114269804066	-0.4714124488849475	-1.0518325540689264	-0.6934443098680263	-0.20325843938531268	0.8024966100458818	0.5932789429944547	-1.1699492901827586	-0.7114918810047116	0.31380370180057154	-1.0786906453554863	-0.5685673937747714	0.21495802646247877
-92	1.167644497784403	0.7957429269727232	1.331248876071598	0.22788846435231028	0.9704862808520648	1.1499843568377794	1.4827836714501177	0.8621650912451785	-0.42761251222413893	0.8678669311546413	1.3315885033366706	1.4735273085584488	0.9956280563966506	-1.9167996596579215	0.27013075283513627	1.1088888617175368	1.314067122002734	-0.1841672803282123	-1.009497520759064	-0.014643128924354345	0.46126368525395445	1.1341699333166109	-0.46933957815882726	-1.1310784788184958	-0.6708170754662313	-0.0788025332487852	0.8717506505891107	0.415099619771066	-1.2724730936348485	-0.7130056005596056	0.3589306464669867	-1.2246426312998593	-0.643007038400367	0.15097658298044644
-88	1.036166665322163	0.614425478814478	1.1523852319232706	0.044477753228902434	0.741780338798724	1.0546187135772729	1.336308714353806	0.6689180714884818	-0.6193429812053217	0.7737604956164804	1.3342540230442963	1.509961124422578	1.005398270929631	-1.6917879538737877	0.2126165027018729	1.1418087453624493	1.338463779884864	-0.14050157332709898	-0.9666225289735447	0.014919650703253	0.5675397500967935	1.1537508935409164	-0.5601806626481798	-1.0537527773001623	-0.6079744681267246	0.049366611862713655	0.7862293104348531	0.09531430130974286	-1.235925194480907	-0.5901194795968225	0.38325530193840973	-1.2037099569447502	-0.6135460718876822	0.11166019709529
-84	0.7236401420442916	0.29006868527610036	0.7475880365570406	-0.11005818816054531	0.37289523984222145	0.7326906304934262	0.8774728156823908	0.37383183742553483	-0.6510447843326799	0.5415660129225333	1.0657465431008746	1.1953085630755809	0.82460850269025	-1.1569119662639535	0.05116026463108856	0.8949414469058343	1.0372539732494106	-0.16817763405300765	-0.8417417981830337	-0.05301461355414307	0.49071207518662346	0.9408785677043134	-0.6765795929039223	-0.8908299781242531	-0.5733389243909288	0.09783750002716543	0.534629224381087	-0.2658326023065899	-1.1060910196988436	-0.4045692076005397	0.3648639610138504	-1.038678166628078	-0.4940408753796351	0.11403248430310288
-80	0.28941467331295356	-0.13453140820869594	0.1732439990438021	-0.20222885855638442	-0.031371913771101	0.25969386035202646	0.2270748162496969	0.061221912348672025	-0.5185555206558	0.2095069283917917	0.5689496979653955	0.6008838399975015	0.47052833319122633	-0.4440601456874802	-0.19221517395127255	0.40993547336076436	0.47784465430732165	-0.1860561217140532	-0.6984130722532476	-0.19781590948229044	0.2310111069807255	0.5296804891564597	-0.6664803607326125	-0.7077260595573102	-0.5896236881628325	0.0345342530928364	0.1922375852976515	-0.5197620378722974	-0.9287508106624843	-0.2261539691937256	0.31527879754574867	-0.7743543366908783	-0.31202924172776586	0.16935276942410993
-76	-0.08721112437879303	-0.4670170533786956	-0.3386063269172417	-0.2017297888669401	-0.32654669798421887	-0.18171903445140558	-0.3540233066680515	-0.1390692588156014	-0.26554316215229135	-0.1176040616642523	0.018974587273375206	-0.045283574496618524	0.0805443746798199	0.3175216905206615	-0.4389988768938011	-0.138391434796927	-0.1296726163928077	-0.0813576502534044	-0.5531865344386043	-0.342554031937716	-0.11012809695810975	0.06060434490042311	-0.3910714974066518	-0.541950760903587	-0.6247512086353624	-0.10640392425614001	-0.10955862673278284	-0.545830427222222	-0.7303635459579807	-0.10129430119450901	0.27275457909384687	-0.4642417121133485	-0.10181995455545603	0.27364733746103864
-72	-0.2069150800249224	-0.47838553665497036	-0.5074313866201651	-0.09820339058877597	-0.40048113364197374	-0.3959731449620254	-0.5996809586643264	-0.12035707353960676	0.03412454194155568	-0.3246065966040006	-0.3660145690736895	-0.47503420590629053	-0.15433613917008449	1.0162085269066712	-0.5934978112495174	-0.5334255681875316	-0.5365140424534156	0.19951137849980696	-0.37964856528751223	-0.3961380710137025	-0.3842736472918262	-0.2848743789156185	0.17108187036235606	-0.3989171077670163	-0.6127398594644857	-0.24323402283769824	-0.24603880879749002	-0.31219750563954196	-0.5118711577843402	-0.03373186281747653	0.2787525944824509	-0.1568848188730842	0.10279508654151945	0.40298598903001304
-68	0.024624740642722572	-0.05996803179143966	-0.17958745315032978	0.08595070966239367	-0.23574779868209964	-0.28383433747155856	-0.38612711332108224	0.1368549611689474	0.30487641615187666	-0.3496282985919896	-0.4409206796481196	-0.5196081386798758	-0.0993819830292665	1.550058480163932	-0.5922970756835487	-0.6312314255989818	-0.5823800549108573	0.5988919719834265	-0.14351053499705335	-0.3018129162320905	-0.4742692995018191	-0.37453141713949734	0.8859198071046982	-0.264044105339975	-0.4938750552582886	-0.2893146269169507	-0.1616074289771657	0.10764938565731909	-0.2591826313150787	0.012404895356270582	0.35097718150217344	0.11313237221288049	0.27399006416763183	0.5175790177629103
-64	0.5217596875369009	0.6756112558473462	0.5534337148998638	0.2955081455399244	0.07340719532314471	0.09429664886032015	0.19020488810200845	0.5417472706468376	0.4948267626190144	-0.2189175630049111	-0.2138714635932891	-0.19742552886231962	0.23391917288849107	1.8276474429716933	-0.437949090090345	-0.43647003063630035	-0.2779977314605988	0.964369056174211	0.1552316542520902	-0.06865359825443886	-0.35544922858141303	-0.19366338800172384	1.513697262756956	-0.1214240711841983	-0.2534227364817511	-0.1988048548447457	0.10025282178839749	0.5712849483371547	0.03522405391979012	0.0882334855951411	0.46839150668142354	0.32659655726944764	0.3923347880471543	0.5742695317074574
-60	1.042224285355392	1.417710539099458	1.3688542808304742	0.4575833368669452	0.36134770421349344	0.5381645546677238	0.8506160356980125	0.9275089478917244	0.5853177294258403	-0.034070290539076155	0.1538926508117529	0.29652312323091956	0.6756381971467166	1.7841318800703903	-0.20067718574402546	-0.09897060667322657	0.20132988640499047	1.129768607148219	0.4590601611468164	0.22673968913529335	-0.10793578597474175	0.14578491412548927	1.8272668077111187	0.029992613865706976	0.06012504905183311	0.0073408405111166095	0.41603553190096626	0.9348646974802391	0.35203242213061275	0.22672696354366595	0.5779893979738531	0.4744939494074104	0.4463913727457271	0.5424340353622057
-56	1.303326603459905	1.8031912996542276	1.8606636477223197	0.5090405928157482	0.4691302764492269	0.8035669902540558	1.2696815697084858	1.128704068195218	0.5855572208879432	0.08164012411486239	0.4296153772951472	0.6936737281451876	0.9789200996479102	1.4150210583246932	0.013140173595750529	0.16636706846672042	0.606641529458978	1.0144969199316225	0.6667079312657904	0.46942722678874815	0.12574441699228692	0.46017369511769884	1.7324510769019215	0.16939698116926044	0.34830614836491997	0.24855902728268134	0.6402597411203159	1.1120941610868855	0.6388493760192014	0.4181898821762887	0.6200336202225905	0.5506093488143128	0.4313120533067174	0.41652062430124603
-52	1.1280688018928058	1.604834552527772	1.7424722865934172	0.42396792662390453	0.31886559644301915	0.7218106370821749	1.233070489631242	1.0590180131877478	0.5192183839086736	0.045553076897290025	0.42588758361101653	0.786039290827789	0.9525160765441026	0.812929151389934	0.10816957029212178	0.18985290777433722	0.7374952416873505	0.6778332573943179	0.6840559822931578	0.5523638115288468	0.21247644668816554	0.5815412983516957	1.314887877959219	0.26090970569540756	0.502357720060404	0.4201186586740283	0.6701132638225005	1.0915636988737052	0.8236740210718207	0.6075668915667796	0.5562830553315127	0.5468841777345456	0.3474290064146199	0.21810805742509914
-48	0.5376785383954524	0.8531402923978771	0.9919385884990137	0.22607934417865522	-0.055186666408919165	0.2783583991652241	0.7324946504218995	0.7475475053986957	0.4114360202891963	-0.14833551607827813	0.09006623155980936	0.5184567557596566	0.5673130140286403	0.1562096174587733	0.04024639715523881	-0.0722573993765886	0.5301699624981194	0.2898581616712852	0.47780969618324914	0.4194743622679554	0.09149340517070806	0.43190434466035504	0.7876862267634197	0.26879176429596013	0.4499736714923284	0.4390292454602375	0.4844532894777855	0.9124181247563022	0.8428026416480678	0.7160603982012765	0.385974287012264	0.4550742793514599	0.1999809587913231	-0.013778604532263301
-44	-0.2545905702838869	-0.17055159764145061	-0.13374595310299012	-0.01960746939000243	-0.5305439816431408	-0.38580548665868625	-0.044768031573516005	0.31940466084900676	0.28304949331346013	-0.43582472095126884	-0.477019249188556	-0.0019015810637221975	-0.02184009919016888	-0.3549961438752968	-0.16867218869062162	-0.526082693202256	0.07188452017039579	0.039091486385115816	0.10059022878045791	0.0875085515554713	-0.20237699099943846	0.04984028252296718	0.3749625375340693	0.17344503060896077	0.18669514310907678	0.2786864333269172	0.1413565125472763	0.6241557582355596	0.6698271615283009	0.6767852289278782	0.1420690562714447	0.2740200453038782	6.735501648383659e-05	-0.23947006403544138
-40	-0.9463918781228278	-1.0673308345550045	-1.2200460403156759	-0.23376196563829288	-0.9598858332241043	-1.0467998955046673	-0.8180636146872124	-0.06794451905023927	0.15178003868882897	-0.7234660368773423	-1.0780388089618684	-0.5758253917461013	-0.553576229605162	-0.5834218248896114	-0.4447189260221969	-0.9977081392847705	-0.4585123944627136	0.028933724315429555	-0.3261610857358181	-0.36067324785724036	-0.5628600106333584	-0.43866893538347995	0.19886498103001105	-0.016976380677873354	-0.22070085946628243	-0.02214250894260876	-0.25864869290852877	0.2623678439191889	0.33288794671889543	0.4682935464479825	-0.12749561635252774	0.019859092259931602	-0.2330304527359726	-0.4329281438387547
-36	-1.2945058313111548	-1.5143704376133498	-1.8938277912009054	-0.3577117016820851	-1.2411411969320325	-1.5061070881011316	-1.3517223562445166	-0.30058956070348664	0.03461640319429067	-0.9397402382012671	-1.5195803603907234	-1.0195676062591523	-0.799683807261388	-0.5217652307688511	-0.6974723321471327	-1.3259017434022977	-0.8865613914994406	0.21762454454790192	-0.6667357070301857	-0.808657465323601	-0.868685183716052	-0.8862236119783513	0.22875134589138385	-0.2650358372195665	-0.6606444103727437	-0.3793249418695213	-0.6217106565037568	-0.14513854645801566	-0.0902385709391617	0.1281671222788719	-0.38258507751192505	-0.2686632268798265	-0.47144845009030095	-0.5874292239616775
-32	-1.2275948493481308	-1.412782427081871	-1.9917231747885822	-0.37940132522160813	-1.3569823469233753	-1.6775017934408016	-1.5560761650852624	-0.3565595140991634	-0.05488904179185558	-1.0673683854811182	-1.7020417408886097	-1.2494797675057672	-0.6902242285468105	-0.29812869354318056	-0.8589869715937786	-1.439089890661386	-1.121960637120935	0.43782037386027756	-0.8347355106259549	-1.1509700984505862	-1.0415348980356605	-1.1911356419053913	0.3202876142521578	-0.514422892225377	-1.0207197640397516	-0.701447127478589	-0.8970261789562349	-0.5543071017575526	-0.49792769425562505	-0.26103413039106205	-0.6050625428182197	-0.5356610999888333	-0.6830253583829486	-0.7115085703052065
-28	-0.8680156447429804	-0.9169710255359754	-1.6163860518653677	-0.3383785477678076	-1.3673193420220937	-1.6114926297509522	-1.5032657346918625	-0.3049452297140961	-0.11491841048790456	-1.141943094231434	-1.6540837246141233	-1.3028186526784116	-0.35236245304790087	-0.1089159098497925	-0.9094656086848076	-1.3777505124593195	-1.1838988035829032	0.4864231633779939	-0.8308770635608064	-1.3307918276566142	-1.075942752028989	-1.332799312087581	0.31441903034935675	-0.7088237982973671	-1.2283285825234633	-0.9265925264806166	-1.08499061787376	-0.8905700422690439	-0.7997880557848369	-0.6062116607619431	-0.7981406430120492	-0.7241851669147418	-0.8400106408845481	-0.8188812712021769
-24	-0.4561997938559119	-0.33892333421967924	-1.060269353097003	-0.30544966382155664	-1.3643442357902862	-1.4516500197953242	-1.3626766170429707	-0.26035395198892497	-0.16123641986669798	-1.2220749824187076	-1.5004404745366422	-1.292943116738379	-0.040945064173080484	-0.11186841847070651	-0.8797710515698378	-1.2566211191875662	-1.1677274674497207	0.23153719247534604	-0.7329147439572159	-1.3557316030605662	-1.0295774910681692	-1.3633714879900078	0.1330649700381506	-0.8119474032883173	-1.2708711592059097	-1.041560528032849	-1.2199461429312846	-1.0661425563597624	-0.9466189718188486	-0.8425120690055214	-0.9753909682443143	-0.7980605343696734	-0.9303376651163332	-0.9200180149692005
-20	-0.22191241327525052	0.016085755039372037	-0.6450204832957962	-0.34556057961956305	-1.4159855806840134	-1.3510203327401247	-1.2973008123069056	-0.3173499993418194	-0.22230936530729123	-1.3493599857594534	-1.3853136266064843	-1.3311938013799645	0.001819078573089644	-0.33969712171619976	-0.8306738713272801	-1.1920911043587286	-1.1781923741158042	-0.31778323570127553	-0.6465942247278276	-1.284710404013498	-0.9824109052650122	-1.3658719028320225	-0.17692477956448494	-0.8189795592611633	-1.1884437769448415	-1.0761463614950277	-1.3406431641109289	-1.025398013387071	-0.9423184967091619	-0.9570301747001251	-1.1468802661550037	-0.7585759739797078	-0.9647867655237423	-1.019066450407146
-16	-0.26919194987997175	-0.0030128306167501997	-0.5609383568906515	-0.4809936272874999	-1.5276770553165702	-1.3923706973207837	-1.3773763145003644	-0.49818071597205776	-0.322139768979232	-1.5196872911231805	-1.3932290042033821	-1.4601560794204549	-0.31740829268426257	-0.6860292536581098	-0.8191118815722306	-1.235963699081335	-1.2678447929797247	-1.0107560132256743	-0.6453465803065391	-1.1934654682544896	-0.9883947943528402	-1.4037047589147875	-0.47330954551406895	-0.7553930263520933	-1.0459487411794237	-1.0774964066957817	-1.4652194939813405	-0.7903439978672441	-0.8339764454766567	-0.9855780576618011	-1.309938785106724	-0.6463441236389814	-0.9739233230797152	-1.115341302916761
-12	-0.5301547037090955	-0.3308380237809557	-0.7830493430394699	-0.6722109300807847	-1.6377866226807822	-1.549856062790786	-1.552057500735362	-0.7385367136428813	-0.4588643598892236	-1.6798375802543621	-1.5073702297300227	-1.6313649374781842	-0.8861746765651143	-0.9665048694050551	-0.8672730900802434	-1.3494893278382893	-1.4105910027175919	-1.6216695267742083	-0.7305646520289452	-1.1361072034762096	-1.0451321575480625	-1.4870930872564982	-0.6039926394472026	-0.6628937108469536	-0.9004823542748099	-1.0793522569108227	-1.5820816715351078	-0.474348454469881	-0.6866468769857131	-0.9855464672001499	-1.4485869371080504	-0.5256157504162644	-0.994430181853624	-1.2059549062799026
-8	-0.8072103837613976	-0.732114790021705	-1.0992211075686666	-0.8289862254193706	-1.6468733507538487	-1.706666465265056	-1.6847169356726461	-0.9158276892427806	-0.5936284050258905	-1.74863099610393	-1.6221123892837714	-1.7326990322235611	-1.4381954633641447	-1.0201376650803449	-0.9493014788501924	-1.42663430807412	-1.517400380118212	-1.9440058420690909	-0.8365445115903207	-1.1214659185705482	-1.0949099036229473	-1.568513866279141	-0.48961475367907903	-0.5785663113291775	-0.7797753791195132	-1.0814530822152721	-1.6550679165061697	-0.2407288545252747	-0.5544998631782695	-0.9991720293567582	-1.537489291124011	-0.4556271422326782	-1.0487321588741174	-1.2841938701631788
-4	-0.8785071946852113	-0.9268715358221058	-1.2301706044609513	-0.8491798021811309	-1.4655959569167913	-1.715405936678538	-1.6276944834621827	-0.9067960358613475	-0.6608967168334409	-1.6513754087716568	-1.599203463331479	-1.6472921329869832	-1.686527963194929	-0.7932451347350721	-1.0010626290796154	-1.3505455221410427	-1.481964465214393	-1.865489239751152	-0.8704185463863888	-1.1143246860980387	-1.0542262765970625	-1.5664154251604767	-0.16115067858540508	-0.5170892463980274	-0.6789107305552022	-1.0484549972766117	-1.637044425645913	-0.21941153649724	-0.45975193265233305	-1.026202556880218	-1.5465420445496414	-0.46117913606555405	-1.1271551818999952	-1.3335726227469444
0	-0.6117936953357099	-0.728474615165173	-0.9760418509636182	-0.6687906367582738	-1.0595809194515853	-1.4710642062239692	-1.297503348889341	-0.6477094872334042	-0.5996689185261121	-1.35371291295641	-1.338288661438956	-1.3130278554190542	-1.468058582414114	-0.36098176149781885	-0.9502513980715795	-1.0531297895545428	-1.2327126233449142	-1.397928949641345	-0.7669624070830763	-1.0609469386970989	-0.8570196010886444	-1.4052758181378107	0.25826305085780565	-0.4666927743096138	-0.5745372757711125	-0.929897365606489	-1.4878076277362615	-0.4310160268391878	-0.38863766095268315	-1.0223654482778453	-1.4473186694797218	-0.5185784684439806	-1.1854298084847386	-1.324987050525884
4	-0.035014886320640176	-0.13453209366210914	-0.3228626839115652	-0.30082937999113496	-0.4734501230684168	-0.964658734747088	-0.7184366565685376	-0.1710832859726659	-0.39149612089495966	-0.8818300940184051	-0.8282266834329155	-0.7551317791947023	-0.827891466911545	0.1203378957451987	-0.7539849858321191	-0.5492848740061028	-0.7675978521994223	-0.6607718451029517	-0.5271502719921326	-0.9250135398398582	-0.4901376950286956	-1.0532149049870672	0.6157011374187401	-0.40025851029429976	-0.4462114859282491	-0.690434394523758	-1.1903188198554517	-0.763530908087376	-0.3042142979570609	-0.924442646553641	-1.2219065396929978	-0.5647207484292587	-1.1617315978283231	-1.222804304850338
8	0.6726519448463643	0.6724860651203732	0.5443685041035069	0.16018198390096114	0.1780539299522591	-0.29243454263287433	-0.016293249983182195	0.39989128607876573	-0.08136057088099101	-0.31980496564230765	-0.15553429683517314	-0.07923839966318537	-0.00222842045497046	0.4952692078960651	-0.4242830265777141	0.06855587643957632	-0.15901373286631304	0.16499966341321937	-0.21767160241483327	-0.7127126437312742	-0.004365878634307883	-0.5421296344421063	0.7970762828729824	-0.2949988536539269	-0.2914785139354132	-0.3348775199541524	-0.7623760680977685	-1.0206818554857702	-0.1687579895765592	-0.6895616633171602	-0.8751857854681332	-0.5272908197441581	-1.00856220467561	-1.0029258702705899
12	1.2614605394939513	1.4092801773730008	1.3238277401879297	0.5740883931924423	0.749781666293171	0.38290786646489117	0.6339382513253325	0.8990734792898111	0.23611438214770394	0.21762554292569938	0.5332499729044667	0.5698152170099938	0.6926268321669958	0.6812182647672108	-0.024992497574767937	0.6721587164120932	0.4721850442885755	0.8938266016327701	0.06518557651274463	-0.46946945667946494	0.5058616983039682	0.039708115060211886	0.774048803282531	-0.147794782742241	-0.12426940320349616	0.08726426191947613	-0.25791507894248544	-1.017226335818286	0.036686807778239586	-0.3255553535348175	-0.44381552822593956	-0.36096060184897705	-0.7226296645039657	-0.6735042316598558
16	1.5232505759881463	1.8172372533693755	1.7321708158628952	0.8163798430812035	1.1218951912211368	0.8991204477497755	1.078116771837038	1.184559580673215	0.45969521883297243	0.6264441593566434	1.0939170094527857	1.0619852516064647	1.0059446071022629	0.6896135193579838	0.35871753006013035	1.1515258521570688	0.9998900865105543	1.3783714736470218	0.24704696175667562	-0.2514693730681038	0.9419513917029171	0.5779274091434431	0.6097503289086791	0.023007592128243163	0.03916282569415125	0.4991367744718412	0.24307395456455808	-0.6777819973999405	0.30307850165141104	0.10333143148559606	0.00357971246381814	-0.07216545921225469	-0.3564913263857125	-0.28676858471947564
20	1.3867276871955654	1.779115433969469	1.635061259909953	0.8367283919189885	1.2495253054542605	1.1603606910019504	1.2414346902021656	1.196838495093813	0.532769082631633	0.8530085661332562	1.4419192039324409	1.3258625235461345	0.8599736668808993	0.6007521733375252	0.6631176454968094	1.4549281560404046	1.3346954550423884	1.5407828053674046	0.3158400944841814	-0.08858837164923777	1.2402884928860287	0.9720391010538328	0.42623877417714645	0.1907165343714686	0.1969166244065122	0.8276823142135562	0.6557391865386926	-0.08094576725788516	0.598231314102404	0.49994373195309544	0.38139566682843506	0.2806361012525978	-0.0027959074288797284	0.06993663293347337
24	0.9453235840772156	1.3659101690138717	1.1052533360232852	0.68254285878471	1.1813856333469388	1.1709299057961275	1.1493743629046882	0.9785327886671376	0.47297227263245895	0.9145719385898231	1.577970143148882	1.364706393611027	0.36944490577881967	0.5117366301014218	0.8784228541130671	1.5982847173392307	1.44893979660423	1.3875136340395895	0.3259890369291083	0.03911622603792544	1.3935518229586707	1.1693589657823937	0.3503554454540911	0.3399946681021673	0.3694142987938048	1.0343079540841802	0.9183247066200516	0.5746982083115998	0.8833756424535288	0.7774072865885658	0.617769776215092	0.6139532908197595	0.24640244183318538	0.30736175101880125
28	0.4087351252249858	0.7973028401272015	0.38590410254321816	0.4733581829040829	1.0370639536423463	1.02225184182519	0.903924701315832	0.6466102583772316	0.3596990099408463	0.88843577875896	1.57135998805998	1.2399611441777487	-0.23026058019676987	0.49050077672142817	1.0502620908923495	1.6413024622486267	1.3748048509219568	1.003289100974934	0.3648819020118825	0.19282568942500428	1.4434437715326567	1.1776431769202305	0.45974844578062246	0.4786175179318505	0.5894132837673066	1.1279178829326155	1.0141115162994778	1.0630167695863433	1.1305768461293324	0.8981233216498455	0.6865916234801458	0.8583031871106417	0.34441366704769066	0.37620115185169706
32	0.003870583828079597	0.3377337447222554	-0.2203968459763731	0.3389328113581746	0.9510211920569102	0.8411979654054762	0.629034219584174	0.33196279322735	0.28660106586575734	0.8723486043839878	1.5129158458659235	1.0330984566354515	-0.7029255610838651	0.5584729299750317	1.2475228278134425	1.6460494953558433	1.179392930867839	0.526170729262367	0.5027766215028279	0.43703219184208014	1.451009985121342	1.0526263687260409	0.745508728529301	0.6324787719970472	0.879092333481494	1.1547104091100882	0.9767054294722273	1.2307169406335832	1.3330001797399669	0.8891994930705388	0.6235385521404687	0.9902650092872357	0.3156542173999186	0.2958039633911978
36	-0.12658992377745232	0.17802929833286787	-0.48288878676567104	0.3517376473606203	1.0081502173719628	0.7257660609041281	0.4117263247108419	0.11657521099222068	0.30394631547482737	0.9328486299804465	1.4628930054923412	0.8053297976188373	-0.9195775962500671	0.6920437199286303	1.5125089845617141	1.6399455029090961	0.9300724244477523	0.0977501941239511	0.7484357338128961	0.7915828804057727	1.4601968489973784	0.8672713019409046	1.105584380219532	0.8235878327556931	1.2251456945004935	1.169379231361566	0.872524318876342	1.0531922552221098	1.5012868604903158	0.8248928764497554	0.5121088015024597	1.0393829319461227	0.24527597365441933	0.14965985677603771
40	0.01694718557787802	0.35442772418183144	-0.3382351091905178	0.49013930435410047	1.2009016245086033	0.6992291194428071	0.26582127742411116	-0.00019532388201494623	0.38700729510825815	1.0677640411121383	1.4209514820462925	0.5743578657907915	-0.9049464441339921	0.8349652865309839	1.8229502393473833	1.6024215180947774	0.6668556315751709	-0.1976372445600273	1.036265370613662	1.2028313844829792	1.4745440445864604	0.6782593709987413	1.3717681134876072	1.045553323966982	1.5685030182338193	1.203750845730963	0.7673467974362623	0.6244418009251145	1.6491798120822538	0.7858005742260662	0.4424561548983017	1.0670162412406743	0.23597742557551707	0.04589336726403418
44	0.3036321691953318	0.7457710485702952	0.09575188135767601	0.6542598588637472	1.432848926741291	0.70909744322084	0.14116448128345602	-0.0856838522178274	0.45226362233417255	1.2070805995982885	1.3364589180582607	0.32278007187411506	-0.7988457063533172	0.9102657414342523	2.0940625614702024	1.4852578602484974	0.3987543274825457	-0.3660372784432916	1.2558046547654942	1.5574290713089585	1.4621678553858346	0.5096078502186434	1.3739058936717239	1.254617211035277	1.8212091876778898	1.251969215093171	0.6967614275506915	0.09804327761215233	1.778958912172684	0.8177763203001204	0.4646591830443013	1.1302512855603912	0.3546278169738372	0.0628768576584242
48	0.5454134927330707	1.1456562251729867	0.5896132573500232	0.7228962164747282	1.5668089350242902	0.6669910533277588	-0.031195163648046424	-0.22125343922543875	0.40923175112400045	1.2510600058440626	1.1487666339480929	0.028500437664554543	-0.7653828243958717	0.8280012586669441	2.219465011715115	1.2508298127065214	0.12088652669664862	-0.4954331206687836	1.3028143611439984	1.7319428877018495	1.3814725840975661	0.3569481363821178	1.0161843274209534	1.3833537066819281	1.9014019918119702	1.2761827675070132	0.6531907303531103	-0.38425484202644705	1.8728213262957507	0.9083435512497439	0.5595633373437997	1.247725483605167	0.594060717513355	0.2065761680155852
52	0.5913370236725753	1.3679543699059273	0.9136825180827303	0.6205896719522962	1.492005344438615	0.5038151728307722	-0.289188563093569	-0.44524279124380517	0.21935540382316449	1.1253557176787694	0.8308593609813528	-0.3052066258830986	-0.9038509703704309	0.5114648329219322	2.1281962340982568	0.9029381252380005	-0.16376376110692198	-0.7031831723579339	1.12904381466958	1.6527277189489067	1.209222552107529	0.2039270693875537	0.33461671983159613	1.373126622547898	1.7699304774420608	1.2269687621609908	0.5953523501623766	-0.7382802944617051	1.8953039598296857	0.9907553170939202	0.6451342089577405	1.3852292264296955	0.8703070260962956	0.4042522897050691
56	0.39026018878633995	1.325569745531737	0.9307259297714198	0.3533628276009629	1.1726579636530927	0.20574320800811333	-0.615737555856606	-0.7282712441177127	-0.07880169133317987	0.8200538733758825	0.40774884717037746	-0.6417127831469819	-1.2087675302504626	-0.06290209277484227	1.8239228679383723	0.4898711132556107	-0.435390560719821	-1.061743018330709	0.7661750893322259	1.332796927901796	0.9529593562861781	0.03728975346210395	-0.4936495708876726	1.2079189985295824	1.449509140169687	1.0662428113720215	0.47489350914265344	-0.9413851475789805	1.807384605612879	0.9734776591518548	0.6192924960713244	1.4698137007797387	1.0595189306211754	0.5425091372144331
60	-0.010559413555426606	1.0398288938972065	0.624889670224826	-0.008749244712555171	0.6504964812067754	-0.19172652017347644	-0.9591392254455327	-0.9991506312893378	-0.3968755592816464	0.3869768967394995	-0.06415691210522746	-0.9347760057690373	-1.5966283042651046	-0.8311341383930736	1.3790965045442392	0.07403068225766295	-0.6714221818184632	-1.5484226902968463	0.309793113880018	0.8623173215075505	0.6383700950717727	-0.1514122184268487	-1.2082167833341284	0.928991136589612	1.013955113711982	0.7796611170157673	0.26350611381759065	-1.0091282103809682	1.5855674703620612	0.7807759026841868	0.41765212907248284	1.425531026102113	1.0574108335500818	0.5315163122109068
64	-0.5229443894534656	0.5846701845666353	0.06390139444430108	-0.3894127597513854	0.003831646162655807	-0.6449981315540619	-1.2839856115348594	-1.204487797557105	-0.6594036204855871	-0.10251659129009016	-0.5428537712696543	-1.1712375849716814	-1.9769834230100005	-1.635026331588203	0.8876881577014298	-0.3138622335615932	-0.8754791595289769	-2.051285023278645	-0.12791781095156707	0.3587005427364123	0.28180444169421287	-0.37607851529538133	-1.5710819919974495	0.6196506603808755	0.5540389404613851	0.37618929052741673	-0.032184783288043986	-0.9656648015437117	1.2387196986395013	0.3886434724055341	0.057977180781613555	1.2146244018405947	0.8345858433633018	0.36433541682763904
68	-1.0956979962341777	0.0037487612476920173	-0.6757959110363941	-0.7678399066612441	-0.7110528927970492	-1.1515319318308206	-1.6192239482052486	-1.3646230663178416	-0.8634840824260829	-0.613800643324875	-1.0425028774643688	-1.4049437010579606	-2.3206012190403373	-2.2684094848581435	0.4049403061179743	-0.7071691733625797	-1.0993524762054199	-2.4336090026447903	-0.4691022622662532	-0.09533773338566102	-0.13115662303235623	-0.665723441350521	-1.4773347340477982	0.3667014529983469	0.1380603160948745	-0.11932557791146992	-0.3734684279072568	-0.8283345678396865	0.8150107243941696	-0.1569338734956105	-0.35220017940290954	0.8645694234000578	0.4618759441635415	0.13935688102823887
72	-1.759672637311404	-0.7378358226267371	-1.5643871983131805	-1.2030653923177765	-1.494826551478001	-1.768442149465777	-2.0643441624973824	-1.5840835531294797	-1.0947214337366433	-1.1802569597963217	-1.6385360914822957	-1.7510094598430421	-2.676590197481151	-2.5638601715206497	-0.08815134294426741	-1.1963028877572135	-1.4337778055231254	-2.618066065854008	-0.7005377394155469	-0.49039965744182207	-0.6410520060566701	-1.0576535436629946	-1.0103251908543254	0.21994313542148836	-0.21150486117845732	-0.6702311022049239	-0.7037708741539355	-0.6109452232194745	0.3958209445019757	-0.7439208011918489	-0.6496165378381779	0.46898633123245775	0.09430954581530086	0.032121475704871755
76	-2.609143965809395	-1.7295733646594311	-2.6192164354952685	-1.796996350519783	-2.3873386322782135	-2.5785341197715654	-2.738538258314127	-2.0008666464833316	-1.4789960347027835	-1.8795775127639833	-2.4222314296602105	-2.33147620566144	-3.127175323220364	-2.478026383819268	-0.6635175926622425	-1.87516211989946	-1.9617140243592819	-2.635262721084028	-0.8646054842100559	-0.8771508909967717	-1.2775046793155043	-1.568670388075926	-0.4090329100295318	0.174378081715919	-0.5084615932978619	-1.2210626571343983	-0.9618235802208599	-0.33364266072913595	0.08112188408159059	-1.2155232398815383	-0.6726754290763465	0.16409327048356961	-0.07691691051375406	0.22986112476965492
80	-3.7255992795341957	-3.0279264373625447	-3.8502664468830154	-2.6148643427633367	-3.408681622482163	-3.6197490600748794	-3.6949853803805315	-2.6968388489345445	-2.0940854496537384	-2.765691273382291	-3.4271376046438182	-3.1960918822657267	-3.7091243173412938	-2.1235394424230023	-1.378968592976874	-2.767769091293915	-2.695928566801833	-2.6001965933954616	-1.0159161065201414	-1.311238166359547	-2.0112993666413175	-2.1596751158547174	0.04285408173112689	0.1849318887094606	-0.769371448004881	-1.688711638955407	-1.0895954342989016	-0.025881536239606116	-0.032580431468483516	-1.4068285191302894	-0.31920045533652186	0.08664587863265391	0.11199504853821213	0.8548145272607461
84	-5.09396408702301	-4.567501056583403	-5.19750164627088	-3.614034405166822	-4.501389968951245	-4.824361788967118	-4.855436789651601	-3.6256813911451067	-2.896566860515241	-3.799464693013475	-4.573771465197942	-4.266195763307261	-4.355773437946821	-1.7207789377636051	-2.209454292441073	-3.7808356189638292	-3.5416781812894453	-2.631309025796769	-1.1755994528653317	-1.7940688087943863	-2.7309882571887796	-2.7226681640548787	0.1493098732039614	0.20180030116153136	-0.9817088817606201	-1.9686555812722983	-1.0401401493514377	0.277296602025876	0.12008310824116897	-1.1928598850651004	0.4150575090896385	0.326376735340071	0.7388840895117553	1.906456346466873
88	-6.566185457817728	-6.136083587413151	-6.510245306744363	-4.626885879278929	-5.515665517232731	-6.009707435693646	-6.010340675438141	-4.60499666958688	-3.709038486653034	-4.824156272152452	-5.669174656859806	-5.337375150556405	-4.9030933256335745	-1.4830797873246142	-3.0202648563424597	-4.713467586061064	-4.312310684760655	-2.7645070483028835	-1.3069210019493651	-2.2451593819200184	-3.265243998866647	-3.1068532388447925	-0.10918103875966466	0.20749160595005678	-1.093282458406109	-1.9625163028759331	-0.7886908630485724	0.5436351285560421	0.5499952421607425	-0.5340742455349845	1.4311072790253512	0.8927522279134062	1.7642320349973415	3.24874447956016
92	-7.898005942431278	-7.440046291640494	-7.590421180634613	-5.418297753959274	-6.25960682242233	-6.938411218291522	-6.896839124432859	-5.386908517588329	-4.286805142069924	-5.61352394594074	-6.47396467481692	-6.1533226811501445	-5.168694006267929	-1.498459573777178	-3.610159388010468	-5.331595884213575	-4.8039069054433226	-2.923348896275259	-1.331155773616694	-2.530696862507089	-3.452464810237832	-3.184507361955009	-0.577792523832657	0.22960460128035048	-1.0364465687333215	-1.625124331185957	-0.35231512696006867	0.7467880230168853	1.1985353201169946	0.4914735841263512	2.548254245046379	1.7036070780657488	3.0321552676893924	4.642104613981717
96	-8.847603775574546	-8.236362436480574	-8.283093431540813	-5.794854149492934	-6.593790991347883	-7.424018364282278	-7.321514587990783	-5.777615055755942	-4.437362182858017	-5.975349888020381	-6.808667165732131	-6.5209274127354595	-5.064001547425807	-1.68364214472077	-3.8077952765648297	-5.475337491516678	-4.896172034299731	-2.9729597493451942	-1.1785842150495685	-2.536443942341822	-3.226267568072109	-2.9263534472015116	-1.021691438956427	0.3191255322982284	-0.7762129883242167	-1.0090769503865908	0.19009934317753888	0.8592612125636978	1.9382442187010693	1.685352082765769	3.542685499783606	2.599688761823258	4.30312203274528	5.8068823667782405
100	-9.276782012406013	-8.449320771819371	-8.55010793434567	-5.702659592535762	-6.511289103281034	-7.42072723422467	-7.255075436394609	-5.734746441667397	-4.1238093272043495	-5.852150902277962	-6.640249712391475	-6.4019841986192585	-4.666809547085847	-1.8372561885223848	-3.5664334207136386	-5.1405644287022305	-4.619859683770546	-2.8212296891508837	-0.8413930514073334	-2.2404022160232158	-2.6662166051306326	-2.43820618967542	-1.2531647650550573	0.5114827739199643	-0.35024756104732	-0.27439379622799864	0.6984418016919568	0.8455970265973726	2.5974173480258917	2.7692995001493044	4.196863163842416	3.385684481655826	5.313176618513009	6.499390585702432
104	-9.203372932085983	-8.20694825961392	-8.484960534607808	-5.258476720885	-6.152840598784419	-7.047080975860174	-6.847649080153975	-5.389069066746692	-3.4930624873661675	-5.360717283065831	-6.101837619634624	-5.9327478259026	-4.205450524202814	-1.7674735739906222	-3.0011000557469254	-4.489483345140974	-4.149981011403408	-2.5100746091411863	-0.39583358068663616	-1.7406561330716963	-1.9798167893968899	-1.929871554270609	-1.2238843410109412	0.7944136241882986	0.1272787150507377	0.35383680373502013	1.005618688905454	0.6704640967607626	3.007095806159034	3.464886895014819	4.352300156095239	3.887166967114558	5.845623478435799	6.578250868401279
108	-8.76816651991573	-7.759418944795336	-8.243681886840513	-4.690967071133741	-5.737400517283255	-6.52255295060367	-6.347561343379466	-4.971721159780374	-2.8095939088457884	-4.74048517937664	-5.430086598991765	-5.355282769987512	-3.9498140712196945	-1.4243888819018107	-2.340766900828413	-3.779611101144655	-3.721099367283594	-2.221401447409689	0.02379452803683888	-1.2177906005630696	-1.4171820843202136	-1.6227486092604975	-1.0310617659286185	1.1036622496396682	0.5064916001883643	0.6691989285739544	0.9802389716195253	0.3229553095293123	3.0564227027019757	3.5867888836902004	3.954962482003815	4.004417409323412	5.793894753133053	6.041658863072693
112	-8.141273477980416	-7.327014427759612	-7.935571173659677	-4.2215022934188795	-5.443296418752115	-6.051211818676016	-5.967380508615453	-4.686418998330283	-2.325077289433089	-4.2346272361652835	-4.851583945423047	-4.895318495788702	-4.062766064876779	-0.9477832293423069	-1.8161410047454343	-3.2445170797447833	-3.5067210108912534	-2.1779053156225334	0.28924423383164866	-0.8471404292652898	-1.157357928215037	-1.6396386581985671	-0.8418875315391416	1.3529872860127463	0.6710798723443825	0.5734548554247243	0.5919296726540808	-0.15738809068997459	2.7366623809384922	3.1134309690070183	3.080570451588152	3.7457139397464725	5.195788847202939	5.026784407322017
116	-7.432609539339934	-6.976413232355732	-7.552566986089072	-3.9521942038888564	-5.3116593226794375	-5.721226200917841	-5.777358040528319	-4.6019482496421835	-2.1530823653220463	-3.9700910944839296	-4.480700004709049	-4.655396926570227	-4.498393524256662	-0.5944305047286079	-1.5452635249224371	-2.988949291312271	-3.531327000285306	-2.498618119607123	0.34553685697100234	-0.7089170199615604	-1.2255490987353148	-1.938120956295985	-0.7880529741417968	1.4827822409386466	0.5997935518380229	0.126112982312325	-0.05671382681117613	-0.6710985882027947	2.154271358773024	2.201602691813924	1.9261373232848589	3.227151147324028	4.225295533002808	3.7714633846430092
120	-6.65996263729898	-6.601125700496846	-6.986234170441288	-3.824629297136952	-5.232472883365204	-5.4778537611941625	-5.685977444598144	-4.625718581918595	-2.2179257813723217	-3.904999246274858	-4.2835430990788925	-4.580801475403582	-5.010107027755969	-0.5835753068495205	-1.4813781939298625	-2.953445665532158	-3.6654179003679017	-3.0977268140784058	0.2430493676486503	-0.7480010371396466	-1.4870966635351757	-2.3288094938609216	-0.8945269562071128	1.4974014721257969	0.3836294998973649	-0.4767031657581101	-0.7573568801831946	-1.0812240811706233	1.5015507898567149	1.1318856449160062	0.7599335889703291	2.6351270609128616	3.1394817749867783	2.546751492746096
124	-5.790390476866265	-6.018753513399079	-6.126800044803534	-3.671533813743574	-5.024232851694914	-5.183811174656276	-5.51738165416077	-4.573373783009005	-2.304653400324498	-3.872214307545376	-4.123304833492244	-4.513370502520851	-5.273485647238707	-0.9446913576116792	-1.4515312873432313	-2.963928930428786	-3.7064478303790573	-3.7025630380609846	0.11752789437900225	-0.8057546595257237	-1.7215812162802564	-2.57296060866198	-1.0827580663046898	1.4686800204389732	0.1876536304981287	-0.9875205134254821	-1.2780498233952438	-1.2675929037515399	0.9929740403854376	0.20502443559858163	-0.15974059660635256	2.1639881079397756	2.196917528327828	1.579882856194895
128	-4.8187284347943296	-5.120532022899536	-4.978342997379623	-3.328288546742143	-4.558929908686341	-4.725874412049027	-5.133511530313055	-4.288959969182403	-2.18070101187402	-3.689748277885209	-3.8545288942294316	-4.296313274980489	-5.059755789379886	-1.468948598967653	-1.2615942923164896	-2.834456675048885	-3.4976327330974266	-3.9899995226258045	0.12532035974810304	-0.7056805473630727	-1.7358258918805836	-2.5071358617426003	-1.235747572639925	1.5028495750630915	0.17575907662839454	-1.215104100020536	-1.4628703557273837	-1.1889815300486473	0.7924880365390465	-0.3653585901572701	-0.6676812751125151	1.9532296608247948	1.577999707052616	0.9929056738580528
132	-3.827408065669365	-3.98120807596221	-3.714784612813453	-2.739629023310763	-3.856953372754194	-4.100335110802434	-4.524779785176371	-3.7442905808328297	-1.723393435895432	-3.271458617533818	-3.4089968118429397	-3.865863075032725	-4.364729870266737	-1.8001891329137607	-0.806230364194475	-2.4637374815726294	-3.0141589565470848	-3.766867151286694	0.3690091958266116	-0.34452897223271756	-1.4534376822969144	-2.1240909045950715	-1.277114149683922	1.6873986678436097	0.43784668931087944	-1.0987340184127918	-1.2966070142434718	-0.9129877067403378	0.9628339981565412	-0.514706371915213	-0.7400506120117093	2.049124235701703	1.339173432783768	0.7800204138135662
136	-2.977274887197459	-2.8504903244529842	-2.6246995859636026	-1.9983452508064088	-3.089719049282339	-3.4223790082355445	-3.8133845233005963	-3.057396881013725	-0.9847652291230513	-2.6725046567199815	-2.8243594098308478	-3.2757260716703827	-3.419567576357877	-1.6213294226719785	-0.12250241606301032	-1.8738439035789354	-2.366274112449194	-3.0875830572375613	0.8507744648434256	0.25984704428871247	-0.9345858073480393	-1.5643763502678587	-1.2116289108203255	2.046612734395788	0.9561833119092945	-0.7127389293795539	-0.8997557736568323	-0.5948416575672305	1.4572887383861293	-0.3190436951211584	-0.48458570119581973	2.4035489498489806	1.4175627195807883	0.8309355357171835
140	-2.4266214309461236	-2.023657316820688	-1.9648141811355124	-1.2918826309012128	-2.481072181159601	-2.8505985664876228	-3.1666710296788745	-2.4180984436019197	-0.1583761270815993	-2.041931862444105	-2.200592035459664	-2.6416885786117494	-2.5696644718142228	-0.8364399650436486	0.6440795047711029	-1.1722124785391663	-1.7177785591624768	-2.2280521336569357	1.4790188036770304	0.9914314125779005	-0.31678625861295706	-1.021498200698553	-1.1001163693309326	2.5315246518116394	1.6295980173929236	-0.19939450869285869	-0.45179968958273464	-0.40767526523658804	2.158156866346832	0.07719416151822679	-0.07226300221318334	2.9104478285740667	1.6839008288784418	0.9936016176886933
144	-2.232486957635607	-1.6735432105726833	-1.8134783460607506	-0.7914634326979444	-2.166449302925627	-2.4766578611786807	-2.680498116401338	-1.971300239354305	0.5289975391383476	-1.5158395728940643	-1.6183987815050613	-2.050018066952498	-2.09092139669847	0.3647162010998253	1.3366633619893242	-0.4670613694319742	-1.174820777787952	-1.5262623986810426	2.121006721863601	1.7132332281726708	0.2835383408063513	-0.6182256325371833	-0.9949045752201936	3.0474619788476462	2.3391447008203015	0.3286757460878981	-0.08504549392447526	-0.4587816882471289	2.9411013052117623	0.55522042372714	0.35617232232768004	3.4607689293269734	2.0162179419157646	1.1484554977031507
148	-2.305366271874212	-1.7539317563597119	-2.02246522392819	-0.5541006312685719	-2.1000282711414195	-2.255756610897169	-2.313728565096507	-1.7344410375673684	0.9347918009998629	-1.1232664556753773	-1.0780339213810093	-1.494963046114192	-2.0460977502662288	1.598678107993755	1.883877391827224	0.20572750218425467	-0.7182150464998222	-1.1835293739955182	2.6654858521875315	2.3484439790561007	0.8453141429539828	-0.3304724982977935	-0.8900212027013378	3.4998648078293404	3.0135078354092024	0.8567270018881807	0.1890100235935353	-0.7380052190267611	3.7297274972209165	1.0836130353271893	0.758231757156999	3.9859881300425486	2.3546118676818857	1.2572511402812514
152	-2.45269989348099	-2.0359437414265087	-2.302640193847647	-0.4943161594308352	-2.0685124345052914	-2.0238861986560477	-1.917413587497558	-1.598648067252864	1.0651111575891732	-0.7630060295868091	-0.4969848679869483	-0.8863164760146769	-2.257212871574645	2.4827861723204347	2.3403453767816256	0.9010534263749611	-0.2209786022090733	-1.1459076375640147	3.0640058440097344	2.9202070162477916	1.4511285983641455	-0.002410137088472274	-0.7238805871807085	3.8346125982744663	3.65953873664068	1.4702639542652354	0.48160496232509525	-1.1207421989755126	4.516274917644132	1.7188621716017576	1.1988455026876226	4.473515976101698	2.713985674681658	1.3668788636983156
156	-2.490504735380781	-2.2547540607745784	-2.397384160664716	-0.43843257316521994	-1.8060401632487195	-1.5932714898891194	-1.3404700722229381	-1.4092929327669506	1.058092353056723	-0.2640749209412461	0.23435792267757496	-0.12055911838372402	-2.4089565216279305	2.8330492901800017	2.8507633137253663	1.7216238932058077	0.4621205020204375	-1.1424926490548755	3.337203255810822	3.5309071451685683	2.2291860524162797	0.5582708702297533	-0.4318493891780109	4.054113377825871	4.3448791394208595	2.2940223159092	0.9577902531283818	-1.4229147398309476	5.3424906595766934	2.550556414840371	1.7984584524524319	4.951404082194951	3.153371564533009	1.5700215061602834
160	-2.351258748793867	-2.2704279365437214	-2.234181636891582	-0.22509264889153455	-1.1438684434621074	-0.8665122367916065	-0.5409778938940193	-1.0700800391836836	1.1032810183326474	0.5089571463132734	1.1769388884393426	0.8336974361351676	-2.220901483650575	2.755383484559439	3.5615026860916883	2.744066708312376	1.3917267287402562	-0.8613396265217681	3.5474715143284077	4.295361031177961	3.266669026710339	1.4627199136043505	-0.011766664654110845	4.203809727545581	5.145553099038756	3.4051816377497888	1.7369192794815826	-1.4795231781798464	6.25414846748616	3.625914564514879	2.65008186624925	5.453934655724767	3.7219123746362777	1.944323177197074
164	-2.1163945144625256	-2.138417238558535	-1.956418509312227	0.209225102730844	-0.10646664324344655	0.10236801926278201	0.3725547483098017	-0.6020466670094888	1.3451162542714494	1.57111370166839	2.2971978129562367	1.896014685612193	-1.5912144143938247	2.572623246373403	4.533732879636188	3.9622194666961867	2.4947280820803233	-0.15362106224851954	3.7597935104811886	5.268406377842352	4.547671306572433	2.670985453537782	0.4508054543080689	4.340781200893608	6.090896591067277	4.772509562840709	2.8193714547500575	-1.2085599868778785	7.256124001302851	4.898849951773439	3.7524044418963287	5.988942608017801	4.413061130825865	2.5025911267992407
168	-1.9503182123534468	-2.0469999261672713	-1.8138971282938852	0.8088593462549456	1.1030741902157988	1.1386164398056287	1.1993888586280232	-0.120760991864488	1.8231753064854868	2.804062359406019	3.4807231338359204	2.9102048800425755	-0.636707900347118	2.639511816990048	5.708188042534012	5.282506452574818	3.60125087782483	0.8615534879866823	4.0176186460149355	6.408915980370557	5.952435955277941	4.009973992713924	0.8259420970090875	4.5061616783813365	7.13856790647636	6.257156356272511	4.080600251385707	-0.6326766594172019	8.293934801142347	6.233466609475633	4.997239577074345	6.525732500766541	5.15384100566456	3.1808721938886255
172	-1.9746255824779286	-2.1635012572024794	-1.9778690288198373	1.448273178258745	2.217753166321488	2.0507934041697786	1.7704817011955518	0.25093072589462856	2.4733736452598483	4.020402421337497	4.595664489587248	3.7347664738775057	0.38176721238070443	3.145345918343555	6.9368805710175545	6.571147902110618	4.543515670749184	1.8518904400799803	4.337560642735236	7.596335868730031	7.314582329402328	5.264669881880105	1.02407288292777	4.71284054519961	8.189825990980392	7.671747665109459	5.331661210904084	0.14117173814893907	9.26886746927414	7.4573263933729885	6.2152895770508225	7.006853562784249	5.832317337569736	3.867260446321311
176	-2.1682724897954135	-2.4970817502872715	-2.404749148973148	2.0144512602490825	3.0509068888883872	2.7414841582700684	2.057744020988778	0.47342452287355036	3.1785840907907645	5.062182413671855	5.563777909536795	4.330062378441423	1.1972377270035104	4.017994393694651	8.05818174235036	7.721275310095497	5.253259645550271	2.458795779696068	4.7171354174727025	8.686838128092257	8.499201753138747	6.285986884458999	1.0658677789480417	4.951627241984427	9.133380866833008	8.862041451014168	6.4089264707880105	0.9697442626311293	10.076829884836771	8.433227517770646	7.252993088529994	7.3751888088940865	6.34705541915589	4.454231727798335
180	-2.3580548703739983	-2.866089336788478	-2.83498501061884	2.4683043894437895	3.5837335496067277	3.25563453806022	2.1992959920669404	0.6242600663636532	3.8306519888484307	5.872050270513854	6.392377837254352	4.784023272833612	1.6609429079082678	4.972786890826268	8.967966057069976	8.695420243243928	5.793822273885189	2.5103771623173023	5.139509664910948	9.573421454100918	9.452569937682407	7.049248677575893	1.087701079483433	5.203789697860229	9.888870214290815	9.761836980968965	7.238408070408858	1.7191822485433932	10.645863506141797	9.106845832720316	8.033422449810331	7.597156505477227	6.648155195617365	4.8828501578074865
184	-2.312772745015302	-2.996594659869018	-2.9354112074172902	2.8485207485759987	3.947860469387469	3.7363595868190402	2.4198808608947826	0.8499382712839828	4.3678636440625365	6.496298296739293	7.146910172538062	5.254727350319515	1.7890964701304877	5.674536213853105	9.647374128779928	9.518161749650591	6.305370314891017	2.1277346557302814	5.569769368414491	10.216617558434036	10.1970557909053	7.632737140458195	1.267450329441597	5.449201093267236	10.425977680586117	10.393353435978543	7.841397742500958	2.2910380305621207	10.953279467584885	9.507025694686032	8.568998315157351	7.669832210249793	6.749083978779293	5.156203733777491
188	-1.88418471337491	-2.6877188614697776	-2.496921056165363	3.22263955256308	4.320713985978453	4.318025101250134	2.8932454512981627	1.2666306463687154	4.775755870205559	7.025506001854588	7.884253005149106	5.86460302779584	1.7192077593312927	5.918442711192623	10.140327428011416	10.22844121257899	6.899977666600227	1.6593140321799584	5.94966791558156	10.63599679168917	10.781476947266691	8.137580851036615	1.7072856383134194	5.666577324865631	10.7543220248499	10.820239993433473	8.286340692579978	2.6329519682212097	11.017195673783377	9.704131101903233	8.924728371021914	7.6104593084831915	6.706147653814455	5.318861471098754
192	-1.1005490990509095	-1.9312227915642557	-1.5577596386680481	3.6249902156860365	4.805028903273741	5.02780245465221	3.6341173557081587	1.8778306198393167	5.06379603061114	7.516870002841796	8.592843034030254	6.612380964750655	1.6186026293896785	5.724674687237259	10.502891514010091	10.82686040052125	7.5737609672062165	1.4879771433455748	6.200519546112771	10.875112506112316	11.224205942425764	8.603617646429809	2.350755685593233	5.828552231378071	10.896596881058073	11.087591143271172	8.623002030536142	2.73852824473383	10.872239085404239	9.755547498868145	9.1590642697833	7.438097458179838	6.580652697161084	5.41855095448964
196	-0.1541171517057326	-0.9129369235831174	-0.37916707896823226	4.025226106017701	5.36662720278968	5.757843003040969	4.4843454247743075	2.5622346336524395	5.242288099404876	7.950376490547346	9.180499053664729	7.357512455484125	1.6026140410969159	5.305968748047809	10.759863826288544	11.255255670740926	8.193100908574662	1.8221312715302371	6.246664985144214	10.966532679526521	11.488592118821241	8.975982643353447	2.9958650990188094	5.902026161551453	10.86670586703442	11.188709230784427	8.843222595776037	2.6446299486146994	10.547911617351017	9.672585462944792	9.281939483096117	7.1613745508584765	6.4074406462068	5.475164876465844
200	0.7111764532253566	0.10242038194308499	0.7110584360289993	4.348520744788863	5.864999279473306	6.325852378132762	5.200358377678462	3.140138141333388	5.317413793490104	8.246334055107742	9.520414328380257	7.890153388129815	1.7041112141499863	4.935302721914558	10.896361323502516	11.424488038782894	8.566544511147432	2.585217707782645	6.055880531280196	10.919856997576495	11.50718590692127	9.142372108265386	3.3998894605628327	5.859731182562778	10.668360683209022	11.078450174971497	8.89136216779805	2.4275495944722225	10.063763593060678	9.426757788699724	9.254986739633893	6.780866128967605	6.1864771686763005	5.47446154165927
204	1.3380535807205554	0.921927032527247	1.5023624859072167	4.529647338875019	6.150571330754259	6.584343416756258	5.586841569146534	3.4746606262218322	5.3020953998215035	8.327575662568643	9.526891684320933	8.04483030195438	1.8940814685684288	4.799476134580486	10.882890673817288	11.273052187114452	8.55750653967367	3.4640085609716262	5.671357617364548	10.735452624873126	11.237522096872125	9.013205505503121	3.416620007471886	5.698055729784935	10.312029812526639	10.721218082062386	8.714282013826189	2.187273735246097	9.44164941311281	8.987313247878063	9.03007505044344	6.303564055740304	5.898233875641838	5.386943803537946
208	1.7311431125802725	1.5102299413698361	1.9943786809159108	4.562204826280612	6.163537486727382	6.509685499922046	5.595420823275264	3.544187536828154	5.228967176586945	8.183526972136432	9.21465394554627	7.790419082046171	2.123981232048962	4.919429289795211	10.713902446399704	10.820541354516697	8.168938616155197	4.082653512183746	5.212367521477488	10.431614849456162	10.71332928813699	8.593030907870112	3.090504400079917	5.451069818085516	9.837047552068139	10.141624425078453	8.317068078977007	2.019055599837067	8.725501038456068	8.365421274045357	8.600254037124337	5.760275826215979	5.531540856700706	5.198157774198911
212	2.0181958624429974	1.953889245822214	2.3392283857413547	4.505818832465454	5.968532070349606	6.212702735474101	5.327812181372786	3.4381532582262357	5.147596346256498	7.889865378486987	8.701819397890858	7.242823105645514	2.3524529874535713	5.17509125356623	10.429068539037786	10.179085705806626	7.547180156726451	4.193284500979137	4.834171759798063	10.060796712269829	10.05421635950324	7.995503882248596	2.636633389491822	5.188389765037782	9.318244910555725	9.441707587245965	7.7846622270497186	1.9794614265056363	7.990775088162635	7.634709815776701	8.027310351131915	5.211012827114454	5.103894220817519	4.928502070381436
216	2.328670734248235	2.342656129644444	2.6845402649812207	4.44579790900249	5.7090816353662275	5.8693060726753234	4.954049574741983	3.2851600564030337	5.101950632565591	7.572057228044258	8.156480768591436	6.600486738706467	2.545305007230339	5.4072375161026764	10.10437772107093	9.515610670860646	6.908074838363231	3.7846572303585995	4.662690627723688	9.702873205483069	9.42725274566869	7.396795730989193	2.322248452999191	4.993553149013584	8.85019300133705	8.773955323001701	7.258081417832333	2.0685982651935513	7.334349136908574	6.9164719406979875	7.430360298470368	4.732878673048188	4.663240897802864	4.632007110345101
220	2.6776626042472422	2.6619701318289763	3.033761732071323	4.433112133277683	5.515164838217881	5.6161894656483655	4.6040925863372095	3.164132110236432	5.100901590820192	7.3355250173377335	7.716746310778319	6.042031749729467	2.6609008245044055	5.517953381912013	9.817515348443138	8.983065582483514	6.428572161656378	3.058798305418146	4.7345728754670064	9.43579862119643	8.978827453832105	6.954046708669527	2.31387590777802	4.929383742284727	8.513444879018314	8.28206727797895	6.876246911807846	2.23529433639744	6.845031244162049	6.335792525507568	6.939866048457526	4.393144119615164	4.269629467674812	4.373858917637488
224	2.9354023859298857	2.7768645216450967	3.222311250180486	4.445776928167582	5.425344453465408	5.477068410396585	4.301628101932402	3.0576486510326206	5.103534208763985	7.207390767020373	7.4308452418590365	5.648561463399886	2.645004027364365	5.51013897458311	9.609480833587515	8.658619858815356	6.169643863359914	2.307014221088801	4.97834490472825	9.30069634950384	8.775261856811879	6.738596899185409	2.581381314436008	5.0093283526785894	8.34184739867763	8.043541887956168	6.718548757756533	2.409725898380749	6.5705046487858265	5.974178775962791	6.645550711065836	4.222415436574534	3.9700696368118646	4.20277212989195
228	2.9081842825897914	2.5253560479301194	3.030906192756633	4.399787891723634	5.3727259500277	5.364234433935858	3.979500283684417	2.8788535522256122	5.034553038283849	7.126818162090743	7.249979000860602	5.392323957180368	2.452697032458048	5.450941548890284	9.46701047414497	8.521046616975195	6.072433933185424	1.7684663489514945	5.249794469930357	9.282926536011106	8.783438660380101	6.720743162353044	2.9254338667442386	5.190311895617646	8.310254076003488	8.044365862563463	6.779662591983339	2.5483641560110675	6.498507960124827	5.843009933978287	6.566636068931092	4.20210312736068	3.7812073135277102	4.134424675993466
232	2.4782056745903	1.8563524437766006	2.3587517678789527	4.203399647590561	5.237680421956792	5.147877203341971	3.55611394938044	2.549183362246792	4.824715602137612	6.986832124236165	7.071305257110049	5.1860399115280895	2.0831894821977275	5.396628843033757	9.333003974239164	8.473595597807888	6.018334373538076	1.543692942536571	5.403822408384248	9.318445182161664	8.896396614501649	6.804490072236818	3.1024305742136247	5.392095075345009	8.348477342508547	8.194516161256637	6.983314496528982	2.658817522965476	6.562538607240997	5.887945637142423	6.655226213818507	4.273223389327115	3.687643757092793	4.152520169264429
236	1.709750647996527	0.9140948630142454	1.337579604586498	3.821915378457891	4.933004366817822	4.748194682531004	3.017216913234921	2.07333540392976	4.455324638562177	6.703158838514383	6.804558736787426	4.955328451997055	1.6035733182475091	5.338331685893346	9.14043424205934	8.39866540695703	5.9112605899339	1.5988545377418448	5.364698396489619	9.32432363063315	8.988706566050814	6.887305719152972	2.975692503091957	5.534667477939149	8.37564943106299	8.374287584142602	7.224392872690337	2.7910063196288015	6.671583158815052	6.020040020048663	6.828000051425508	4.364108551451167	3.6559021380628254	4.225487221539923
240	0.8435056188267739	-0.0045314524208340005	0.2954393021753826	3.3113226806961102	4.464386451893791	4.188456524764519	2.4402403769871785	1.555561061746414	3.980367650472999	6.2668266138164554	6.4199986295735325	4.682843673327103	1.1350181074096233	5.208712087831932	8.849997498102681	8.211460092793446	5.7267694328679575	1.8303674413245061	5.161369787536421	9.237287498040395	8.96898076654007	6.904628259392441	2.5981879168716024	5.575685963858537	8.337044694832333	8.483656861820572	7.4114608577527035	2.994491092750916	6.748767835744203	6.153506740292746	7.003107053241706	4.422160614292881	3.653267851188983	4.324830521154827
244	0.17161321596686477	-0.6070135220460819	-0.4192244101907209	2.795727484320251	3.9262397190148097	3.5762548356363517	1.9441648672609502	1.1416314811493349	3.509296646794785	5.749362454203737	5.952238544694943	4.398716438631857	0.7960827330517298	4.945042120846268	8.470275857520859	7.886224726793298	5.501067147671199	2.131870502811514	4.906344878207152	9.040270782534398	8.80466840428402	6.836229783918157	2.174557441943242	5.528063283314711	8.224628427721138	8.47089383847633	7.488321762252252	3.268552533480486	6.760677320577415	6.231552585127438	7.122689705985443	4.4344496615030655	3.660907736118425	4.433608997595276
248	-0.13268052008031997	-0.7799686173773872	-0.6448639614990113	2.4013032852580927	3.4409029396920716	3.031161539054206	1.6034406383085742	0.924554822494825	3.157111398355354	5.261741148061816	5.466596112754568	4.134407509855814	0.6375687702294355	4.554594028417748	8.053692797354369	7.450766067766994	5.278566823983691	2.4221928058504933	4.729275691489902	8.766220070640859	8.516116120771823	6.683961374573594	1.9304354142087607	5.4485993247751034	8.073533037782793	8.334384897170592	7.433882694549122	3.541849842665965	6.724467260549208	6.233561500069875	7.157283288051423	4.427769649770664	3.6764898207348455	4.544114578218376
252	-0.12487294493380678	-0.6697120649595302	-0.51404183973229	2.1864945833315605	3.0833437364932594	2.6090323859146576	1.3873343432685576	0.876087603741308	2.987906210031335	4.894508826296118	5.015165793154574	3.880706062055797	0.6092255696174014	4.130882252754119	7.6734437748769055	6.961418134279578	5.062165247534203	2.631019824061049	4.706276881733515	8.480374314831788	8.152855852523928	6.4465994672138915	1.9715366313748877	5.406692014395069	7.940074423770378	8.106083849468188	7.251691323091386	3.6985192205510526	6.691716177257873	6.1671104275447775	7.099448662953301	4.449923504084848	3.7082602884128115	4.650644767463573
256	-0.06215738489431814	-0.6052196606614509	-0.3814421286489202	2.1109003967395807	2.8410437035356724	2.2757234515907765	1.1743696898374307	0.8550183155407186	2.9832694455166746	4.6767320514858435	4.614435184272523	3.587021580222816	0.5851372465619161	3.808765163342166	7.39455555002561	6.47884939465322	4.8064570305589545	2.6811549595851045	4.82277725909441	8.252492883827545	7.771977404999225	6.117665752224056	2.226622099023095	5.450140462466525	7.875494460249344	7.833412627469849	6.965641957816277	3.644864311552607	6.720447523315705	6.056707366910432	6.960805398532833	4.544878471343888	3.7684054279551735	4.747959601812603
260	-0.25674432451276313	-0.9088524557055513	-0.6171337350522997	2.0598912187067455	2.631097071680483	1.9435634563966848	0.8336184599810396	0.6887688023343597	3.0530145091223235	4.574007976427814	4.255080689177608	3.2043361582916647	0.43753382453124334	3.686869373549826	7.252646427916855	6.056807979550559	4.459703911012059	2.49483823146359	4.9909376972074435	8.133354166476973	7.42960832627378	5.709272370229027	2.5049948629076737	5.586299882136183	7.909692267475015	7.57060144420394	6.626360399682402	3.378562203460307	6.851016980993861	5.938381180075388	6.778170568519089	4.735299575294274	3.871808757543348	4.840024459063072
264	-0.8955621100703134	-1.708372946240667	-1.3896150553904851	1.9095038127372548	2.360802882909785	1.5438088139657218	0.32053533115521887	0.27938011218106185	3.0817561071790305	4.521580207852907	3.9322409530542237	2.7404863765190473	0.11679871350840292	3.763281574284638	7.247704010784559	5.742505535886089	4.023397912357766	2.0339977689887947	5.105266081318206	8.14364717334796	7.182018261896443	5.280824647922082	2.6304140024530813	5.786678299599026	8.049157122316991	7.377676945179308	6.31745765998379	3.016054622664735	7.095191937652769	5.859259113777349	6.620308382485767	5.0190172068716565	4.037803639707869	4.951468455211146
268	-1.9260857056626137	-2.8549683021943637	-2.561454766482167	1.5952911336675895	1.9934183308817144	1.0866029235108638	-0.27524691750651487	-0.3296148470662858	2.9857191964107583	4.467953193828145	3.6702604201158073	2.285204881620549	-0.3111295990241199	3.9384212394460905	7.349683266203355	5.576690659748334	3.5825102238804463	1.354207273878929	5.103399263848554	8.274492242902861	7.082654458283788	4.942137228885828	2.5617670948200018	6.00779198083398	8.28294751937077	7.315451603539538	6.14410065053378	2.75262474318762	7.437768440541508	5.872796520664558	6.579292757589322	5.375565992134788	4.287221420907984	5.127483354974271
272	-3.0776746195336955	-3.9995946783175214	-3.761666288415303	1.1482555837250787	1.5788111646845393	0.6682038290319416	-0.765257237409647	-0.967731950223948	2.753516667089787	4.403796661702527	3.522255173373396	1.981222266917145	-0.6936380249630573	4.08542250555444	7.5147599984220745	5.586890683373705	3.2803625977664645	0.6225968583600399	5.0017771594603495	8.499334313868392	7.17003915883831	4.8194947121056275	2.421170943823044	6.217241748371577	8.593115784884057	7.432574730227473	6.20148418768138	2.773337834031931	7.848794440480329	6.027402385752731	6.7433209248998	5.778456673338045	4.634868610124253	5.418764577535976
276	-4.0016450780926185	-4.77959488615656	-4.587361324172421	0.6815707070308779	1.232963558898785	0.4201086450937313	-0.9637462472425253	-1.424861427524397	2.4519455370986174	4.362348068667527	3.542336454984683	1.951652641137309	-0.8711582400261838	4.135196675350648	7.704783897020679	5.773362621989823	3.245626441390542	0.07504586111433371	4.883612143584371	8.788424469693686	7.448168258935661	4.995528685355032	2.412088388075101	6.407928450618411	8.960666633870632	7.745225886817255	6.5320720507688455	3.157794467582755	8.295429208792383	6.347748263545009	7.1570806322596985	6.202580913142479	5.077004419860018	5.853630051138974
280	-4.443836200938596	-5.00070618320573	-4.810055720582827	0.33675995384069607	1.080676076067942	0.4325290609406687	-0.7932352999687089	-1.559919949407833	2.1920926515547317	4.39344834172133	3.747405281142349	2.226181024652871	-0.7629235367586482	4.117422570323502	7.8985490599531	6.096080287801016	3.514007797905937	-0.08009605089469311	4.846720683258812	9.115731216303839	7.870360354579934	5.455598340565538	2.6758179597053906	6.590829355765761	9.36165998002619	8.218315103762468	7.092944604131831	3.8308684729177087	8.744145371294737	6.8144082851024015	7.787674407370483	6.620423777077761	5.577671990617439	6.409070952446581
284	-4.3540921101312415	-4.71341894867105	-4.469577301184884	0.2212449157612574	1.1975775926871617	0.7032740694409869	-0.327221631177629	-1.366817947751509	2.0771055169115744	4.53403614806804	4.098494996213574	2.716866247947091	-0.40779572622337495	4.127371300767133	8.0959882531802	6.480344755977569	3.9990956682327217	0.23453296661767717	4.948624121569646	9.462374663304624	8.346499421981314	6.080560668852161	3.1840317168909023	6.776824934062037	9.764273618841232	8.767781235492874	7.761033515408936	4.591716277927294	9.15945527625204	7.359675388828274	8.522852876125908	6.996404153325768	6.068483814176842	7.0038804831103585
288	-3.8766105077143305	-4.147167195339956	-3.8101653956536947	0.36788892653088656	1.5819961984747157	1.1436032027935266	0.2561859780042393	-0.9611975526383645	2.1569840853591926	4.791278827014512	4.515834320111066	3.2621014035834435	0.06310690178435402	4.240470875524309	8.31222436713621	6.843464834101307	4.533152091978963	0.9208205319044303	5.1760110724420825	9.814954732910051	8.775165535706165	6.695675356172437	3.7442154789806024	6.959154588295302	10.130052540952397	9.28742597142455	8.379573800865094	5.206594454017699	9.502539610712983	7.885055045247179	9.20803067743555	7.285589676582461	6.465790255434482	7.522120456777515
292	-3.246868602184525	-3.5627498536758195	-3.1213183324209424	0.7300916891738466	2.164270395536719	1.6320044953150095	0.7777904252442147	-0.5042802082681357	2.409972423190917	5.1432356704557405	4.918685900667449	3.7132127191254054	0.5023600446415444	4.437986839533686	8.563259103135708	7.1308507739274845	4.955481993561609	1.7444949106041188	5.453663812219592	10.160958264446144	9.08718202203998	7.152330380501672	4.113856782063461	7.107456666167946	10.421315166864979	9.690402960153225	8.825260140071876	5.518367276564288	9.735068296649343	8.296259859119875	9.707745527553287	7.442316990182124	6.700723154316431	7.859076003259547
296	-2.665430777495898	-3.1190111558368017	-2.58756398501366	1.2088462083813674	2.8417963909879957	2.0816118664637955	1.1546180219109194	-0.1134877872581982	2.7573108603480296	5.553106293963153	5.267508970312879	4.014759530421568	0.8253436663770535	4.606938827327338	8.852239586414893	7.343727570112435	5.199822412713996	2.4429383216214804	5.689420685708836	10.486807796704507	9.279513335641305	7.401389580159723	4.15438078785104	7.18056009387034	10.614371272944942	9.947078679720025	9.06414411163672	5.519049630535954	9.830833410238125	8.541949250589413	9.96350858080159	7.4386114886350825	6.749913198595315	7.9690217770603295
300	-2.221802944295882	-2.8281152176979525	-2.232449287500204	1.6925259785835332	3.5147862345647387	2.4768841204096765	1.430278297627908	0.18617813242160036	3.099536411089218	5.981840595401454	5.579875455119932	4.228114594274988	1.042317387810296	4.615899551181667	9.160562492130593	7.538147430461415	5.326165185832511	2.847418539487595	5.8223652692660055	10.776680919141594	9.415851569244838	7.514027576548924	3.9267072578472475	7.149055939744558	10.708109828616477	10.095411275170717	9.162392593139154	5.344275937892498	9.787363981331762	8.634124734060306	10.015168164716572	7.280944328998975	6.648182375335314	7.887047747726279
304	-1.8992785167425634	-2.6095511847414725	-1.9726855705046773	2.091845268690156	4.106878270270777	2.859238378935292	1.7231042341597118	0.44608133918671067	3.356980553734522	6.393073065829257	5.910021767000016	4.482522953160257	1.2289103238550023	4.425444114955978	9.450788474063858	7.792905310982764	5.476308808805485	2.952529899772141	5.851726994045389	11.01451108058947	9.59077355824412	7.636028270515804	3.6650102045986674	7.015680772234618	10.723538371668344	10.216340992882976	9.24373052170577	5.19645928024568	9.630519842628635	8.637921311504334	9.972987149808421	7.014477235250353	6.474318487987413	7.710860232912321
308	-1.6404510695048047	-2.392097705523644	-1.72887277166651	2.357283347853974	4.566776740941921	3.2729725755072905	2.1255862659194213	0.7296621781046795	3.494558087109096	6.749696714526037	6.302025302234668	4.8814802046554275	1.4570482932497124	4.146900166532037	9.67927071988592	8.159464815519938	5.777868256286308	2.8956394122448774	5.827460751125699	11.185927362810494	9.872541402686533	7.89863489064136	3.637996902817504	6.818443281124929	10.690900775620374	10.383696529874994	9.414056754185893	5.238874422197918	9.404290175536234	8.632218339106622	9.952168439533835	6.706716997379911	6.312611563957208	7.548365097061595
312	-1.4135981762482075	-2.1823370401596844	-1.5027903280463344	2.479537003932642	4.860763537532439	3.7104339505929924	2.622547619874065	1.0481094095470764	3.5224301726100147	7.009405118411352	6.744413835663642	5.420093522692532	1.731310840050247	3.998504390158043	9.811289762521355	8.61923310964722	6.2522673449017985	2.860885851312724	5.810178742044576	11.278231592313777	10.253679249624644	8.333284357012237	3.9820344347552896	6.6121177506399915	10.629856082781334	10.613626453305708	9.692228292790219	5.511842713745068	9.147825217992828	8.659832932542763	10.003633473888762	6.415265543953158	6.207559569898708	7.456898193606003
316	-1.2330868213038693	-2.0534114785802826	-1.3687006200566312	2.480397456582447	4.970623957482119	4.09660147586313	3.0822739523315317	1.339808103039734	3.4780456931993697	7.130332928774983	7.157460671473826	5.966163143353634	1.9765355537102889	4.168669690097679	9.832653020829234	9.07548997495036	6.783818227806587	2.9674389287414575	5.826709732603425	11.280935258993962	10.639787647087314	8.839888550374297	4.608565795707019	6.441015227268273	10.535689327342812	10.844067546168725	9.987990354116244	5.917185768446773	8.874104477411935	8.696340538956937	10.080898259460287	6.158493503280645	6.13798282980948	7.409561615356376
320	-1.1270331115878034	-2.0700063653181697	-1.3938267195796807	2.402610295905428	4.9015383596646	4.323931206276726	3.3259668266247138	1.5062458477138185	3.404109946239433	7.087459069477712	7.4230413249475875	6.318765624305439	2.0830414242604793	4.679170596706737	9.752026533300864	9.38710210337504	7.169752102869796	3.2048919119981476	5.85134075594822	11.187566728956257	10.884881945784917	9.22732827717931	5.243955122105745	6.316205008772354	10.380689594762957	10.956906291001022	10.140544865755007	6.273681147948319	8.562753655749288	8.655700661740207	10.060857747425924	5.906239494670698	6.025434001968638	7.3079051786928675
324	-1.0868853303170967	-2.2114918176129312	-1.554950710185455	2.301230901630136	4.693178641867904	4.3170900235852585	3.23467659133579	1.4797003231836714	3.3350675021846223	6.891987306360391	7.442965011878486	6.313070758139398	1.9811633775282558	5.34159182153575	9.594783758734485	9.430603003533767	7.2244686897983	3.4478819283219124	5.8245282026101535	11.000261278989706	10.858674021961924	9.306001639712612	5.582009301397504	6.213372214842528	10.13311574284896	10.835170718493433	9.999596570517605	6.410311682729093	8.175546625476892	8.434603669805748	9.810296987560482	5.599804864096715	5.7769327017842755	7.0374154866878005
328	-1.0471540663030285	-2.358248943096897	-1.7233649448753012	2.2328414860618357	4.4202613718965535	4.0849251643996904	2.825752251166443	1.2746984926465639	3.2933072960675225	6.599646074798677	7.192511540373369	5.910910591460663	1.6957461791140382	5.841273769889653	9.392786955960785	9.158692336800842	6.8786496942419655	3.537468424448878	5.694834694789405	10.734556171017967	10.511063549206744	8.982989288538393	5.455566392476019	6.090692504764081	9.782675718404146	10.425786945723317	9.505625700793082	6.247582896671438	7.68701026883069	7.973096827404046	9.262433028677593	5.191275106674785	5.340203748571725	6.536512358374822
332	-0.9129070020515156	-2.352342599651726	-1.730821724336455	2.2440502586928384	4.177065361920965	3.727431526309965	2.254334920913576	0.9919634436358223	3.293798438339232	6.299694045374098	6.740095598369857	5.2280697690574724	1.3446696962739197	5.9112796634201805	9.177002883629612	8.626209237254118	6.2200188479739404	3.3805825624945127	5.460707173865628	10.421697590264891	9.901251767909457	8.311622598644076	4.929797160099845	5.916489109360397	9.358248687005018	9.775250410195353	8.728043534177187	5.826145157409538	7.113497716109969	7.299527626681549	8.463050820918006	4.681462276083276	4.742198932118895	5.841744885000768
336	-0.6209014638483291	-2.0954804367565396	-1.4768413267995935	2.3590395391032017	4.047964085849209	3.3910152826524986	1.7372221902855665	0.7690060715333303	3.34769128907902	6.085320457353328	6.220783694773767	4.483832347993377	1.0793186398912544	5.491733537160096	8.975012756576112	7.969943503284809	5.454534516868272	3.0049743576475443	5.185634123107484	10.104910825012455	9.17606542177895	7.470630626890424	4.258947838520872	5.69234703534134	8.9255380405145	9.018529869198174	7.840955237619262	5.2754812107407485	6.522617323619865	6.533707602217353	7.561743240338365	4.134146679930935	4.089065064596757	5.083484159986481
340	-0.19671532462045274	-1.624987478921898	-1.0102914546254678	2.569649213025199	4.074111928190419	3.1942860999521705	1.4412188493580984	0.7061175090128179	3.459706297722601	6.015892490457084	5.77522371741359	3.8999345204117906	1.0012669538013896	4.771842467658066	8.810662247347501	7.351343613184026	4.810421931519403	2.540143960261558	4.974558817701677	9.828689550380258	8.508202531314264	6.686051828669879	3.735397806273373	5.456658349565547	8.56290624363953	8.325522401770604	7.050088864646526	4.744883525312801	6.014430030896567	5.843736156968396	6.752770406840054	3.65663074523872	3.526192656197317	4.4339146502129125
344	0.23971860050236607	-1.10901701170348	-0.5191941844229558	2.8333506512632254	4.233986843863433	3.168337337124008	1.403142329488107	0.8136202672443598	3.618590345783371	6.088833316688941	5.486161218143403	3.603793135127371	1.1058551045154184	4.083793629826131	8.700421311346537	6.8897661988830885	4.438135612726669	2.1393418258059564	4.919467436767771	9.622824644588981	8.024429301029326	6.136939986947122	3.525944462457099	5.265758024272378	8.325181940040506	7.830027083655154	6.507938845415958	4.335374344370394	5.679441437687156	5.374618993540987	6.193819507219775	3.352965823291167	3.1754715362484522	4.031547059370883
348	0.5279998169919713	-0.7606416325438284	-0.23109802545374977	3.081163160174302	4.447735775208535	3.244211903964304	1.5245946607244378	1.010288712811815	3.7876994514202544	6.234219535346535	5.344679818964477	3.5856225400041803	1.285874721141601	3.7079353238903163	8.642454125518768	6.617980940322454	4.357564915145667	1.8971544456267104	5.0448112360423725	9.487100577243663	7.758183459721551	5.8909153789562145	3.5914757161063458	5.16374395974112	8.213961580519065	7.575908164924185	6.25884579031976	4.07084940836223	5.55433987168831	5.183956133152003	5.942801937357928	3.2737221635180935	3.0813069265771373	3.9205179115493975
352	0.5520608411202185	-0.7189257126776849	-0.27982482243460827	3.237227193288579	4.605765331083963	3.2953915512807663	1.6420562225845532	1.1746238440421113	3.908975352908496	6.339789374557536	5.26422737699841	3.728503694657478	1.3974014485364146	3.713603487175566	8.607327439511263	6.481488688317211	4.475936401510626	1.8114415361446283	5.286807046893794	9.387954688211755	7.649466495274356	5.898492798218089	3.7377278710410495	5.159234510747378	8.173699358330678	7.507838230251074	6.239859088402365	3.9170563122081616	5.601916775865065	5.219453321630497	5.944251999152363	3.3915185842717115	3.194868794958024	4.0372986691586075
356	0.3048189274721359	-0.9710331534664983	-0.6219223125968198	3.2417366422823206	4.607401836206784	3.207380286701948	1.626135583586663	1.2146910398332853	3.9203712841236205	6.294059737526996	5.130226599138488	3.8840734860585253	1.3456124033333072	3.9356448550994627	8.537049271964088	6.375488741990597	4.654925334621955	1.8049977972235194	5.517255292314166	9.268856978856686	7.585516433637719	6.03811596299619	3.753726472914109	5.219272123510837	8.115339258685543	7.506222229126003	6.3276252586824855	3.8239476584210217	5.724357590527855	5.346703515858781	6.0652513350895445	3.6125600246773804	3.4006047162983317	4.246579159505469
360	-0.10623374554515533	-1.3604745830519482	-1.054903146941423	3.071246854657346	4.39684246860485	2.9370572492832516	1.4530743323832809	1.1176321478282745	3.783460369094531	6.0317230072323005	4.860010611661537	3.950064887564276	1.1414235801488832	4.098343361997649	8.361413934577936	6.200221522889646	4.786387431458014	1.7957215263805457	5.60309504048001	9.07410905454369	7.46073625588269	6.184618457438318	3.552759638399529	5.285518632895583	7.959033469132667	7.449010353354922	6.404537661594989	3.7647917175608545	5.807339653611803	5.415506826079357	6.162028297125479	3.820312728773217	3.5726733117501306	4.408128727273865
364	-0.5091041313669183	-1.6665104585533907	-1.3189653124887193	2.7522883345733566	3.987986554567532	2.5349492962732083	1.2136932580822646	0.9553025340756723	3.5095782191359928	5.566163048996105	4.445207107764968	3.9106714626759422	0.9011443830626588	4.0078358549019395	8.032783488019952	5.908805355412511	4.836416709133216	1.766583080599926	5.471978173745618	8.77826497722666	7.226846199863098	6.265099032796647	3.231696835941702	5.305441842989325	7.675851802519751	7.270154934647553	6.410227282552304	3.7503938580238416	5.77428625556293	5.332077012904987	6.14462326405785	3.929603566738861	3.632717361815209	4.440649498218369
368	-0.7456086259136923	-1.7110513405515317	-1.2269549338834378	2.3605585038668226	3.4660296352615676	2.118109220879095	1.053739783487634	0.8420147278507712	3.1671230713037097	4.991209017549775	3.9536721606569754	3.82039641369427	0.7835428694969642	3.6883735563615803	7.5609412002402925	5.52266548669748	4.836084830471944	1.780323262488148	5.14898489605768	8.404242494345292	6.907097322191382	6.273589595214176	3.007481567419046	5.258114801482837	7.304234009421131	6.983713132392233	6.351675971207212	3.8088199996152214	5.619997010347005	5.0979981293712235	6.006165489291456	3.920165052053218	3.5773904233257454	4.348623741614775
372	-0.7347516994999107	-1.4332220518166428	-0.7494663577231053	2.003592724509896	2.9639062806638288	1.8122389270804202	1.0852652760761916	0.872226534071796	2.8634128498262417	4.45042370626254	3.4939246089460223	3.7500436211320256	0.9009020305776139	3.368331900675467	7.027682763476289	5.112205969301173	4.835350978087322	1.932164902577197	4.745702731548525	8.020245531813815	6.57314823398423	6.246885760747905	3.0776736658593817	5.162604318935892	6.93309782185108	6.666110975601328	6.275758250604208	3.9510652919196607	5.407898889239434	4.799811827939013	5.80868290388307	3.8350956343145066	3.466177216361659	4.204261292333259
376	-0.49205636853917123	-0.8972852207417747	-0.01344611678602958	1.788938279403653	2.6202452116614943	1.6939549403337706	1.3197960820255012	1.0719948979969032	2.70467519077267	4.084233273684884	3.16214298403601	3.732847681157741	1.2553034989134881	3.324071398925642	6.565928919427262	4.756469237716411	4.855408179422181	2.270217889776063	4.4068460353215375	7.713366012172352	6.300903781241406	6.22297142365008	3.4913916499680426	5.065064894285915	6.658962709780753	6.409463389426791	6.226430877224109	4.149870385182985	5.23247192969089	4.557486522612105	5.638809189864938	3.7480103874945807	3.3799991522329242	4.098916043423205
380	-0.10406693789910622	-0.24205379126948054	0.7741779069427885	1.784758444094687	2.5287718709042832	1.7590414241248262	1.6578352409468147	1.3865538800518393	2.7484514643895626	3.971953620419169	2.9966311379115287	3.7420265580113976	1.731461162963991	3.684430351491775	6.302943690599048	4.501843917924708	4.868948924169488	2.7312309673016926	4.240259159826602	7.547784786241527	6.1279225194711096	6.207465632978779	4.103830327163238	5.008869158496399	6.536127550789124	6.2700195154197225	6.211286529117814	4.343901146411854	5.164367662742475	4.458488453098868	5.5566654065029955	3.7160956765766224	3.372702113219365	4.089913357899059
384	0.3174693278403585	0.3867502798806356	1.4248021805076396	1.9887698838567074	2.697508089884393	1.9279949616392387	1.9371069620816261	1.7074379877850807	2.9733600541384955	4.0944261447529	2.9613239690400994	3.7101137544420673	2.148003334344269	4.322766293102178	6.294289573036669	4.340672482021812	4.8186759827070595	3.141180030521431	4.267842758847536	7.5291271019624615	6.034726604484239	6.167405112907803	4.642232406339793	5.006762491936777	6.5470375849412665	6.239558680993455	6.196988566965192	4.466608989882564	5.209318147858478	4.513900268602277	5.566076264633532	3.7471563721463954	3.443297139057365	4.172476757959161
388	0.6730045659239653	0.8817769266753996	1.8324468089568906	2.3193066061590843	3.035632364238231	2.081965202797132	2.0115163275477523	1.9219977807156594	3.2806553757808623	4.334166992688872	2.9637572690522664	3.5745208173149243	2.3403634965935916	4.905704485905303	6.482304556692836	4.217763890108006	4.658432471911684	3.2924997723421443	4.416386593158777	7.592870693110117	5.956591591101189	6.052315696694469	4.847559916655131	5.028205382049875	6.6067981553165085	6.251595481347587	6.131867870108121	4.479390609875929	5.3017554149285635	4.656651961967449	5.618009076239475	3.797194232890423	3.5412263780831887	4.287700165413612
392	0.8895027615023904	1.1806056469673774	1.9774945924423037	2.6381869249493257	3.3797078047299975	2.110815996562792	1.818566436944511	1.9592199276095976	3.5309941679497205	4.518012512244238	2.897959463432257	3.3190410053378785	2.231384510128625	5.082872377914051	6.70797250961429	4.06012009549259	4.388030994780662	3.0563654822431356	4.554773796025937	7.627268771941728	5.818621620746404	5.827784523555302	4.607619750787532	5.009975420700638	6.601704580805443	6.2181529841786025	5.979935630959242	4.38772772634881	5.337219224806066	4.781102645246992	5.641681656898701	3.797738780923716	3.5988778977130234	4.358640659771857
396	0.9162849164716982	1.2455869881653148	1.8848004293538851	2.799503319347949	3.553289404480955	1.95256936057164	1.4028061592924224	1.8109624340111334	3.5998945145317456	4.486781108972259	2.691451304316189	2.9855437203369823	1.8577010584658835	4.693259227347437	6.777078611429561	3.8137740992578646	4.058386792426898	2.4650855002154666	4.555485713901336	7.522128563009184	5.574957356682642	5.499888883056254	4.0083856481439595	4.886354434074274	6.442729456847686	6.076181396402281	5.744191632073238	4.227659691627211	5.226440893329164	4.800286280910227	5.583949551789334	3.69636010190416	3.5709118752921754	4.332518089799969
400	0.7217488866703434	1.0487217876659527	1.5783741434301495	2.708724253491329	3.43991159524267	1.6127928454687999	0.8892908669907488	1.5256072244273258	3.430229416769801	4.1651201143009775	2.336962693989873	2.6515200071147595	1.343681093638171	3.8610145948203565	6.553615076684913	3.471172323999804	3.744891395650649	1.7164063410339223	4.350454796297652	7.22241876686036	5.23373983969135	5.117503153278277	3.281463614761976	4.624102103956368	6.1090974653499375	5.82067059001003	5.466803536917863	4.035396565739338	4.944255339537219	4.690889823514308	5.4366116386481425	3.4889712245591142	3.4596729191216107	4.206822861540658
404	0.3073829702722877	0.585991381119391	1.073277470739942	2.3678524434388617	3.0392336768664676	1.1628479928221478	0.42801913510976997	1.1849977940204972	3.0593502444273724	3.6015973000193897	1.8983938646070406	2.3913748203936334	0.8458616712195071	2.9315082952872515	6.03506325151708	3.0790307444082017	3.508875361166576	1.0915418835737725	3.9606857199806984	6.761570436572475	4.858306872499579	4.75403498402993	2.6866967610237498	4.246245850332727	5.662244782457136	5.509833321965473	5.2083306181063325	3.8230662249363085	4.5486378554896705	4.503874290539211	5.238818632250549	3.2261171259490755	3.313744775035088	4.027170171106786
408	-0.27176222136548683	-0.09262074506740174	0.40301075475985465	1.881688470858019	2.474658721397961	0.7177771907804077	0.13650977577076343	0.8754118658851955	2.606982224558139	2.957122556849779	1.4890249929980806	2.2449746075216814	0.49655723446408695	2.278105968445723	5.367598043241331	2.724151842868882	3.3716449652422975	0.823213932819961	3.48587488248014	6.255593760909025	4.54485129162594	4.4793443566716995	2.391202682179957	3.831113567216406	5.222849355862645	5.240666376233921	5.018794523919338	3.5789637475252642	4.15914009951505	4.3369717488463415	5.055217730156724	2.9909012242144475	3.202320567629029	3.8609371087823443
412	-0.8984455443586877	-0.862889764514528	-0.34393587621637745	1.4196784460463938	1.9460844944457398	0.40208616751243315	0.06618291122893083	0.6646153314022993	2.228417867756354	2.444586509254648	1.231876489390116	2.2109298650234073	0.3656224599190246	2.09714412159731	4.7896337388228645	2.504448169107174	3.317121497362378	0.983927843470716	3.0644633692618752	5.858935818184904	4.387678612121639	4.337076176183724	2.4086244045480805	3.4853446395615566	4.922623145072792	5.108434664226466	4.918022620182064	3.292413226398149	3.9062914749703257	4.286343086864791	4.944571959409466	2.8614535259481317	3.1815273681423424	3.7639117145876124
416	-1.4109377825400196	-1.5382136067654928	-1.0114165518974074	1.1472381324413317	1.6454259115637775	0.313571392698146	0.20264077135422595	0.5908050522192981	2.051913256232991	2.243699306545287	1.21763956239359	2.2658667507184456	0.45143544559943183	2.3142826498729403	4.527025688185837	2.496481173888031	3.319198361599688	1.456335540909288	2.820707790882548	5.700273976239295	4.445908535222914	4.336859692114447	2.623055213027691	3.3003971493363657	4.851469981342524	5.1684503424807025	4.894509779970432	2.9849862977004507	3.8746411702559236	4.401734817835663	4.93505619710439	2.87535642851618	3.2692589677285806	3.7565259838628515
420	-1.6505519110015192	-1.9213335465559596	-1.4091418945974712	1.1572766274797688	1.674218411986994	0.49529909962534446	0.4916865217192737	0.6618764383771404	2.1277694648427423	2.4290773807232484	1.4761190377160287	2.39390038839568	0.6981758457676405	2.651835196475536	4.6908545375646895	2.731873982207906	3.3732144747445605	2.0014691302312	2.8203651833852437	5.827692493984	4.725044715395848	4.461883533656702	2.870486252213168	3.312508336286989	5.022956358625628	5.417299256952517	4.921279417964368	2.7219905784547826	4.06650971339638	4.667562472956749	5.018003927913034	3.0139968319137047	3.4405138405719606	3.8210070036738077
424	-1.5223673543640945	-1.8775805187504706	-1.3845591510148223	1.4340299331698887	2.0041224905913224	0.9239129996815041	0.8713273980076294	0.8599537589295945	2.411823743452967	2.9443368837405806	1.9696732709746239	2.602508538351173	1.023393270769757	2.812407963327819	5.22815130821132	3.1899390140103874	3.50723003455635	2.3849224984036983	3.0495412272707414	6.190046771633597	5.179151045120922	4.683833587265033	3.0287213249032625	3.4854319007612875	5.372907624984517	5.80036734070216	4.978089320012099	2.5926334792482972	4.403872955647647	5.017497050015143	5.161796079954779	3.2139112868227877	3.64431404147343	3.9187807937864494
428	-1.0332312557836758	-1.3867080176628392	-0.8896294809768629	1.8674752665100538	2.4997079309294445	1.5205714664215462	1.2959053483669474	1.1511738271259142	2.7911863256555685	3.6330468562906955	2.610129349794334	2.914713613780582	1.3489114012040062	2.6695315770460915	5.949306473016555	3.8073050879674346	3.764187326464358	2.4999873575034464	3.4247970494586872	6.66282461391529	5.730455860928719	4.975711809947301	3.073983184682786	3.725429525506304	5.78981922595218	6.239076598627729	5.066643225275582	2.6678514413234047	4.766202914602236	5.371260152607085	5.335311399340913	3.398403159144466	3.8315608404696713	4.016062726371647
432	-0.2871062450312757	-0.5471507297053082	-0.006041944943015152	2.310794586069491	2.990689746935318	2.179886574009865	1.742217774760869	1.4968696794864533	3.139664165199331	4.309801567640526	3.290315381325931	3.3417508517771237	1.6251103836991148	2.3486573636838575	6.617561800461452	4.498167026607087	4.163709629990573	2.4175419746397013	3.827010621899006	7.104921799841338	6.296275599795571	5.314577089243116	3.075217000826522	3.922045697800423	6.161592944801139	6.6628866027457	5.207945810520634	2.954250328234594	5.044928061145837	5.672492012961049	5.524693475126197	3.513035765361394	3.9777686495487745	4.101760853901862
436	0.5579063282232274	0.4660954463635053	1.083330390102378	2.650245898231258	3.353989592667244	2.804629318785691	2.198501819781958	1.861992235251009	3.3763701830495814	4.836564051814729	3.917260636929936	3.854979028505639	1.842228288767705	2.1525788252842553	7.054910641978102	5.177671896259911	4.668877589835752	2.3362882078312976	4.145248879457348	7.419565182073063	6.812647802318761	5.676175579998868	3.1400692383642017	3.9982237714911486	6.41850374508634	7.031736356147939	5.424161420478893	3.3756906901008574	5.189556108723802	5.909110531192991	5.734279141253538	3.5493059068713837	4.090472687884219	4.18868683711135
440	1.350322362351567	1.4684711657642073	2.1632940714577633	2.850698225453436	3.560256472181871	3.330904236966862	2.6459586553526777	2.2182340565943215	3.496887436621037	5.166067110370021	4.432683456673541	4.376883495724334	2.0234851786070114	2.376410478314105	7.210556965742848	5.778401360227834	5.180772291454719	2.4630684790413597	4.315524090361674	7.58804128638403	7.243967037985155	6.026305660291633	3.347849599015144	3.9437959094612074	6.5524458719759515	7.337703209470907	5.714066014168341	3.796126117658745	5.222303377317881	6.104783996427722	5.96972177905632	3.5438065439397115	4.196900357140661	4.29669760572903
444	1.988491530166309	2.3194584787935884	3.0554397029028215	2.953813545398783	3.6613128092832956	3.7325706387695243	3.045623056351679	2.540180438304068	3.5618016629891267	5.333971963766902	4.814680564168563	4.800933348932276	2.20327662865357	3.1151099126368127	7.160962563554829	6.256102069318386	5.569139466530094	2.888388626435547	4.338538635744241	7.661262492864203	7.5773477363011645	6.317032321239747	3.696480264867724	3.8153700732223412	6.605721933853161	7.588379363928342	6.036198600787896	4.0724687473474	5.215742574874729	6.289901717517962	6.21535347322986	3.5544898420237008	4.320289124071566	4.429726589462988
448	2.429253810471338	2.94141148778239	3.657615652386502	3.0336205882728513	3.7308969403484573	4.006871690170486	3.339338771018443	2.798079722015728	3.6496291068439217	5.412419782324944	5.0648879877006685	5.0327229372752855	2.3959698616570564	4.172264565424297	7.049204331720293	6.586862547456684	5.726736054266968	3.521322241475727	4.267669666959545	7.717239360398656	7.808363417938366	6.493587477501752	4.090044011280077	3.700998058511713	6.637598497798559	7.784158210174771	6.3115172226818945	4.110875119320745	5.246167169677064	6.470401747579822	6.422176821706705	3.6257111934674193	4.458170402715149	4.561099040913531
452	2.666132204953844	3.3040094292192133	3.9411613841687867	3.1375710884986825	3.7977611922700953	4.152003754623399	3.463803282575538	2.952309839424186	3.800050725879427	5.454171643791796	5.189671503315796	5.028679835021089	2.566850417332192	5.127720819878457	6.99835346362358	6.759637815575156	5.615871892101804	4.1148867503225794	4.17600773710674	7.807163695651355	7.92678497220481	6.507926447649876	4.368026245533073	3.669214239393351	6.685354215909189	7.90236280353478	6.44527433675459	3.895884980855975	5.346441255422432	6.6115732026066985	6.515482886076843	3.7589883709415957	4.5738525275146324	4.635951507307799
456	2.7063574722625634	3.404637328135074	3.930056085200853	3.2517425931847925	3.817664375203243	4.1582302942194955	3.379009953550729	2.962037079008392	3.9835925001657846	5.463861928496335	5.192085729841683	4.815607535601769	2.6330821447650705	5.5367688992900455	7.048870545710392	6.774908525528057	5.285929189687759	4.37959812965913	4.115482796768829	7.922317008043726	7.915586451572683	6.337626918050544	4.369757641250137	3.7299463654759792	6.741950018073427	7.901725272255872	6.363719924118699	3.485082140706629	5.484842286567144	6.6496186088521965	6.424771769515095	3.9063873192388825	4.608645427512238	4.5936980131517835
460	2.569696896740899	3.267935267780751	3.6863582041175227	3.312842837552624	3.7049145605007263	4.020169724804881	3.096582643320186	2.8075227666543623	4.11690949354257	5.4116673332911995	5.079120146325624	4.479787338390552	2.498548978219358	5.1620674002971105	7.151446801249753	6.6504721473632245	4.852229106096467	4.122910966000562	4.092947472729045	8.00045965082129	7.7645506662789625	6.001116260635992	4.0079903501408065	3.8295199774377147	6.762171251390294	7.745915870183433	6.048870071397993	2.9748184605831773	5.580678448892319	6.525251848912285	6.121138557238482	3.9899332422609817	4.509222496092114	4.3987798579737385
464	2.3118145407483124	2.967326395172406	3.3137917434950523	3.2589521325800423	3.4047148141730865	3.762697448767314	2.6926355293955964	2.5157875951191944	4.115866650680213	5.27641867259141	4.878032672010323	4.1322102442363615	2.113308662801005	4.115953435042787	7.212229710489601	6.428736670475543	4.447497356630035	3.348784199842862	4.073948373045568	7.965982417021617	7.489738922282854	5.561155782010457	3.319183341229243	3.8831863305279284	6.692077619822879	7.432911377260314	5.554317460341931	2.4629490313335314	5.547566399873136	6.220725043803457	5.640796647135311	3.937933673453059	4.255699623807393	4.062482346768364
468	2.047061438160524	2.6403078966236584	2.9628100320398874	3.0867400091439863	2.9573523923594527	3.4596455009850833	2.293737644126472	2.1726360266191134	3.9578819174975433	5.086444365057132	4.648009765333995	3.867444505463913	1.5275912246283103	2.836575500956011	7.16065881828582	6.178176387447258	4.171432484585333	2.2721681537481904	4.011683453921766	7.781845549963324	7.146558743553354	5.113543974363712	2.4662160811147116	3.8265859984106987	6.506927950643119	7.013813477927809	4.993839251307784	2.027286047585452	5.342703328948715	5.78090618581355	5.081195341632885	3.7218716050593543	3.877351751074886	3.644647112227594
472	1.93943273531489	2.4685211119316457	2.8115878034177806	2.8750839160809547	2.50591396652779	3.2222957529728835	2.032657856577627	1.9045101356105805	3.7118916417819388	4.924259650195613	4.470302570500681	3.7313337231842683	0.8987925029950493	1.8969541740207707	6.995922547797199	5.978116974042448	4.05804013181376	1.2340978352859968	3.881999244425579	7.479120235633638	6.820450765555896	4.758363711741169	1.6830465751116779	3.653277387932123	6.232125743390151	6.583229048320351	4.5003714447838945	1.7178341106912671	4.991772162232192	5.301045404401791	4.564191329876671	3.371058693957767	3.4431385907026626	3.228641740276808
476	2.147245878520376	2.6137280398182074	3.0105271263408	2.75481127997104	2.233905309759101	3.1547026554567723	1.9920272776854584	1.831135149147275	3.5140495211571747	4.88686989504099	4.416436184223105	3.7105557824866056	0.43903154023905555	1.7389135316814428	6.786537630112954	5.889828190238256	4.073912610258793	0.5644142017419528	3.706648101984997	7.147180062368923	6.596024973428425	4.564628589549639	1.1844431131976179	3.418730965565922	5.936229690823008	6.243422492476619	4.173717011404516	1.5599739512158632	4.577698219185831	4.887385356007706	4.184465397760436	2.959638349690107	3.0326039714541286	2.88381170498409
480	2.7428162028681458	3.1361298481916524	3.6100089458874347	2.837834827887646	2.2634081783369573	3.2965040123680454	2.1626360361811043	2.00832747906032	3.4970152289791128	5.0222005717317835	4.508270729126743	3.7454643154947833	0.3219857803798436	2.4527571139398296	6.624467833006272	5.926060184775685	4.143126000434388	0.4489287126650869	3.5456881433612306	6.887286645666693	6.516861422297727	4.541614997841386	1.0724132033928808	3.205558053506475	5.69662474147678	6.057077392544263	4.03898905688017	1.5509672125758833	4.1980137719022546	4.608521926688575	3.96764706563573	2.5712642604759552	2.700344078875646	2.633453600910373
484	3.649371614779142	3.939472665377274	4.507703769747072	3.1446981350657714	2.5711359912807223	3.584970465191984	2.436226838636716	2.388580077816461	3.710072508027987	5.280922399539267	4.691806781367217	3.7550728226268966	0.5872181043104161	3.714658489385427	6.562992556214461	6.034906372092427	4.180656422550326	0.8516235330061073	3.4616107853276556	6.754197103613795	6.5563216043880415	4.628625381227662	1.2826075521511315	3.071470729702557	5.555455193798531	6.012496456224935	4.03433941776227	1.6491776663150475	3.91417883838425	4.462646473107901	3.8596010110684325	2.2598161640332823	2.452199691303298	2.4452304778351754
488	4.642003524504433	4.78765772564426	5.459533200785096	3.5758104234060286	2.9778835698283683	3.866294374241231	2.644673340795986	2.8260686326201117	4.077139367300207	5.519403443706447	4.84583424298395	3.6647961047151747	1.1000466318967215	4.9206776494722355	6.577599508844818	6.112077220744026	4.119587411016278	1.5293383559715554	3.478003969948132	6.720478517730909	6.61903522727658	4.711081969764597	1.6027175147599848	3.0119225902807583	5.492321477374676	6.02231119542745	4.035945405307044	1.765229101492627	3.722332945008751	4.379179943472442	3.753628006041189	2.0283122011473145	2.2470018806946634	2.250627988855064
492	5.432717786424087	5.407656179126522	6.175481303835899	3.948447932764892	3.22821878571855	3.9627449412431996	2.6367480688280804	3.1346108834280315	4.42061947660146	5.5610399105813055	4.830548751079183	3.431742659487538	1.6014488895037884	5.460568414252941	6.573431475255488	6.04242370987252	3.9271771808654705	2.1342186873911566	3.5551669507866395	6.685057623197536	6.5781888795708685	4.662582862526206	1.7670938924043615	2.9615917131037546	5.429644570947227	5.960283741207833	3.912245263712618	1.7742361977604744	3.5614674001420705	4.255035389647693	3.5430860429954856	1.8365876628282718	2.0237214514183046	1.9838579843024584
496	5.8026113363629985	5.626104340653851	6.456780417352982	4.084726323305222	3.121809236274073	3.762805213964796	2.351689809583794	3.171638957599071	4.544682491272361	5.2872214183832265	4.554347980444736	3.058464280989668	1.823447818920712	5.0056247584801765	6.435928328477406	5.752147183200613	3.6072516350270867	2.3523399770473628	3.602987041913464	6.52386711380836	6.332408889041501	4.3954968341477985	1.5787968595698294	2.8356554436615813	5.270439134642639	5.7197437141967304	3.5817811398673944	1.5561189612201032	3.3535730754106052	4.006947030441292	3.1723112979904395	1.6323860842498983	1.7392865375475053	1.6190345246446305
500	5.713752732156192	5.466817842032572	6.303501590072737	3.904013385452762	2.6262104444955545	3.28712629441992	1.8543293429287422	2.908604852962265	4.334596622967329	4.709465968639527	4.025968541471149	2.5947654181772406	1.6172263581452895	3.6655068304976823	6.096707805499626	5.247624860866011	3.195339433231982	2.0272986837701126	3.5255458265938477	6.156596168232944	5.855927929398553	3.9001300236461605	1.0073052619297602	2.5841603213869995	4.9493512982340695	5.26557491880409	3.049598209311003	1.0544819805225034	3.051703922196311	3.612369766651738	2.6608865193896953	1.386259313898103	1.3956462109615004	1.1856737106905437
504	5.334741578938299	5.147916303988845	5.9261145442115835	3.467751494235492	1.9057142686412927	2.6904041699194186	1.3116923537515885	2.4497709212441223	3.8176517390185825	3.979412068810372	3.3625636015872473	2.126519913072826	1.0257973645060579	1.9363548706757492	5.576807008014643	4.620324123161463	2.750963680951213	1.2187634675726373	3.2730760491703594	5.593629346076418	5.216619001569294	3.2544646180955223	0.21155722385876027	2.2271029892959286	4.469570625464686	4.653625953369132	2.405556672698526	0.3194184295219151	2.668410532889986	3.1187150399623054	2.0908212608955004	1.109805223524	1.041065213436016	0.7546514253636702
508	4.9586810940479165	4.969130503506397	5.642508969366095	2.9516410753114943	1.2471682993872135	2.1931083146991397	0.918092010087436	1.9853711078109062	3.153093806889057	3.328118792714251	2.7464957167901303	1.7523524716957304	0.25964620643864883	0.46415251376266736	4.984544264606398	4.014146317837667	2.3469805658212697	0.17495427981550793	2.8730437683047336	4.938797938275362	4.552105892132526	2.5983307296001237	-0.5317860232278344	1.8485909653721242	3.9065863987519296	4.00826643885471	1.7867983534523297	-0.49139517421634715	2.268627161020314	2.61802601153282	1.5665653904463528	0.8475551583825899	0.7453529815928961	0.4032519449543293
512	4.853260504867056	5.147525297520105	5.709439263233977	2.5585415298714804	0.9191409922281897	1.9759933898627808	0.8062280396133347	1.702113504880738	2.554666035877969	2.961960308226115	2.348737233907655	1.5521541794689437	-0.4097790409709463	-0.2596683793664493	4.468411434336021	3.5688221364516264	2.053237909855135	-0.7648717741728578	2.4196970401707594	4.344361294268358	4.013725747465194	2.0808989949140817	-0.955706355543006	1.5507514437623413	3.374829522195317	3.4683091552906022	1.3223618235580248	-1.164432045857699	1.9309778164748472	2.2012369577145057	1.1695377797162683	0.646832047259881	0.5617365226868236	0.1779148127117046
516	5.121763216438908	5.6917328690831255	6.1778840862700175	2.4189832149467314	1.0381845209612945	2.091646666014266	0.9859456991098475	1.694426651491332	2.1880869810173595	2.9667875691849965	2.2544546070399827	1.5558747013864302	-0.7811786512679173	-0.11313548655556213	4.1478719606580015	3.364133587926667	1.914327974254616	-1.3067645993618693	2.0268874117222007	3.9398486514755677	3.7038104440636945	1.8017716362285519	-0.9307248568878165	1.3946872914387751	2.973912469984879	3.127213470192924	1.083112237103051	-1.52136063191638	1.7009041266412988	1.9162034940023833	0.927924094241537	0.5243787156217192	0.495895861327329	0.07304385286009189
520	5.6533408022244895	6.390503390390188	6.8578109568067855	2.5344870026494974	1.5156779250978416	2.4427132544833765	1.3425165380914896	1.9233661841469578	2.10002350276985	3.272746554694873	2.429374688690637	1.72698974173352	-0.810667929986799	0.6342942102630325	4.061476220367096	3.392643204706494	1.9298883627803933	-1.3142358031470225	1.7718653634158743	3.774681320197019	3.6377727893537144	1.7728838875832247	-0.5241023288845935	1.3647651637906273	2.7452158858607443	2.9985747261634574	1.0604931089329248	-1.502326365492574	1.5656769236135741	1.752693529472274	0.815891919460304	0.45288497095206487	0.5016397225112524	0.03760627647680392
524	6.194348796464044	6.9313659492968585	7.422807674740658	2.793465130428868	2.1133751815844066	2.840598337631035	1.6991140799539237	2.2467718067664113	2.2158880177818854	3.6978084947685455	2.744452707990967	1.9733251283415023	-0.6071382745672819	1.5024559459899887	4.159232605923508	3.5729873090180146	2.0504717775073824	-0.8450267889622461	1.6652176338114768	3.804714431693458	3.748545398784734	1.920201892773111	0.04009610776910741	1.3799109424083937	2.6624011926189035	3.022961132046712	1.1821886271193256	-1.192997094957027	1.4673234187273103	1.6608374076872818	0.7786078433406006	0.37723705077295555	0.5066947924218905	0.0052848518692637765
528	6.4957570865660985	7.079017144450198	7.59471366872192	3.041556112239632	2.5686011249541147	3.105855218675193	1.905449981647026	2.498602860818099	2.3962705074845445	4.039275636011526	3.0387222690155857	2.1803338472631304	-0.34850904257522314	2.068268055462329	4.332958210495879	3.788617362947478	2.191467756460484	-0.11296015949339798	1.6544806915473251	3.9203979870044123	3.9221107860723534	2.11887907446907	0.4914372550954524	1.3396474089178252	2.6523690156727966	3.10319565943203	1.3483700718215228	-0.7836756686451885	1.339688774541195	1.5837105472634172	0.7602129559396861	0.2456538074966966	0.44849014168993684	-0.07472884636131559
532	6.448126299790602	6.805786592466699	7.2986116225029525	3.165255538578322	2.721092455669575	3.1551494518728807	1.9056677770184853	2.573161118686498	2.5179037984219566	4.1671566857985205	3.189395896488565	2.256558174158085	-0.1756175453997327	2.170436615232455	4.469936359564105	3.934471120437509	2.2653639259363896	0.6052278861024091	1.6610580640816832	4.003574361229837	4.047763337406113	2.248063558624722	0.6399179084833921	1.1807299822560648	2.6366243295858394	3.151083938272305	1.4731620512961874	-0.47750073550783595	1.1499319047505097	1.4877936802494194	0.7235268932195044	0.041116922989985524	0.3039866380169161	-0.21838998739417492
