time	FP1	FPZ	FP2	F7	F3	FZ	F4	F8	FT7	FC3	FCZ	FC4	FT8	T7	C3	CZ	C4	T8	TP7	CP3	CPZ	CP4	TP8	P7	P3	PZ	P4	P8	PO3	POZ	PO4	O1	OZ	O2
-200	2.802176706868665	0.819144068080328	3.079487792823185	0.527192948917684	0.13036189940441123	1.0863766642798676	1.2749539581534262	1.3297045197293667	0.4049756814745592	0.2490161054999874	0.7399036865627089	1.2591556278863063	1.449614640390673	0.2282554501492658	-0.28893715070254117	0.7485706787283268	1.5196950397269817	0.3879828741291563	0.5309764133398944	0.2752954952918842	0.6170325859703713	1.2032222717424292	-0.16271831054136235	-0.07262878846666579	0.24120470820563764	0.5258403407172111	0.8463838079064213	0.8161701539414131	0.09905831490779211	0.23929275511884343	0.4611054647247977	0.11566769302490364	0.2162120187784198	0.4943614589607501
-196	2.632153742820393	1.0812666388868855	2.895156376204837	0.3438209286592183	-0.24820734497823324	0.9053630805999201	1.1897051304343937	1.091536876783624	0.32950416124121734	-0.07790578137040352	0.5838872179548426	1.0457930538476634	0.9755545233891649	1.1676284045303542	-0.3975449492431064	0.5682417736011856	1.2668732372723388	0.6169720276514323	0.6698133928553925	0.3031477920507875	0.3615854373385799	0.8831703640574406	-0.3945031454139637	-0.09480621641779903	0.2094981218055484	0.19386766802001454	0.4231031824396865	0.6626883728462208	-0.03184977538292971	-0.12682850626872466	0.032083727338372746	0.024948537286711925	-0.058378066720199503	0.1315999176755928
-192	2.3343515337181455	1.3284208741027248	2.6087217265068725	0.13131156530605867	-0.5273020254173476	0.7527561764785322	1.037507531407645	0.8289077261023996	0.20654967375104943	-0.24589885709191073	0.5745104536810313	0.8943447448084944	0.6380221827610971	1.6493161875091558	-0.37376913333938944	0.6045300349231407	1.0930650206625174	1.075075623658986	0.6458725316907092	0.3580732634563798	0.3225391797028635	0.6923865062398682	-0.32176446833435135	-0.05900599047545199	0.21006102806938595	0.03644632911421012	0.1968794907129109	0.6918897611315642	-0.0798212734829723	-0.3493897310018784	-0.2189170265631095	0.02084179217321724	-0.19382509540259119	-0.07443844508212248
-188	2.067115540053862	1.6047146279827869	2.408045762658062	-0.006787900795786106	-0.5793774113332332	0.6992690545547058	0.9077811814277078	0.6635658724243887	0.0961059776502314	-0.2006119782628058	0.6925953013099893	0.8487309196024607	0.5890127405554273	1.5069494209389709	-0.23496827423853398	0.7985438684329367	1.0311623785687454	1.6378823477400497	0.456241576711794	0.39454802771136627	0.458526937996002	0.6464700086484293	-0.0005433641476807872	0.02391334244531805	0.21849471275478088	0.0557869000814531	0.1935703600526255	0.8392164089949212	-0.04730981948948096	-0.3934155394634931	-0.26169142060966316	0.08224681744075754	-0.18625141633216669	-0.09332919842283277
-184	1.9745801637387244	1.9569377849761993	2.457851165288053	0.002241436619240423	-0.3820444037805325	0.7607806305750937	0.8667525031140895	0.6728624088465348	0.055800657578490585	0.005763276931248714	0.8376405217956835	0.8820531345985915	0.8214228132489827	0.8681070186631904	-0.06270103140736132	1.000982639646529	1.0437295410507492	2.121120924362702	0.17306943194085694	0.3633761098747236	0.6442617757743658	0.6891584378962726	0.40885236756096294	0.11756793379902902	0.19863101789869714	0.17761315360525795	0.3464517584636723	0.9647182201824237	0.03230775512048574	-0.2902968816580468	-0.13661280239899756	0.1745637501839256	-0.06961017084428218	0.04225579638541413
-180	2.083318943485853	2.3569211900332325	2.7708153654714045	0.15851896961244286	-0.02946596026431734	0.8819477535868946	0.908903656095284	0.8386397936628199	0.11039200397276709	0.24685458776614874	0.8819953180933052	0.9146273709093242	1.172633287330218	0.07502274196279983	0.04740507143688184	1.0535960170847989	1.050307271212975	2.3522810876584734	-0.08440396913437742	0.24905370112958455	0.7455841880093961	0.7317954283358048	0.7234832626196389	0.18352635158456074	0.1336759772502005	0.3047707371169567	0.5445454106887536	0.9369295811839797	0.12151651798801154	-0.10532115373246459	0.08068302998437858	0.27480849554297637	0.11452724010639248	0.2674990289610129
-176	2.260613435759785	2.6607131890831264	3.1553108612505247	0.3789702644316808	0.3050093643117125	0.9522092318335736	0.9475957131303169	1.0427211496729851	0.23275309742337177	0.3834284534310451	0.7344020586545411	0.856877920848371	1.409064527768748	-0.4988086509031811	0.03762133782544257	0.8705780484154051	0.973181602882003	2.2302603665309992	-0.20593535848122288	0.08585056640884325	0.6906778794970507	0.70219462932683	0.8193104246434761	0.20299465903052516	0.04308641691058447	0.37223327065901723	0.6921264511753698	0.7118827086595171	0.2003879542059831	0.09979407464104192	0.3169531218155845	0.3812784840971025	0.33587416921692537	0.5171350227650994
-172	2.267683738705191	2.647505038252826	3.2859122670182	0.5281462656038147	0.44009393342484987	0.8526976683068926	0.8573642351438656	1.1184022398368283	0.3498683562982164	0.32408046640589655	0.3831554045540184	0.6569902880293693	1.3482102121646389	-0.6390928609924942	-0.08539200552600214	0.48027068255284444	0.7785395960225051	1.7548896029988341	-0.1448002006928024	-0.05664182067517896	0.5020377623280575	0.5785800800020858	0.6764572245685074	0.1846026028502303	-0.024464821381193956	0.3754405965862833	0.7491624932448075	0.3643843224385538	0.2729475789331423	0.2908969216154857	0.5246264921294249	0.505326865827749	0.5756210670243271	0.7439858894637793
-168	1.8896847915623176	2.134645456646671	2.8742587493807674	0.4819367813817221	0.2655082338305412	0.5166037665675576	0.5503417835645916	0.9364726519782852	0.3763271262681118	0.06125181897911257	-0.09830818300460713	0.33048507487780937	0.9531305408255408	-0.38355231188257566	-0.25867298180121345	0.009871788298001697	0.49367484325699357	1.022951838771665	0.06036867186086653	-0.10817512842523305	0.276925175682896	0.3940476169174179	0.36819860246203523	0.15716598888294103	-0.016275152522957956	0.36085748581377597	0.735481200745475	0.05281680809037474	0.35788556843045594	0.4629431951278727	0.6847015005944456	0.653940318363913	0.8135666230641974	0.9201632118835068
-164	1.0738984319276441	1.110641834315955	1.8508120728494266	0.19360990773433415	-0.2045284355483355	-0.026195801728390918	0.042005509032053585	0.48080864427290654	0.2588114731929994	-0.3304800084830163	-0.5830466136516976	-0.04253492866148284	0.35371789246899343	0.027636224334202635	-0.3985853185127118	-0.3758457889604434	0.19332882713144425	0.20156292566431266	0.30639693063625795	-0.0339428595341584	0.13098886576005944	0.2134697133873561	0.014049845712177218	0.15215477308958575	0.0951336321813042	0.3888062526900047	0.7027009111782738	-0.06481612457361774	0.47083642959929245	0.6235455258838898	0.7950217703774065	0.8155646303566687	1.0157037947759875	1.0279341910158606
-160	-0.01099233419653072	-0.20438420720950437	0.4423670757569098	-0.2745000713093648	-0.8313601592054912	-0.6486893279863929	-0.537913619113853	-0.13204015758079232	0.007182633951798387	-0.730095265452524	-0.9441581344608648	-0.35407766610394936	-0.2163279349110541	0.3060832611939194	-0.44301444180218086	-0.5502533898766129	-0.03834759806845529	-0.5142132626902312	0.47990056751204613	0.14796629510714918	0.13745270634756823	0.09688068156816301	-0.2756721966459136	0.18676976812414717	0.29580432101906556	0.4929425703954543	0.6947056037529339	0.08108554760011114	0.6103338583795569	0.7736747841375098	0.856569645626371	0.9594704484557133	1.136407134047962	1.053174254619433
-156	-1.036139485604214	-1.422379490122216	-0.9116274691453529	-0.7729499916588709	-1.4070628845929545	-1.1756743162989807	-1.0035976146155126	-0.7046765667290109	-0.30679884475496366	-1.0209311221095916	-1.1060659857481012	-0.5217304812610347	-0.5360158668336407	0.28224104571609027	-0.3789649894206315	-0.4792720663367988	-0.15141305289187346	-0.9482372379204148	0.5126451836994392	0.37526509071018527	0.2922902099859151	0.0680840088198227	-0.43547150382722166	0.2542604499596318	0.5343577848294652	0.6585165841642793	0.719442127318715	0.42622491609727114	0.7539169173279575	0.8973234273189793	0.8666566588455327	1.0476213667168877	1.135389682764215	0.9868105028987102
-152	-1.6698197084229656	-2.1581366007676595	-1.7708762839429686	-1.1317505807912862	-1.7405288175507776	-1.460031505713189	-1.2101181714976628	-1.0557924482392265	-0.582422195394607	-1.1338185043319025	-1.0699973079369443	-0.5304537402111786	-0.5056935536014814	-0.011587772489140065	-0.24324810443499087	-0.2299921506797016	-0.15560015996748366	-0.9886549090219833	0.41075581208473694	0.5705367908378228	0.521019338246015	0.10522657606260602	-0.4487471867198818	0.32696548021735344	0.7440414409925697	0.8301674106619024	0.7477837186053442	0.7982594350687867	0.8666295387322284	0.9665320491230041	0.8224250653483505	1.0524997684608577	1.0005850766668807	0.8337917306829642
-148	-1.7444150403803214	-2.2180321160583323	-1.9174065541494922	-1.2375782696949342	-1.7348923639364682	-1.4472979270633923	-1.1305960388249017	-1.1080354424157972	-0.7366483788965198	-1.065253731899116	-0.9038645006247609	-0.43989404924910025	-0.19064451705960056	-0.38129261039787865	-0.09921656523927123	0.06680911017477947	-0.1139365506275791	-0.6244637354343364	0.2434501641802693	0.6742829067372356	0.7194197159723361	0.1562284078229913	-0.3335429719610008	0.3698761453826808	0.870015201756212	0.9418083405558173	0.7366426568506358	1.001148698186454	0.9161561108346638	0.9574473476078548	0.729047773427886	0.9702398156465408	0.7620282749963821	0.6210744365270305
-144	-1.3402268852728687	-1.6998164610861837	-1.4635325633291665	-1.0824021073669898	-1.4206479751958625	-1.1941198080431816	-0.868241367532175	-0.9195955372480992	-0.7398880105411726	-0.8661988951748134	-0.70338004649913	-0.3506093612401932	0.22144995573876705	-0.603264807131688	-0.003611020036238013	0.27975428033769467	-0.10602151575738777	0.036366172043060495	0.09926112716170893	0.6660146696441582	0.8045366982174583	0.16968542294576153	-0.125046610516502	0.35670187979285	0.8885537959553172	0.9503565406646978	0.6601566059611335	0.91594934232246	0.8867666102908842	0.8664786793766827	0.6044076665877258	0.8228400924888737	0.48625847574489534	0.3957887877962006
-140	-0.7386165242620341	-0.9412880516128865	-0.7806642631848044	-0.7577524166049254	-0.9293042397878266	-0.8295544364965798	-0.5910515770294668	-0.6414123757380723	-0.6195017679786025	-0.608547745598727	-0.541902123513573	-0.34355649265333993	0.5219294415647927	-0.5606763944775252	0.02211304748435776	0.3372518411704631	-0.17773652031847034	0.7787673453696169	0.03952937190685267	0.5684052095367471	0.7524949889257858	0.1264396753695141	0.13192334737848868	0.2849418215710116	0.8137076476533799	0.8573491551687755	0.5310982452335077	0.5657596573850707	0.7887806872480222	0.719031212898671	0.477789937243556	0.6521441323981415	0.2545248263608656	0.2133643174744981
-136	-0.26570385627420007	-0.33839604173100507	-0.2853240661569911	-0.40071043270984574	-0.42422684920015513	-0.4824071216324572	-0.4276450563601041	-0.42627149712704554	-0.43545609602658614	-0.34882256300595016	-0.43599727639745794	-0.4287970353267696	0.5846860990067502	-0.30437767428797774	-9.011878114491106e-05	0.2548678808930042	-0.309034734184133	1.3363608088132082	0.0728358922549956	0.43241920958062496	0.6032641514805971	0.05095402138481553	0.38225045703700083	0.17996279849869395	0.6866146904776157	0.704706905493125	0.3955775191333276	0.10299470249636825	0.654793797270297	0.5609530792378739	0.37805285954393664	0.5043234812401334	0.1303806301639846	0.11588705301828445
-132	-0.1185796779380533	-0.13619530166572244	-0.21010313875081346	-0.1232200112808107	-0.02550020434974743	-0.21757683102987968	-0.3918366422297017	-0.3452781728133303	-0.2444048070697429	-0.10740927579702825	-0.3443881264574689	-0.5352764116124241	0.4155393232344639	-0.00836590395990811	-0.018998453345612044	0.11888813197398716	-0.4204913069122232	1.4809516630929267	0.16019247431841513	0.31329271118220225	0.43339800725233285	-0.003805535835850453	0.5648389444395499	0.08464174696294732	0.5549147115048588	0.5498915300790951	0.30549865883943833	-0.2699309580663536	0.525270997151754	0.4381891477965718	0.3189738980823026	0.4124474813061586	0.1334443237988658	0.11258589447921764
-128	-0.2678920619876695	-0.30569595021314677	-0.4849823105011538	0.03842315813138822	0.23656411409255998	-0.013935584539753852	-0.3783376505359544	-0.35689437299266613	-0.07277134787544741	0.13019207087071374	-0.1973657007002774	-0.5477697835443824	0.13013775613829928	0.14923851154318427	0.01903274464272281	0.03898648907831876	-0.415327488327467	1.1141805620673355	0.24631598529615698	0.25030776795133136	0.31587597648024557	0.012586432477346591	0.6275170429598917	0.04073483486619816	0.4543287146541693	0.4375428844372263	0.28729379104558794	-0.40358349579005537	0.43244311104311955	0.3773192455778933	0.2929447285885412	0.38597422740761933	0.23369124472744543	0.1750770504822741
-124	-0.4884904014651971	-0.5750358686233998	-0.7938071469292403	0.12668229607545978	0.4166421879739585	0.2048035854890852	-0.23499323368347066	-0.34465712221866107	0.08343727120552842	0.391501783336199	0.05713272452830966	-0.3745335629067038	-0.12150154232104952	0.09906810497067176	0.14186857604924882	0.09179674810836534	-0.23776808321049958	0.32280519523182444	0.29069343135873627	0.25486057932403766	0.28532028126205744	0.11585824162318888	0.5543375597309559	0.06750991178395678	0.3962946226128098	0.37978362941223226	0.3231294743009062	-0.27504554321464963	0.38599651954470904	0.3734231581796642	0.27397853066889694	0.4067609001857197	0.36480191257879585	0.24776995119481454
-120	-0.5009484874475374	-0.5998937472456373	-0.7749716023906138	0.22189693096880922	0.6058491453133344	0.5066413866603066	0.13075599041350994	-0.1992981279825002	0.23766963123874038	0.6887683254972027	0.41575649275715476	-0.008686591849151246	-0.23755226969347396	-0.07739710788259402	0.3374559572759811	0.2832123332025754	0.08497390874628075	-0.6376782639616114	0.2831026308541433	0.31112208883889714	0.32564049876966417	0.27257895400845955	0.3851601173690101	0.1483523096869012	0.36740401294454067	0.3554613879289165	0.35778257160454413	0.008548554011457977	0.36889868881547705	0.3929933895679372	0.23054891766514285	0.4348323334205865	0.4514073420094912	0.2708648734406589
-116	-0.14118570053694246	-0.17283472375148523	-0.24592965779202064	0.384845732670936	0.8706027843429244	0.8963992573040702	0.6791158897420012	0.10684017810073025	0.3889801790430202	1.0015641425594894	0.8127651194079263	0.4554301786845152	-0.20578293450375584	-0.20292019792822752	0.5601528868837846	0.5480686412325316	0.44559782630951345	-1.431794282159298	0.23828726946750478	0.38760775229820943	0.3855892112056648	0.41482493176631213	0.21173080748506917	0.2357159101972253	0.34095296177612416	0.32856041110054895	0.32999753868709997	0.27679127384874613	0.3476982703967129	0.39236950775264834	0.1439995911062007	0.42422234904948597	0.44000556953919345	0.20734156615837473
-112	0.5402122722338124	0.6515494568587189	0.6811690313307506	0.6183218344336079	1.2138814895499899	1.3039033380012954	1.2461966244705383	0.498020975524463	0.5142104016672892	1.2811536756594408	1.1490269870358143	0.8634852149143308	-0.08655542858443561	-0.1188557144978918	0.7546002249739374	0.7857252339552604	0.7060111147221625	-1.7733082726529539	0.17721185043415963	0.45431649570202115	0.4113978435143141	0.47636312126052505	0.14037406409108516	0.27395704319450964	0.2948710612958511	0.273717670941696	0.20984761363930649	0.3919390728114896	0.292552500224587	0.34187865170947124	0.021569985841889974	0.3435702017216037	0.3195605865993455	0.06012424438913067
-108	1.3027175632011276	1.5849142034569723	1.656338449110994	0.8692188240993788	1.57860290605622	1.6222962100077944	1.6305155712922794	0.8370959737623903	0.5825963601662011	1.4751936160035826	1.3425022329767797	1.0799998017700279	0.04425766680391527	0.21182873791618786	0.8861451126613803	0.9133950448817044	0.7694749812725945	-1.5441203078385315	0.11415763170507345	0.498679398231312	0.37915193938849756	0.4316479552815011	0.23550042450574513	0.23056739510497656	0.22844102921030543	0.19471336852027496	0.02115241991603478	0.31931444921936697	0.19797837684237676	0.24329012570945144	-0.1029704136036836	0.19347561846999423	0.12417406557441862	-0.12869927254608302
-104	1.8427827311720058	2.26017879869118	2.27776479145989	1.0639370652993518	1.88240336896565	1.7687798693822216	1.7031722025785656	1.001853105876631	0.5805576429014508	1.5557528694928169	1.3702311481213094	1.0590001317943603	0.1485489603106799	0.6718875748836945	0.9584417914987767	0.9072468257886456	0.6332765205607069	-0.8458527305228134	0.05721547812679076	0.5308835493035687	0.3077789537288533	0.31295972983500525	0.47497206806426906	0.11886988550215137	0.16724306302761147	0.12377271024925626	-0.16664424496538738	0.12952890959461705	0.09059078968541141	0.12946501341557917	-0.18402054859430697	0.01010915727596237	-0.08331788310234474	-0.2973177127484142
-100	1.9485019396224366	2.4197823940218623	2.296612972183177	1.1530834407304067	2.0606796689458435	1.7294191078391419	1.4759130440642052	0.9493780708185354	0.5289791809078032	1.533443566265451	1.2781990734253845	0.8658019282416115	0.23984962641241275	1.0509895059753518	1.0084961627293656	0.8104141930146308	0.39095958968636857	0.044440891481492224	0.021246554276348948	0.5761846885439003	0.24657365617487043	0.19494301031485356	0.7455363850844069	-0.0011979948000538265	0.15342242977030704	0.1027376053123593	-0.27418583562290233	-0.06019914507568244	0.018783820745608058	0.0469515247947698	-0.18696391535285162	-0.14755345843731593	-0.2385980182822567	-0.3924900283440799
-96	1.5942560394090335	2.028709883336252	1.7248793796859307	1.136566040030532	2.091415876830278	1.5603529175463884	1.085919258237016	0.7305701356562506	0.4783521878563027	1.44861721626752	1.1527245015604757	0.6367323978560588	0.35108932764103523	1.1658259600768972	1.0810949775103658	0.7048953157747843	0.18138718559245642	0.792269943144364	0.03903231759945473	0.6575194580643492	0.24484474895171932	0.15404170712679863	0.8879631139270845	-0.04700485605054793	0.2247507268476438	0.15689955612146772	-0.2564070218288308	-0.16664496022112288	0.029077850208777716	0.03073572359669709	-0.10770298513399804	-0.22236137035972645	-0.3017284862529793	-0.3934052874646176
-92	0.934393582369124	1.2621998755058785	0.8007329086114309	1.056480762675355	1.9919575402512473	1.3477346863098214	0.711022256009712	0.4524331975481304	0.48232835409458535	1.344471808853765	1.069514748734061	0.4995817827486107	0.48551148053613374	0.9687940453865191	1.1959160536135978	0.6623469574418094	0.11146013410560651	1.1429488630048343	0.1553102876795116	0.7759125809153071	0.3193601957841166	0.22353658023663453	0.7747827152717974	0.04570439073825092	0.39045634767180054	0.27450516750648024	-0.13176734712234414	-0.19208300065181683	0.1384126689515746	0.08245334753438284	0.019941976243572822	-0.18689024401209525	-0.2726065211565986	-0.3211571268079459
-88	0.208010792207062	0.3888069381434179	-0.15548364778840312	0.9647236442050845	1.7960078670933237	1.1533334226099636	0.46885561824679534	0.2147221112790534	0.5651478157079961	1.2388542859270641	1.049737927647518	0.5014665710186171	0.5901069030168067	0.5786166176492409	1.326302644242045	0.7008302790113659	0.19685654292473032	1.0180814240500748	0.39967232841673617	0.8994986988245651	0.43801832088507686	0.3704587211792446	0.38074389003946174	0.28595203089043675	0.6162250622449931	0.40434166686968415	0.021563034450210596	-0.211744814576556	0.31780683914054697	0.16484345454081864	0.135224938051229	-0.05964572712621108	-0.18865966749243013	-0.22802096547731143
-84	-0.3836043169350109	-0.37118881847125507	-0.9017286873939167	0.8881096817482171	1.530326839398015	0.9817379688271971	0.361060469431046	0.060488536801207214	0.7033806425455762	1.1134903402825793	1.0490785810686774	0.5864138588404922	0.5773369655337889	0.22085717264681123	1.404031511576621	0.7718036751334448	0.354730426369559	0.5289343582150452	0.7519792895404912	0.9692842339839144	0.5295742736797382	0.5084136711635835	-0.19256930004615025	0.6150828584400461	0.8281563499522581	0.47424256681870486	0.10233432028682721	-0.3103293172630636	0.4979515063111527	0.21660351698547733	0.17532926753600436	0.09982804928847812	-0.10659784051684655	-0.17235650078649847
-80	-0.7501939516200414	-0.9206578708292489	-1.3533554042979499	0.8156889656453563	1.2099697559325469	0.7918322066342387	0.2973205141667115	-0.028380282151571314	0.8343788364325195	0.9292306876563594	0.9873374675618389	0.635688362900809	0.38699972531839083	0.10821788730717084	1.3500661815889692	0.7843620161280442	0.4532117534162209	-0.09107246971978641	1.12291168883057	0.9206096506717473	0.5148755895013031	0.5406295643508313	-0.7550418357859634	0.9231983399924515	0.9351831054918254	0.4210609485009034	0.03681962182762502	-0.509882508421075	0.5935857281003392	0.1785625661871657	0.10139110658796043	0.21295806711789592	-0.07934613505834488	-0.1937562222357271
-76	-0.9043202973422074	-1.2600966660156443	-1.5493581255895896	0.7166088801411149	0.8551922418937341	0.5451338873451353	0.17985215737710897	-0.09329397207785944	0.8883708096963188	0.6618011577109791	0.8035349229552476	0.5473932610042869	0.04843756171752587	0.32069936313722663	1.1194483013499954	0.6562870724320847	0.39093604585174174	-0.5921755418131586	1.3715969289482446	0.7137775999167874	0.34644108923228445	0.4123242189010743	-1.1095405789018653	1.0904512377864262	0.864045796597028	0.21975411419222163	-0.18152198149627563	-0.7379961591207781	0.5371267782001596	0.02010890277613515	-0.08464387782899266	0.21291765516884023	-0.13673596049595377	-0.2987067989913975
-72	-0.8975082613219612	-1.4042433464836181	-1.5549490412554055	0.5735038504426059	0.5111029731244144	0.2540856593392693	-0.013820115441954257	-0.15118323228336097	0.8260268548137442	0.3328661016166404	0.501614211723353	0.30532127541703463	-0.3036057047331183	0.7573050837470156	0.7329537253948005	0.362828372992943	0.1587057705686973	-0.8064709881448258	1.3604460920318175	0.3570916643663746	0.034948259503820404	0.14239460193922476	-1.1383893461096077	1.035379764803825	0.5907649382934655	-0.10337532285578173	-0.48601010319074334	-0.8627372362289328	0.30568873805114716	-0.24715499517505826	-0.34109488043497604	0.06968814117003214	-0.2780446701182409	-0.46282133343193704
-68	-0.7570170741041881	-1.3192572560380922	-1.383168455446434	0.4063324321978336	0.24920712348484905	-0.005955812971903163	-0.20563413150844975	-0.1726225163154594	0.6586296541751326	0.01421614732729356	0.15842671652372467	-0.005440398571315612	-0.4841699886018833	1.182576295727966	0.2772916250380499	-0.04318047676509286	-0.15262418946832917	-0.6991128903857885	1.0240528557671762	-0.08932843781806174	-0.35072246105336896	-0.1830923701670468	-0.852167186969731	0.7479350547980469	0.15502890905339858	-0.4790288197820846	-0.7675003986054607	-0.7767252306401231	-0.06930353475000937	-0.5734336957758824	-0.6036082490940167	-0.2003254289337716	-0.4765651810058035	-0.6453022940555828
-64	-0.47074359536528915	-0.9337632036475709	-0.9929707621299833	0.268262475051691	0.1407800313256254	-0.1333352920026857	-0.2662456922961628	-0.10130552921944022	0.440271644672799	-0.20211349376671292	-0.11275061936521913	-0.24592804846661578	-0.3592925062645045	1.3464997972824826	-0.12881633606812634	-0.4510536182459647	-0.4028829922041012	-0.3582744887366334	0.41505250229949003	-0.5328887091533951	-0.7105008345785333	-0.45243251209471724	-0.37567922378103913	0.2930587224713863	-0.3503480544781576	-0.8209612348810075	-0.9259023046958602	-0.47583976267839606	-0.5133032189760982	-0.8894051886991394	-0.8094512203760709	-0.5427302108413469	-0.6920158845595905	-0.8067408779756873
-60	-0.026217525758711554	-0.21653403287100584	-0.3594126990303906	0.21642698292925952	0.215528815440568	-0.06346055104207472	-0.10553444150267423	0.09996250246559074	0.24129834710234335	-0.25216430361978553	-0.22142113689309093	-0.3033878497570143	0.06699173880591018	1.1221977443972528	-0.3859396269114146	-0.7404998522182472	-0.480866967417672	0.06174845977928842	-0.2971197061189702	-0.8806941487011436	-0.9527704691673617	-0.5814023003204304	0.11579665512413019	-0.21299134141075776	-0.8086432794181804	-1.0559785339397454	-0.9146076417719534	-0.07743245343685659	-0.9320871210407187	-1.1285154790996248	-0.916267631124757	-0.8836268164259782	-0.8820425249718482	-0.9187746024776804
-56	0.5285398946769175	0.7359321098820624	0.44046440609351595	0.27403291990711715	0.4313185800153038	0.1796655650371107	0.25441151793143363	0.40785550968193374	0.11623895138956929	-0.1400475647489911	-0.1490960713436919	-0.15710411926182039	0.6321909411681536	0.5794982299478878	-0.45666399482825065	-0.8347836711788118	-0.36545547750710794	0.4101856340542551	-0.8850125052042179	-1.0707288953450702	-1.0289971802481013	-0.5510007725155646	0.4751057016775181	-0.6426726563440213	-1.116543409389556	-1.1460250587139258	-0.7566999177901389	0.2357632660873798	-1.238218542787495	-1.2444642750791601	-0.9097192264476865	-1.1503010959193163	-1.0095676158211428	-0.9638941859704844
-52	1.0539976331802814	1.6752257304811549	1.1972937553694578	0.40630811350282664	0.6739816052586567	0.4753731179156277	0.6701328141459374	0.7303656321205426	0.08106427619256062	0.05208380507193884	0.03551961472603357	0.10458693626939446	1.0791282626563223	-0.04680196929082534	-0.38098439478052326	-0.7365621309757475	-0.13939005101297264	0.588646350804918	-1.1590962380708778	-1.0923049422342606	-0.9518765187072775	-0.414662479307387	0.635690747086594	-0.9001286007089612	-1.2192451923104957	-1.0983010502742365	-0.5302078114474562	0.3141221694168024	-1.3753020728674177	-1.2224649160038439	-0.8034151772241962	-1.2907439437702986	-1.0494621965614832	-0.9333628988542702
-48	1.3517483438695732	2.276114219640937	1.6309953886815098	0.5282918201459887	0.7971057871720717	0.653960822361664	0.9415624713967395	0.9410013532722408	0.11068078102539416	0.1967406714955795	0.20701532013602034	0.32776221550205453	1.1790046662127525	-0.47886249302125883	-0.25394457514544216	-0.5268332944920173	0.05373119549298481	0.5708391055953603	-1.0532484027973463	-0.984514055150602	-0.7870087007679684	-0.2699095003942886	0.6170727595008484	-0.9492684578770703	-1.1268969745794801	-0.9581371521600989	-0.3292187742027533	0.12569346992229377	-1.3309376206173666	-1.0801196071057237	-0.6314027293476339	-1.2849602666837656	-0.9927514766424083	-0.825918970406973
-44	1.2491306034975544	2.2782013358771227	1.5166827401969283	0.5408743606263058	0.6837593895815043	0.5743454680247095	0.9107759571922415	0.9355614757759043	0.15287290474918774	0.1805402929993035	0.24161264239345046	0.36966636683592347	0.8441060760167252	-0.5503681884221604	-0.17834235682759902	-0.32996275937696135	0.08314072319735838	0.38843375346342135	-0.6596814973388283	-0.816923854672695	-0.6244251116246194	-0.2116861338039228	0.48882889624202197	-0.8201154449737801	-0.9084714032124642	-0.7902529219702573	-0.22281138542664447	-0.2241920823158969	-1.1382867069115639	-0.8605613090722561	-0.4383741010088429	-1.1486821145620147	-0.8499996640679464	-0.6514453275445592
-40	0.6909064037045426	1.6179799992719268	0.8055810311959313	0.377519517183833	0.3005526654284638	0.1918595577402792	0.5397989736279833	0.680993376443041	0.1505206521525494	-0.03919933726427429	0.07391219567472922	0.16770549076177263	0.1718673552703842	-0.3045035890997479	-0.21611812656197443	-0.26052984529521306	-0.10373828533922508	0.10313039992043742	-0.18995101701938982	-0.6611741764541698	-0.5417777286202409	-0.2892632775156063	0.3235813073094853	-0.5930690154360858	-0.6645966155438872	-0.6549482329045201	-0.22977015318079616	-0.5506426082060135	-0.8654102065171366	-0.6192563160520371	-0.2687196128736417	-0.9282369590211731	-0.6511672122727394	-0.4353535760378313
-36	-0.2223965520012163	0.4662277388722503	-0.3390723458312415	0.035054903388925224	-0.2857633225855543	-0.4222861517734906	-0.07826150188952494	0.22667895200242058	0.059935469029023025	-0.41302910342840843	-0.2780853800905197	-0.23716019034113134	-0.6073443278237501	0.0169938802290062	-0.36431768444586315	-0.3770908107773684	-0.4598211932493872	-0.22328592780482565	0.11977227747003068	-0.5672933444959142	-0.5753888473288685	-0.4880554365710469	0.16141368407981246	-0.36850720550958066	-0.4907518910892329	-0.5882040247371566	-0.3198125056298527	-0.693088112511748	-0.5950413331267239	-0.40765753285481215	-0.15622355004445437	-0.687308905773562	-0.43919828423239377	-0.21750481371801164
-32	-1.2752174106826681	-0.8534208514601266	-1.6143840510617065	-0.42733740698687267	-0.9389478540556235	-1.1181884975812033	-0.7758615593395082	-0.3251481942073848	-0.13923461700095205	-0.8245680907411943	-0.7285980563841911	-0.7294603567779796	-1.249284979527133	0.09338518953587728	-0.5660963640225568	-0.6617511494141388	-0.8675752856284916	-0.5532205686906851	0.11215448351200316	-0.5532966838218712	-0.7098573428351629	-0.742140410456903	0.0028649764063146226	-0.23262654186167195	-0.4449527252407381	-0.5921792373011253	-0.43664762267496027	-0.6036367997187919	-0.3994582881378881	-0.25815588170677006	-0.11527457059128009	-0.48771232243426366	-0.2568204396439491	-0.0414635016467376
-28	-2.2253210488402226	-2.007669920620818	-2.705945484958916	-0.9128266549905613	-1.5077962837298013	-1.732247109808015	-1.3908940518548463	-0.8640038349272121	-0.43764358648432006	-1.1450892657933147	-1.1638436288059621	-1.1750910252466813	-1.6099600751283567	-0.29275700376029506	-0.745288966204569	-1.0290975544696495	-1.1966102093048994	-0.8755797721691038	-0.2217427635554869	-0.6065717324201222	-0.8867088533902426	-0.9661189293311089	-0.1692086751957292	-0.2287199044413442	-0.5290129767413054	-0.6371700747615394	-0.5269473777818294	-0.36869117524521544	-0.3165114812012363	-0.1746362443329506	-0.135407402769587	-0.36870035436048765	-0.1306750622072705	0.06326539798499221
-24	-2.8972768710420125	-2.7850329805630722	-3.409960499737235	-1.3234169449771749	-1.8795535516968442	-2.148448461830328	-1.827510829126213	-1.308367368255833	-0.7946600893938226	-1.2913832631885453	-1.486592408241649	-1.476302858440052	-1.699181910039507	-1.1162072391938715	-0.8468224980908605	-1.3609634603471616	-1.3621120418490835	-1.1933155029686133	-0.7460455875634374	-0.6959361416412151	-1.0299291584714563	-1.0932270260866077	-0.36453449634068624	-0.3446223131062001	-0.6928276998193817	-0.6764565093127719	-0.5634609446604667	-0.15322409531531767	-0.3379173866323448	-0.13478423621003363	-0.18539665592592325	-0.33423909460557505	-0.062139868579379004	0.09466358250321164
-20	-3.225839606723702	-3.139385215462486	-3.678919544468335	-1.5878857334101024	-2.0070493170609836	-2.3237938822250253	-2.0636162705772234	-1.613580699661452	-1.1407238216209867	-1.2560298411128872	-1.643047805452533	-1.5970190723152655	-1.6446717935999833	-2.089227671116809	-0.8611848332596773	-1.550598140616366	-1.3535414899984688	-1.4976918659544094	-1.2501294581321787	-0.786929784218485	-1.0768822404375669	-1.100825664601969	-0.5688250050488403	-0.5206755386558186	-0.8589265920887735	-0.668366490107123	-0.5517701492683827	-0.09971661095477129	-0.4157465387815024	-0.10510807457851114	-0.22712016048309527	-0.3550226977444772	-0.030896942984536588	0.07812853137794737
-16	-3.2376511015211515	-3.1400172631140886	-3.583870640289365	-1.6734374719331186	-1.9061565351044096	-2.2781720103919674	-2.118583197013152	-1.7584297612616855	-1.390462037390605	-1.1007525893076588	-1.6293430287232185	-1.5576635559809129	-1.5962518413296538	-2.781507961879955	-0.8246763923804777	-1.5434402188433614	-1.2278666465276202	-1.7481117204399579	-1.5482859572420768	-0.8565652348826688	-1.0061221097339559	-1.0171176169464902	-0.7472848873344784	-0.6761957985971826	-0.9589335298169321	-0.599831341182715	-0.5241267667888897	-0.25128644641375	-0.48834708209719657	-0.06511726213942391	-0.23760691225143382	-0.3874672939531509	-0.012639595163739144	0.04868647816406004
-12	-3.0000693722320717	-2.8826255725560546	-3.2376329817091856	-1.5842987258965757	-1.6356617170999044	-2.067609781767092	-2.01659845796705	-1.7314109758532168	-1.4683437310339993	-0.9212393141375648	-1.484311338491854	-1.413895365006307	-1.6328533846637574	-2.827561848177255	-0.7978596071126428	-1.3603812421784656	-1.077428218982331	-1.8750015449868402	-1.5624138077389391	-0.9022508836854755	-0.850953159568011	-0.9084470845174573	-0.8666237570816997	-0.745315967108584	-0.965621051734557	-0.4997745143670053	-0.5249062167266496	-0.5375263081330803	-0.5136964904213333	-0.027046920663376793	-0.22655950429459226	-0.4001904119878158	-8.03368746137356e-05	0.026021674209699842
-8	-2.577646487403811	-2.4281172691076303	-2.7334365775713922	-1.3546602691780782	-1.2754791942818609	-1.7607418254266856	-1.7744710400602965	-1.5316575726939106	-1.3395204510247742	-0.8039959648814212	-1.2752927509534742	-1.2328770129547897	-1.7243599848126694	-2.114332670595661	-0.8350485542195248	-1.0922175618252405	-0.9883515213808425	-1.8047014429304442	-1.343962665979379	-0.9405810213183459	-0.6898294669854599	-0.8508633949732058	-0.9144358611861444	-0.7040300947534092	-0.9036614872051684	-0.4316911090442095	-0.5914902076092614	-0.8236155489154436	-0.49081924433765906	-0.035959094672014136	-0.23518054127920443	-0.39112561842397126	-0.011028638081720147	0.0004959854401232809
-4	-2.027432436592651	-1.8108750536021132	-2.1373593753257323	-1.0439072821010207	-0.9151812768718235	-1.432562705237802	-1.422695513948017	-1.1876749962384694	-1.0347316238981739	-0.7991919497339433	-1.0851697894355026	-1.0790747376854493	-1.7651206210394095	-0.8555201866484603	-0.9620630716829627	-0.8689327814098239	-1.0101376746423356	-1.4985814056707913	-1.032546517626225	-0.9986669395982067	-0.6178681238787231	-0.8998059011629619	-0.9046320892382403	-0.5780700430580306	-0.8358116128800129	-0.46814185262741215	-0.7399963717851006	-0.9971944068527485	-0.4591590154499268	-0.14863330088282414	-0.31632932940726255	-0.3863977780123239	-0.07820408026500943	-0.06124294533764404
0	-1.4293084108505716	-1.1017588349182166	-1.52702080817925	-0.7315213065751749	-0.6483681185565093	-1.1673774689764833	-1.0352345678895187	-0.7764320949978578	-0.6509882195249308	-0.9160993076083362	-0.9977068279825888	-1.0067691777560037	-1.653382058737599	0.4921232747527627	-1.1685560912192963	-0.8117141107092554	-1.1439318628039883	-0.9951515768675192	-0.777145860617241	-1.0997751923450998	-0.7078081947576033	-1.0676988336309188	-0.8713953473025017	-0.426862626190113	-0.8293798544924734	-0.6556720121042003	-0.9588175987831368	-1.0360147926876588	-0.4736540305576786	-0.3993743647982562	-0.5033532964395738	-0.420888363252392	-0.22520914616945392	-0.1923478538902076
4	-0.9093207097937245	-0.45616659406885585	-1.0237464878938043	-0.5044869767803395	-0.5592741952127243	-1.0509554121186264	-0.7314465623508153	-0.4182724644114165	-0.32234045781768406	-1.1346100540125212	-1.0757423612137602	-1.0501004430961267	-1.3660912479242422	1.4295662605432191	-1.4151847326788332	-0.9836145614585675	-1.3477017845459884	-0.42771837007299274	-0.6641919596115287	-1.2497552601732236	-0.975786206642822	-1.3172024455192932	-0.8559593536700566	-0.31427267114448026	-0.9209714508646205	-0.9869329904434144	-1.2110657661379096	-1.0138136122856425	-0.5704892263314122	-0.7721275071676919	-0.785218058034147	-0.512760757105367	-0.44393095262025567	-0.3983496417478649
8	-0.6168333872480348	-0.08586000629443571	-0.7707740645021942	-0.4323651183656279	-0.694484410916731	-1.1407614917563897	-0.6316940768505603	-0.2358298146731035	-0.16859076874606402	-1.4172747099379608	-1.3332968916609096	-1.2071461647073758	-0.9816834305773653	1.6349183279721426	-1.6474006134402006	-1.3577277626090543	-1.5523245295432817	0.00968253982602734	-0.688861070324239	-1.4293707573088492	-1.3668979371845955	-1.5728499849663133	-0.8865005947619232	-0.28114646602219856	-1.0967544289555096	-1.394565101917294	-1.4444454871902228	-1.0428801748648444	-0.7437094431220089	-1.196328517754402	-1.1035279007706835	-0.6486309154346606	-0.6897812468279583	-0.6450377090380929
12	-0.6525225622868651	-0.15003058276444345	-0.8550770261156742	-0.5365796671671477	-1.0298917267546317	-1.4260126316306823	-0.7856765369606018	-0.29223343656190987	-0.24408271847135107	-1.7147396759609206	-1.7154021219812818	-1.427542921276782	-0.6389714463313932	1.091296312437918	-1.810410614211196	-1.8192253066861945	-1.683319683593349	0.13741430605526864	-0.7802128176064155	-1.5986736972500528	-1.770133490861653	-1.74824165856524	-0.9645609235252586	-0.3332034639052173	-1.299675103720894	-1.7732983782819463	-1.6069242913683213	-1.1923925846512413	-0.9473751163405602	-1.57290136416998	-1.3760766948289629	-0.791067836671569	-0.9018030739904085	-0.8725235440159619
16	-0.9886984800172041	-0.6312097295083384	-1.2240223853678924	-0.7708714584915113	-1.4571672641203837	-1.8067686512153251	-1.1217930288602498	-0.5450673089570893	-0.5114871250590219	-1.9671941945953848	-2.1032953209225997	-1.6192510087139083	-0.461966513421049	0.06503830088645707	-1.8615640354840237	-2.204878563082509	-1.6843315320405015	-0.12221218614717051	-0.8575775601669782	-1.7115973190962956	-2.0584948010924733	-1.7785849526323074	-1.0614974471948544	-0.4487119305725861	-1.4580805264853265	-2.020456785822909	-1.6615829425822501	-1.427035566541735	-1.1207988233879063	-1.816742177191121	-1.533158179226987	-0.902421949015549	-1.0350750658605026	-1.0257297728390533
20	-1.4460724555699043	-1.2910355296918037	-1.6684689479664758	-1.0306441757883764	-1.8117170288120847	-2.1199157184483863	-1.4623194896017604	-0.8518540241668717	-0.856055734380415	-2.1127462333743248	-2.3553755223888198	-1.6838476615354365	-0.4966700660563619	-1.042060134164095	-1.7809362366534707	-2.3690407216341036	-1.539648648189482	-0.6930961591387723	-0.8840221144291305	-1.735882993130134	-2.140083069166512	-1.648100968014543	-1.1275323600911817	-0.5969641193576787	-1.5207327565899011	-2.077326292515265	-1.5971509177891758	-1.6117197234469731	-1.2212361066502568	-1.8928055715455883	-1.5470418890994657	-0.9683603023875837	-1.084658381584621	-1.0821986171102405
24	-1.758347864479971	-1.7549580291308635	-1.9015690040262092	-1.1947017877932993	-1.9397587727209882	-2.2111215535605213	-1.607948299162977	-1.0330247852946952	-1.1367816896347849	-2.1092538780364625	-2.3723330437846046	-1.5687215288610141	-0.6936095935475712	-1.8779547167094257	-1.5811967809810064	-2.2490169945201424	-1.2883613077060627	-1.356533166321482	-0.8857660271215659	-1.669649119930049	-1.9982526251886616	-1.4004670346187627	-1.1089928122177626	-0.7547640185373666	-1.479970570642401	-1.9520277927705783	-1.4311678373442902	-1.582910652932551	-1.2436737982821446	-1.826164121785558	-1.438231345360209	-1.0047633622550864	-1.084418890122518	-1.059328314967665
28	-1.7086224512830668	-1.7038012699979368	-1.7112159685799857	-1.1829239100154183	-1.7764962866753615	-2.021702761314148	-1.4535049163360512	-0.9663396453301549	-1.2490440575535593	-1.961516017729838	-2.155736440937904	-1.3095055785495902	-0.9445602869981491	-2.2720289172983463	-1.3116379943156906	-1.8991378497812488	-1.0213464472733378	-1.8323218776217567	-0.9252777076248359	-1.5441601237411409	-1.7009937720268147	-1.12598645402819	-0.9716702079082493	-0.9086084938951015	-1.369197722792803	-1.7116733746228372	-1.2038519352082466	-1.2461255757341454	-1.213319417751177	-1.6788353877596391	-1.254779931715103	-1.0394295427782196	-1.0773087712745026	-0.9941682194404975
32	-1.2669771877725646	-1.0704096528684592	-1.1033391924658011	-1.0021219228238893	-1.3939043248269822	-1.6408960777815742	-1.0664112540977315	-0.6620290262673801	-1.1697854966193295	-1.7382415489179415	-1.8259252263699013	-1.033681747687751	-1.1457290620487184	-2.2584352436266126	-1.0530294153329944	-1.4756120406088493	-0.8565513470004712	-1.9038939427944481	-1.051578876701403	-1.413001056918355	-1.3751730884164495	-0.9302376485226526	-0.7250016313368137	-1.0451378795939466	-1.2405073611410913	-1.4503098689655778	-0.9669150685693637	-0.6459782703302738	-1.1585601538971213	-1.5095982513461015	-1.0410101387443826	-1.0818196507797153	-1.0772539350014476	-0.9115651226870752
36	-0.6369383915078825	-0.11283637554767321	-0.3353805235501419	-0.7502167801989328	-0.9820110773088684	-1.2812418905334857	-0.6700388772260085	-0.26897221735756205	-0.9628466939458463	-1.5598119457917727	-1.578672166653274	-0.9110683179741267	-1.2482539383844116	-1.999905342774821	-0.8984342790808536	-1.1736044854097363	-0.8954823590558053	-1.5197350940481695	-1.260770794546352	-1.3317258324378864	-1.1556253404050805	-0.8950682855895961	-0.42988762150947146	-1.1419161529320634	-1.1373466224565398	-1.2498948542509352	-0.7717865686004375	0.030726838779357692	-1.0857543917899837	-1.3434501852448941	-0.8182564953172187	-1.1049483986613844	-1.0513441536108699	-0.8057839254062344
40	-0.16849400060551548	0.6959052664352994	0.19556076775290723	-0.5708125815285023	-0.7633340935508245	-1.1788140505592422	-0.5307746516178391	-0.002139557846076593	-0.7427739482246212	-1.5530139168630133	-1.5947061736852408	-1.0699677440332103	-1.2709854809143002	-1.674143429344056	-0.9223244762976057	-1.1429065437071508	-1.1773483723479157	-0.823571322269132	-1.4929457865215068	-1.337961312730676	-1.1316161127130122	-1.0481094095470764	-0.1868758643915795	-1.1717973917939983	-1.0793164941240478	-1.1541115016408972	-0.6611109359262227	0.5258457051352273	-0.9767775510922233	-1.1710642546651122	-0.591477869447824	-1.0570946905149914	-0.9394900775077764	-0.6517462117906258
44	-0.1723570670306224	0.9160881019351468	0.1632752265384151	-0.5797442183162548	-0.8810804464029577	-1.4657751284785339	-0.8045268634510953	-0.025892576137377735	-0.617686985363708	-1.789678449880605	-1.9448745201598543	-1.5206857881299367	-1.2726008859929243	-1.3942769730651772	-1.1490108937817656	-1.4203510248563411	-1.651824947001418	-0.09503520256128675	-1.6666234689595996	-1.4402426444884318	-1.3139207329955354	-1.3527749742685926	-0.09881631260003443	-1.1214204998313442	-1.066301223923754	-1.165455576815198	-0.6633775813520186	0.6256758554874284	-0.8136032203159971	-0.9778048371423336	-0.3753340532840163	-0.9006524659305694	-0.7032557112104424	-0.4398750353674649
48	-0.7374584656216169	0.3894402970972021	-0.49537470811705114	-0.8051416853604011	-1.3233529295888478	-2.087489361260968	-1.4334695303011253	-0.3598575880978709	-0.6444967372834772	-2.2434582653624235	-2.5440773899696443	-2.132735723832889	-1.3101309504809946	-1.1995334594958833	-1.5377258023538827	-1.913671369489428	-2.1882855836932498	0.3705183258238695	-1.7302190021700081	-1.621309514720674	-1.6381436545020853	-1.7237969593395426	-0.22031165603804298	-1.013814804378535	-1.097398874373194	-1.2636973825974347	-0.7899241427505063	0.26363837652401334	-0.6151361449923407	-0.782745657375106	-0.2187703693350099	-0.6562395079256741	-0.3750416030951642	-0.2103034848625589
52	-1.6643097358645502	-0.6629244072389354	-1.5267624816494456	-1.175322291267826	-1.9290246914797784	-2.8187823224425848	-2.161050552634082	-0.8645591714011823	-0.8156061747939722	-2.7935979295770923	-3.1854042926473247	-2.6868920258395406	-1.4094784224210233	-1.0966134043663271	-1.994200343819193	-2.4465761122922274	-2.624397748043222	0.38864171406851766	-1.6972795682016584	-1.8507171822551838	-2.000806803420128	-2.062344307460928	-0.5236247764718588	-0.9156352258452868	-1.1866084307275515	-1.4300713503017703	-1.032397625223952	-0.44062173255300335	-0.4556507158696273	-0.6567392928708539	-0.20279061743081297	-0.41749718679878045	-0.06933019292731786	-0.054952178011674506
56	-2.561750643938085	-1.7560714438924567	-2.4844324526049744	-1.563974734172376	-2.4770972666188555	-3.378929129652618	-2.6644775800190565	-1.3182494607067743	-1.081280705583017	-3.2814118779304415	-3.6427781489907356	-2.981666318994843	-1.5613366326012779	-1.1069263191886172	-2.4087741314153783	-2.844977133243759	-2.835595600598378	-0.03762669851816853	-1.6416504341639468	-2.100611204565851	-2.3104317129930148	-2.295949214860634	-0.9010736919541336	-0.914285121039888	-1.3622040714203845	-1.6616226392755702	-1.3614969219165547	-1.2278933494084123	-0.44403943307347304	-0.7014496308736633	-0.40398695962952136	-0.31771197834862647	0.06085669978989408	-0.07578770797191585
60	-3.0653514784667864	-2.4169893203747392	-2.9749400540582123	-1.8686873865631457	-2.8144366670122727	-3.5896665959326906	-2.740988247626789	-1.5475190838843327	-1.3902261222071794	-3.5944437889900875	-3.7928457164371685	-2.9428865835275673	-1.7434192851872177	-1.2723680702510194	-2.70562862666809	-3.024002067560441	-2.7953774858470135	-0.7359076123731215	-1.6548303323926947	-2.356322997819777	-2.52993559198594	-2.407350057246	-1.212253209868127	-1.0699841949151268	-1.6471019941706297	-1.9677871416001134	-1.730280037326104	-1.812530274583347	-0.6667410714482019	-0.9955850218432315	-0.8401247837790048	-0.45825239900285974	-0.09423155313780918	-0.3173547975157117
64	-3.0575301569991065	-2.4646484789610765	-2.890558950755629	-2.076874012471851	-2.949535839263343	-3.488091460004451	-2.4411368308423373	-1.5366779527013767	-1.7213450626782525	-3.7324204350650696	-3.689661493522635	-2.6758344105873073	-1.948226208536402	-1.6194674927831858	-2.8781728671839955	-3.0311946792366173	-2.596006863715488	-1.4599434100484332	-1.7898185207954738	-2.6161866121996953	-2.6891488961036183	-2.4398522315413813	-1.3562133277984247	-1.3670908178146017	-2.0307419248808043	-2.3515553415055206	-2.0830821938374027	-2.006010527314461	-1.1218248577404795	-1.535362835822373	-1.4294128381879545	-0.8347031453039235	-0.5230399356987993	-0.7119892221594618
68	-2.759541504568472	-2.130244488106147	-2.492891066932984	-2.2799968661918033	-3.0560743731587876	-3.325648776240995	-2.0673956818835992	-1.4510440789780674	-2.0906209892895604	-3.8156692885383583	-3.547773352248788	-2.4274210868584114	-2.1959626619209374	-2.1135258621260182	-2.9913504048163406	-3.0230727119414498	-2.415724032978642	-2.007754559216185	-2.025850052487149	-2.883418552748144	-2.862221472189479	-2.4766783651764315	-1.3286753859352731	-1.6972993569436738	-2.4530184207018655	-2.788556091897561	-2.36833571789748	-1.792330737357124	-1.6857695536967219	-2.2058670465089683	-1.9937998006073137	-1.3071733680147068	-1.0668169233090485	-1.076929089688242
72	-2.632334225684317	-1.93977593885864	-2.289854759157027	-2.6236114435713302	-3.3791882906474466	-3.4455995472699357	-2.031012529967401	-1.5558847149667272	-2.529345029166996	-4.025785912840018	-3.6379616168678863	-2.4723315176532266	-2.523956769292905	-2.641593449598928	-3.148301831879793	-3.1857988753947413	-2.4437968669226575	-2.3070378245280727	-2.275410646415785	-3.155774346967128	-3.122668019993829	-2.6025769644832017	-1.2303835122515514	-1.8933559608340547	-2.814930193469767	-3.2194888510482076	-2.551279299970382	-1.3218991723064464	-2.1422109549796207	-2.806840889519853	-2.315580839032871	-1.6412612158345463	-1.4694738350960876	-1.177541252977922
76	-3.1342167775177714	-2.42136072501153	-2.767077915834845	-3.2197210707436663	-4.0943221942526735	-4.099837292810527	-2.6371164255318624	-2.071320290104281	-3.0491452140118533	-4.506140697546428	-4.147081364651696	-2.9775247498677264	-2.960377208864877	-3.05050920669945	-3.435178032785139	-3.6386573222799483	-2.7949871946340097	-2.4331316886506342	-2.4303004680309512	-3.419043770740913	-3.498695603120378	-2.862976305409009	-1.2138763635505523	-1.804916973325408	-3.01489543153607	-3.562711229866103	-2.620155804694557	-0.8272269943332665	-2.268082851405599	-3.1259574811213877	-2.2259120884963233	-1.6075760085526498	-1.4848732910813776	-0.8319659212088142
80	-4.463031757530756	-3.7982318305440534	-4.116884698010407	-4.06924437449177	-5.194155679940216	-5.301136480298778	-3.9110715290506644	-3.0409486217016153	-3.6159596351882066	-5.274000631368266	-5.073450552528904	-3.9125394722384867	-3.499695769057184	-3.217784396630514	-3.870836724998805	-4.36703204006073	-3.4517745884530755	-2.5473940308151524	-2.4204287467881747	-3.6470754054496126	-3.9502272506162344	-3.2381079115175564	-1.3943415844999507	-1.3808402980273853	-2.993520967555001	-3.741722812742389	-2.582418912089638	-0.5053231703397822	-1.9384550999337522	-3.0263671798591574	-1.682704444451531	-1.0930675240575916	-0.9899395679275838	-0.005454729763057612
84	-6.422685606953223	-5.836892590091144	-6.109726890397177	-5.037083136238887	-6.4638004139783245	-6.788481218364883	-5.558410630497612	-4.285092343001983	-4.146757115384937	-6.190088733303413	-6.209509357033678	-5.048730837472907	-4.087078561000698	-3.112624875793111	-4.384887684241723	-5.214842306322314	-4.260301579209592	-2.784753315570492	-2.2497610989036394	-3.8045179747847744	-4.3759755977774075	-3.6413178351974254	-1.7692546799813036	-0.7083989363904807	-2.75983738202439	-3.7114767934553496	-2.451199525366492	-0.4238439787654071	-1.193491455879546	-2.503475659725474	-0.7961655835077585	-0.16345998603559117	-0.04329314444459508	1.15850794022843
88	-8.495478608616896	-7.944853285757824	-8.187187174153559	-5.8994345516031625	-7.5645723151908415	-8.13147638175271	-7.086698991049455	-5.4713916640425095	-4.535768020622261	-7.007782441566083	-7.2246007736907885	-6.052515491463252	-4.625198352580309	-2.8080849576624645	-4.8394341346627066	-5.942996486917984	-4.98677967719841	-3.1637868801347646	-1.9882807681429153	-3.8540758989302826	-4.6501688839808875	-3.947318782377118	-2.202386373681452	0.016237147111429002	-2.3858895241580926	-3.473615160755111	-2.2346293869820046	-0.5028376566589238	-0.2309356027971469	-1.6849170880692965	0.2099817985955183	0.9577037071843866	1.1396117181615752	2.388185971906201
92	-10.085226033497213	-9.464673018401362	-9.729866956940795	-6.440731509159859	-8.18363855203117	-8.921828247433044	-8.028046587702322	-6.268252356915883	-4.697968471109961	-7.478604297829765	-7.806312064488955	-6.627187712149795	-5.0023283832138405	-2.436321729230959	-5.084284769573083	-6.325576289418859	-5.410670266795914	-3.5654048829659915	-1.7293186144083044	-3.7659990692423766	-4.671975600844776	-4.04079245500794	-2.488082402623225	0.5742689356610112	-1.972135777262657	-3.074332467900288	-1.9365349959118057	-0.5796449765829543	0.6757789833173207	-0.7751187066535481	1.0837724181469164	1.9853588292541133	2.2813632430651847	3.391787520428259
96	-10.799351664933965	-10.001040433428999	-10.35492608317029	-6.5487327410343985	-8.172120073666697	-8.95366857175451	-8.14900205462106	-6.4994768932278495	-4.604466426668297	-7.460832576988404	-7.79004571855224	-6.634494764743652	-5.130890833298188	-2.1094129032283213	-5.019602286063295	-6.238342746243107	-5.41338823859081	-3.7872221374260984	-1.5363719424558726	-3.5271181971190524	-4.405144680345364	-3.865088691489758	-2.4610917506070193	0.8284966924730662	-1.6011831719980505	-2.5865187579655173	-1.5684564074017227	-0.512053309578314	1.2958968845074108	0.027766972710122795	1.6372855860380653	2.6977832249239815	3.1588611523029626	3.971525659070762
100	-10.624129268525774	-9.607443785252814	-10.091246579441485	-6.260587199617121	-7.604785899989214	-8.305592515956665	-7.543926696804246	-6.2210378489784475	-4.293796528465847	-6.978932839893316	-7.216930371183299	-6.141853317012842	-4.982592093285643	-1.8643236113208674	-4.6381411435327395	-5.702000126747633	-5.024790274331447	-3.648523083058262	-1.4082897865979136	-3.1483535687113275	-3.8924524685813156	-3.4511823567040825	-2.0909578747409805	0.789688048753147	-1.3050591912698617	-2.0867147392994227	-1.1659421891339157	-0.26348054342504656	1.5368481835664256	0.602073965936727	1.804089064811568	3.0270090026724783	3.6826794054512737	4.088991154837423
104	-9.904236768512272	-8.734072663190286	-9.34232423330987	-5.7399072502176	-6.735678655784573	-7.288110237794359	-6.5701293779432675	-5.683958992912567	-3.8577780626172244	-6.207495196882513	-6.299336417506349	-5.378232465516727	-4.608802306936891	-1.668715234358066	-4.028376569113995	-4.865925299756956	-4.407854545908591	-3.0976338308327906	-1.2883219686406102	-2.6690840653742476	-3.24138402120472	-2.9137165472852966	-1.5119045934652176	0.6060569271044969	-1.0644278499431932	-1.638199325240165	-0.7969779352093512	0.07447318713935823	1.4681023322232685	0.927561459583639	1.639049764309673	3.068453304173066	3.9023201367082576	3.852672328758655
108	-9.143258071703091	-7.972234228987034	-8.660296418259366	-5.196984754792693	-5.876531586115332	-6.288267119743769	-5.663920388226831	-5.20337008116207	-3.4063966188258226	-5.3884730203004425	-5.316935048984477	-4.6244258763859705	-4.1363515749449	-1.4705804549281936	-3.335993996780672	-3.942893256723008	-3.7876236343122915	-2.262857669839202	-1.1061487169948405	-2.1526162570010796	-2.586516612198311	-2.4112582145847656	-0.9624536609191897	0.48347225663190424	-0.835167882718064	-1.2828768459355469	-0.5492987022836558	0.3370750835968279	1.2670421568352057	1.0619612905393254	1.271457311281151	3.0108280105868666	3.9452519317201045	3.4439792546104524
112	-8.736036278602809	-7.737984637751064	-8.453318574543653	-4.792204367936248	-5.260624395440124	-5.593758092108808	-5.133481966409321	-5.0013537280649345	-3.0261666698346392	-4.724149215215004	-4.498227584926026	-4.092458714643121	-3.7313427830902515	-1.2566450802547053	-2.702128880354294	-3.1279859463872626	-3.3569254790428884	-1.4166721069808028	-0.8276818373763992	-1.6710308748017435	-2.0457351156083305	-2.0865817017326203	-0.664005993120299	0.5768151864747424	-0.5847402796287142	-1.04221665596088	-0.49896824233916426	0.3814554800893162	1.1185821266543061	1.0877056094364246	0.8392078259260952	3.026772253024028	3.929163922880108	3.0244016570980063
116	-8.773190476201874	-8.061735132844317	-8.777195908320667	-4.570024001981086	-4.955109106904835	-5.280971513766438	-5.0301766268569095	-5.104204164969569	-2.750616305082339	-4.297636974928318	-3.9420239825857983	-3.847568025411557	-3.5389733225163673	-1.0726143094638452	-2.2082693521059302	-2.5363342697957125	-3.1999075331960345	-0.8660005309175017	-0.48187881586482434	-1.2825504509015808	-1.6865919785832564	-2.011914724992425	-0.7095906120504665	0.9120998359540052	-0.3151921919971087	-0.9211859083759809	-0.6741075498727491	0.16482391911854283	1.1245163650731616	1.0617717477694184	0.43695229181596046	3.1847076335609485	3.8981845280456033	2.6715137891077374
120	-9.019944168205834	-8.594222047088296	-9.320504165005588	-4.4515833742283615	-4.855520712991233	-5.21299646968757	-5.154535280565151	-5.343249784330636	-2.551481240506371	-4.051946629784466	-3.6053144840767772	-3.800667276323427	-3.6208758262768685	-0.981293198969006	-1.848658199411261	-2.1774825994828535	-3.262761346208731	-0.8168431499838729	-0.14289633893651604	-1.006569382987221	-1.5089371166279222	-2.158733839306801	-1.0237385008714244	1.3840886319501533	-0.055091906199836435	-0.9055414176966379	-1.029101130748327	-0.23472730756147667	1.2743326393378562	0.9995669101273982	0.10321863714622401	3.4316317948485358	3.819544544113291	2.375362867080178
124	-9.069976783741135	-8.814138390222025	-9.5834893938338	-4.285654057172928	-4.756859290510837	-5.137131201171837	-5.182493196754329	-5.45304916912422	-2.3542094171213783	-3.833115806438646	-3.352577439426791	-3.767725696587871	-3.9158930679636623	-0.9930716131886885	-1.5425106248057914	-1.9715596387677128	-3.3842091474920704	-1.2727236715608516	0.11692482948584863	-0.8103079179332646	-1.4499587976087371	-2.4080111919641793	-1.4141904079972005	1.8259621812495688	0.1710577155801218	-0.9561737751661545	-1.4485226833011449	-0.6677110774348276	1.485650893275154	0.8948599077519874	-0.15900230367570622	3.6485075858506595	3.6333126930057222	2.0843870587175313
128	-8.588040330184958	-8.324007966959975	-9.156711555250666	-3.930340518565003	-4.460042942230685	-4.824220645168647	-4.841176020797225	-5.214313493915202	-2.070968145863837	-3.4706590088002947	-3.032596342059617	-3.5620639234254763	-4.2487416160124605	-1.020711896226661	-1.1774328917339938	-1.7919958784636214	-3.3697545443333743	-2.0185868689117368	0.2748231582855541	-0.6141972526302092	-1.4058055842192367	-2.5958959990764856	-1.681497569607166	2.1096978134296287	0.3773086359511501	-1.0042762730992119	-1.7816449358780606	-0.9985918377459794	1.6867181020112827	0.7606700639593145	-0.3464283040360124	3.743737211312132	3.321637860494896	1.768236513441821
132	-7.517081718539504	-7.086146336784493	-7.9635743893787705	-3.3280942356006658	-3.8648893735581322	-4.1812167062098	-4.047988881381373	-4.5720000151596905	-1.6397561985577676	-2.8569967674602386	-2.544614547027004	-3.076718799452491	-4.394192207686249	-0.8963148571272813	-0.6621288044424822	-1.5135263166361719	-3.075190536364308	-2.7025771072818734	0.38152798913950237	-0.31569862286016415	-1.2606011597277496	-2.5744163925022985	-1.7237350897184218	2.222253316990668	0.6327677949188334	-0.9534713005788614	-1.892236227980131	-1.1693119973224293	1.8910897922454157	0.6640614254398001	-0.42664849650429804	3.7297294045695444	2.9548554345868263	1.4600694142671704
136	-6.141102298490568	-5.475685582641288	-6.340495570387051	-2.540052169108835	-3.011890165354082	-3.286575547503586	-2.948026888080019	-3.6703255083877377	-1.0550289127415815	-1.9924014756444135	-1.8681307983916384	-2.3230571688174617	-4.176657189314573	-0.4587339449267843	0.03493957212686632	-1.0488747331840602	-2.4627284941484193	-2.981934778314234	0.5409526215246984	0.17530679658498077	-0.916030225825216	-2.2622280063733844	-1.5757734735758757	2.271968120560829	1.044504401430873	-0.6963969451488102	-1.7026621060298657	-1.2087297409057702	2.2162680569960136	0.7281825524065109	-0.33405536328851876	3.73653124819556	2.684539788144064	1.2544621197499628
140	-4.96671627698051	-4.119409550756718	-4.904574381843214	-1.7218778089919098	-2.0558443017552928	-2.336430066885505	-1.8350683404367831	-2.786106341003477	-0.3734425892938119	-0.9757336949509074	-1.0486065122832482	-1.411368962539236	-3.5559403806552923	0.3426039508275894	0.8804735519113869	-0.3622939279469138	-1.6045924384613057	-2.6635086469160343	0.8575335123346003	0.906950411890926	-0.3116315297365062	-1.6624044137944705	-1.3613955940206923	2.4248378215603683	1.7154698328575757	-0.14120236003511513	-1.210564371867325	-1.1863589256851517	2.835057013029547	1.0973398657750153	0.010028962020587279	3.955118884591311	2.6869225434175887	1.2663973537896536
144	-4.484265792969088	-3.6025302319170587	-4.270653713888046	-1.0544915172656433	-1.1901527613155267	-1.5377129277506436	-1.0033184264600896	-2.1968181077805937	0.30753329318603173	0.04800872865119142	-0.15707983036913573	-0.4891430127191952	-2.653336995101505	1.3923470938815121	1.8026423408772323	0.5362279401592162	-0.6373206956985066	-1.7801752045508998	1.3811792100367224	1.872879262010326	0.565735457899353	-0.8442574122094278	-1.1949186294904446	2.807350390022107	2.696965926036885	0.7591059784797124	-0.47408449530115965	-1.1454519004512127	3.884014596669636	1.8787839365254475	0.6635875685150321	4.540002811413571	3.085233680565026	1.5753734072011534
148	-4.929148184729169	-4.188697804365961	-4.755370604906685	-0.6629312021684227	-0.5589650259210549	-1.0050743792907393	-0.6055005177469235	-2.0487964101562657	0.8897727109378966	0.9554933285431166	0.751203535090698	0.32980453884780453	-1.701270695205742	2.438666337531924	2.7321133544607195	1.6072577197503528	0.3072410814157581	-0.568653582090899	2.0785605854961577	3.020093671803097	1.6831772284926956	0.09808007602962762	-1.090608713257525	3.432905903732038	3.9597589869660705	1.9859667966292873	0.4233703602592176	-1.0623043748737864	5.379693494565773	3.08951710874635	1.6337071615933645	5.524988160489222	3.8919107815709646	2.1854994241849033
152	-6.154943450646785	-5.680051789248115	-6.205794795580654	-0.5566421137107331	-0.19108667921458924	-0.7070768457680557	-0.5820979461278476	-2.2863433303328846	1.3192515339922082	1.6995468096739006	1.6614228445067876	1.0140348647264903	-0.9346246695763347	3.208700171952522	3.637369623537472	2.80016421564755	1.1600190371789605	0.6394387467452526	2.8476965355501256	4.272568215073398	2.9732003136909007	1.0883388491809194	-0.9422451829962732	4.192945946597667	5.3997225625083685	3.4542648705055043	1.408748623152236	-0.862239537446315	7.189472657171812	4.635581958511124	2.863766186159578	6.79678295326824	4.999011503949754	3.0210263652821876
156	-7.68365095105963	-7.487307052782158	-8.042305926045227	-0.6214756949946454	0.012066178924673557	-0.48709607001348676	-0.6954169255818875	-2.676634543336752	1.6127316911034149	2.323178523873918	2.5950365001009947	1.6181951720390226	-0.48291560885575224	3.5453393369808857	4.531857955934868	4.063388337366663	1.9331906985111915	1.5534330567240158	3.5638925939225685	5.554350838942921	4.348874557959356	2.0898539967225274	-0.589570699633761	4.914114939680455	6.872043115431741	5.03121422451054	2.4366927085391046	-0.4774663734302097	9.071402526840563	6.333821280700533	4.242668617980918	8.138337114767616	6.218593104874513	3.9558114905618527
160	-8.912178017049694	-8.880387283792556	-9.50483796580972	-0.6719887835702676	0.22658973875057825	-0.14801447056116723	-0.651455996775947	-2.920969717280412	1.8473442746251496	2.9246292040418025	3.57989882519014	2.23904132277714	-0.32078918733667633	3.484073391700997	5.446953282909142	5.34299658380027	2.690075629118246	2.0288338609970715	4.131243218481967	6.798975927353279	5.716690049043308	3.0962121408491976	0.06946880352839307	5.447774873330651	8.235139826010029	6.567313654531188	3.481793394834805	0.09083122737124769	10.761700603017307	7.966084937010372	5.6306238032278895	9.316811538061785	7.350574474849787	4.858502852571106
164	-9.3802184821766	-9.307391143188108	-9.993771527807704	-0.5420626984261925	0.6153871997555008	0.440771161397078	-0.2507093244421693	-2.80091904886708	2.1144580787679517	3.5914990811270386	4.611323344985946	2.9466533586492827	-0.3025223307124161	3.226726285417142	6.387361033525563	6.574414236636063	3.4848477752439635	2.0988824314531507	4.513967502641414	7.944801787344868	6.985623342043172	4.099752892633738	0.9863139962089847	5.739772305302169	9.38476464763143	7.928947905548958	4.515595424695409	0.7466244678720345	12.066140144401647	9.34283635641649	6.892229539636147	10.171081517289238	8.246261575859878	5.632104382600372
168	-8.971242882012875	-8.634202935354054	-9.34181592490051	-0.16899394946346802	1.2400115697071012	1.2685271469513906	0.5091714846153444	-2.284686082793734	2.4640216765182013	4.339721191893599	5.6279811717038	3.730360498546833	-0.2584931247860578	3.029289714794406	7.299118500400843	7.678790549918338	4.31088780268417	1.9260244320879394	4.733480918377479	8.927432991376413	8.075272539731525	5.063135611148696	1.9538118789934908	5.84364031269984	10.26791760713264	9.023560501204516	5.489691720453826	1.3357367481839855	12.913558927357336	10.351058933827026	7.92840717221292	10.658313724311048	8.842832542981611	6.234291060920085
172	-7.94823215385232	-7.189931374516846	-7.88148591912704	0.37134963180245306	2.018226618439624	2.1783971731499783	1.4304370844011889	-1.5406643113338905	2.8690261768384366	5.088922487762058	6.517683966393551	4.489170539965983	-0.09443963295219471	3.067649118307787	8.071993807439998	8.570928551968883	5.087829576998216	1.712733264413557	4.840880381759885	9.680212950108151	8.92366597783612	5.91322468218358	2.692112677452947	5.875541195340245	10.876044245917093	9.809701894788548	6.337110503409514	1.7254322723694713	13.349919285447525	10.968137713396981	8.695989586809386	10.840914698886646	9.158046699290264	6.673265917142102
176	-6.812092763868014	-5.601722703142166	-6.276469691642451	0.8985518194400539	2.752603285515555	2.936234705187428	2.212399000304122	-0.8528053738997299	3.2322049059324844	5.6913442468001705	7.154837590273174	5.0745000711114585	0.163913130346352	3.3567461882718566	8.581755616455709	9.180960632032704	5.696177468223515	1.6156202513912268	4.885626303735536	10.150330517890945	9.496769881113293	6.564289076444341	2.9824972077409146	5.941497787733535	11.22951886202905	10.29336640620169	6.994107228740503	1.8772497129728025	13.486082996651596	11.243112535700783	9.210428214660944	10.830711337401176	9.257636046878181	6.988237363337842
180	-6.04705904387571	-4.491548050030781	-5.190566526659484	1.220849153297352	3.225428811512947	3.344613782067747	2.6047346526186232	-0.4754065561212623	3.438218346498166	6.006229862307651	7.457465152985676	5.367810235776195	0.40778133170169806	3.7714238071589783	8.755699135608829	9.48340508927692	6.0426554527308225	1.6996287064556153	4.899313437490042	10.326243374502472	9.798300718364697	6.959629994940831	2.77837681068852	6.079992755798176	11.365939111623586	10.515683147583752	7.429365616160868	1.8648805571202425	13.432455028952521	11.259150476639295	9.530989622848185	10.724549266441182	9.215244269946636	7.226057988042578
184	-5.881124004774392	-4.181984414032569	-4.95978974043794	1.2401057450456088	3.312334767561841	3.344458333154565	2.5373313362909977	-0.5016234504432698	3.424252501425394	5.980826839605674	7.434361439054749	5.350926385721166	0.5356411324328839	4.144876469637732	8.623975732010734	9.516591048055437	6.117850765040973	1.9420610617242695	4.900161253955186	10.257725689738939	9.872291540016267	7.106254082857994	2.230666870207341	6.252335532615249	11.334805459968793	10.536288234812003	7.661203365056735	1.8283822490306292	13.254387822065672	11.095894785523157	9.732962583764033	10.56472966387838	9.083267188981017	7.4226984790317045
188	-6.1865067325800345	-4.562539565964825	-5.441076264949126	1.0098708842529944	3.052041284484888	3.0473947448085092	2.1541218703243046	-0.8170713165634971	3.226346961458749	5.690751061376863	7.1916184243783094	5.1246647705392485	0.5312794433531673	4.380011547474249	8.322652795759783	9.375080084972776	6.008498176663497	2.2672750892616427	4.906839358338961	10.050158475297176	9.790782903747447	7.078264218579296	1.6176493127035478	6.379242880927651	11.193447084776372	10.415415737558584	7.749814967616215	1.8915322971271111	12.965229955364086	10.80617901934788	9.876193021634833	10.339538548113925	8.883508659822274	7.593899707694922
192	-6.56884668599094	-5.180182443891511	-6.114302619755741	0.7110934239553941	2.6294958525072794	2.6770765713812903	1.7303260521117543	-1.1653128832959658	2.9706988259652825	5.310798631611053	6.886812192695478	4.858704554688517	0.4760788667103089	4.50510119254417	8.037500361176988	9.17002866337134	5.851658329494782	2.5826091701152807	4.943856226836811	9.82688233755523	9.625102972525124	6.980361444015686	1.2082712619793154	6.395946486537334	10.996377917183104	10.195920918471641	7.763577441641527	2.0899629540129014	12.54953762700687	10.409936878624663	9.979714368419366	10.01361939763064	8.613712289043482	7.733030299689842
196	-6.596575720344759	-5.501919732507914	-6.382019980530015	0.5546827302279786	2.2764577808125552	2.4470531878678052	1.5152105054746932	-1.29124426515728	2.8100511956793506	5.026047217077297	6.648773653409993	4.69620321995475	0.4845670449420521	4.637289512370339	7.91293476014261	8.973240829700702	5.754047379271255	2.8020555902307875	5.029733645138057	9.674463247669054	9.41154477604282	6.8889112298605895	1.1346392602883875	6.291166766495481	10.77786538263958	9.890205358330412	7.738543490899067	2.3552038610123	11.995911567918801	9.902751897605377	10.013863538255023	9.565403914143134	8.261833170058845	7.814916590987005
200	-6.046712383262571	-5.209399687012325	-5.904279693955432	0.6613889319887534	2.139473909698445	2.4391813216614833	1.5868406255712493	-1.0849276753690362	2.8374285626298827	4.928628909065197	6.503083689483391	4.665122497224384	0.6079675539879482	4.884395587033321	7.973893145456234	8.773166634344024	5.722633824205303	2.860187523296299	5.156157480573262	9.59917638262476	9.129019714195094	6.803782445895831	1.3440183367174587	6.109114631487589	10.535798046214609	9.477297758970073	7.654993514761134	2.5624594623719643	11.31797787669829	9.270828223663722	9.914111112359413	9.008582092428856	7.818896750736478	7.803786734905486
204	-5.036568628946484	-4.371145237377005	-4.789303767510221	0.9843248700085625	2.1885580961284745	2.5492041046631213	1.8006111337977049	-0.647801993641862	3.024602405541103	4.95723293960211	6.3459567863461634	4.649006354992124	0.7742099146369521	5.24346493350835	8.103986719651704	8.470346429420095	5.648839936299574	2.722733729163966	5.272089944880171	9.519746756360458	8.70436475463492	6.641041262072094	1.6483102995264658	5.9170427172996725	10.2283057908264	8.91412828102182	7.446331959044057	2.6109495097043727	10.553945514735686	8.505503633005649	9.612048124840799	8.38831422595289	7.286278229437168	7.664597015103099
208	-3.9687814612322314	-3.398174038890528	-3.534452667849436	1.3236114945372306	2.2261967602790516	2.5366206105084905	1.8657381487471056	-0.24126775501848963	3.226958505112601	4.921268927546914	5.991272911204057	4.44284390281488	0.8126715401158652	5.567716584453609	8.100146273189234	7.9259633817832995	5.363547311592622	2.4006318985410378	5.294588075621708	9.308468795162927	8.05245778911774	6.278401358965455	1.8386524869273677	5.764570221651914	9.794863676137046	8.164198854814625	7.041163903578971	2.4886400636783357	9.754159902741277	7.6185092733676525	9.074532485939105	7.762457827996893	6.680852873147116	7.3796186260826095
212	-3.3172662174395273	-2.8076155114813983	-2.7484695842015285	1.429957505430537	1.9975597807995418	2.1583239977703603	1.5136351547172568	-0.14249162339951293	3.2570562280438136	4.603676784336306	5.274490343128504	3.870736827614414	0.5568366036661442	5.632918820464527	7.779614905742882	7.045569402072487	4.738151061493129	1.959390992939671	5.147844778415295	8.862490631616062	7.1360926447943775	5.6336231089454145	1.7999641849849461	5.662239537248409	9.195838905005395	7.233513336992261	6.417119963656728	2.2804551066996797	8.968760467773537	6.654475195296233	8.333346345842648	7.182344418511831	6.038268074049272	6.963733178676809
216	-3.369364014701792	-2.924726001984673	-2.8082911897328664	1.1442483634669467	1.3473659719781719	1.3182404008007913	0.666350303398041	-0.48558089014479944	2.989837877354339	3.8921227356872508	4.163875569321209	2.9048576281639864	-0.034580472769452725	5.265547262248984	7.086235982170009	5.857747539989662	3.7790377044633634	1.511243339537749	4.810317027344863	8.170503595704469	6.017172798223626	4.735783088171471	1.5635459383589445	5.589521870806027	8.45193002474247	6.198176368323277	5.638432965348065	2.1184179729382517	8.244176843809477	5.697116837422803	7.491867046514542	6.684596521666717	5.413544641178305	6.471688731066562
220	-4.062925328487217	-3.6873106863386287	-3.638694038741037	0.49647012227596765	0.33602484975853714	0.1506660129796284	-0.4895986902273526	-1.1758283347006915	2.4404656825438606	2.865921728527793	2.817449085751615	1.7177137093091248	-0.8198545554442569	4.462033260524	6.138074382543623	4.542797077153587	2.6611962251231662	1.1793980568672768	4.344730843065033	7.3384046369288525	4.868290888892829	3.7472503090663243	1.2731605736059521	5.523013577822089	7.659798125955058	5.20580767270865	4.853596198225584	2.1028182453470223	7.626741866883243	4.863001334310237	6.702622873549916	6.2935728867897	4.875118243306744	5.990992530955741
224	-5.008176790944436	-4.665082919740352	-4.740460383844477	-0.2928433410880342	-0.7559777479158636	-1.0140720580247362	-1.5720769127255285	-1.9264539431571064	1.7701896384368898	1.7867407753656221	1.546982880501287	0.6301397069280321	-1.5264903268420884	3.426067105226355	5.188661085380114	3.387717953711849	1.6748539167079848	1.0430787775407346	3.8843381306806597	6.557216150894572	3.92992948493567	2.9170927927754295	1.0935049029398491	5.45947359614047	6.969063741254903	4.441843498459495	4.249306668043505	2.244452947671924	7.163310032878736	4.278016556429271	6.121532424730163	6.025616630599769	4.489370811571923	5.618268952490039
228	-5.67818068024405	-5.278270231272037	-5.446218953687363	-0.9107185579194678	-1.543585654176246	-1.788238163247889	-2.1817088072053377	-2.397502416279652	1.2158751457034036	0.9917371844048263	0.6993164998518272	-0.02361726009843413	-1.88779818535065	2.50252127015574	4.518734443699935	2.6814761094103434	1.107174393719546	1.1004236908786187	3.5778839497832395	6.026257022901619	3.426072112016503	2.483201974321338	1.118186471023286	5.416625486049677	6.52646682998832	4.068670739391901	3.9796292681353855	2.4615833697158855	6.890260679014897	4.0384535687528595	5.85493992280925	5.88559435312126	4.297675121900879	5.425050721776697
232	-5.664795384409925	-5.094465242875017	-5.26201389891562	-1.0989421578318221	-1.7159588293620784	-1.9011977862994853	-2.0946319050356594	-2.3619222581358406	0.9788524483762608	0.7407321315183504	0.5093867765917296	-0.04668793442978703	-1.7854597523433438	2.03273844205716	4.312438953955889	2.597590678332461	1.1167373629031654	1.2704201904646775	3.5203466326525064	5.86879013487145	3.474159708788404	2.568984025191185	1.326621409881499	5.411389337228669	6.412213309311206	4.160989274009893	4.101999272480361	2.6320853166883635	6.812083227124874	4.169296730959133	5.9198646395947945	5.854147419454318	4.293869961388024	5.425764070163567
236	-4.867057311167672	-4.045566548623817	-4.112948884116535	-0.7720875720557933	-1.183180925243041	-1.3191043105199847	-1.3656904662937843	-1.8100773050384535	1.1333070964810208	1.0994933815853132	0.9999515985038073	0.5330054746522154	-1.3130651679265894	2.2020184938148275	4.584033000816566	3.123908511857762	1.6655168491274936	1.4447578155280574	3.7079467679820843	6.085225566759085	4.035996426882843	3.1285335938620764	1.6121196706124064	5.435137734995858	6.6043124032170715	4.671326625474101	4.55404852671014	2.671412938049032	6.886041623849768	4.603146541417723	6.238123877988044	5.8789639324531855	4.417874325088615	5.566652283919187
240	-3.515391579335549	-2.447396272202266	-2.360921376943299	-0.04334298882866266	-0.11109783472383461	-0.24713733729908813	-0.28611162232641996	-0.9368638372609585	1.6046695668714503	1.9209045123239494	1.9807439992486748	1.4864290915153768	-0.7168763857861915	2.9578027650542387	5.19123123765634	4.076179494103167	2.544572108520031	1.5635842045407937	4.045964707649912	6.566814882864966	4.936520564013534	3.970684041488658	1.8588755083835726	5.449579701969894	6.992301446426946	5.446404443341436	5.184052454257717	2.5889124804936534	7.028923970595958	5.196451174014011	6.669553263037706	5.883635982917464	4.574221122636993	5.7455930564776585
244	-2.032112831707177	-0.8210384825004413	-0.5970969781105475	0.8481890537781757	1.1692836255115877	0.9796622370781348	0.7755359391659223	-0.026750851355008886	2.2228243294861745	2.9282820150829947	3.1434850613383656	2.5012049611838436	-0.24845610496257528	4.032581319164414	5.920489296270463	5.185026155732309	3.4762694747895475	1.660707231143421	4.402359474511331	7.15703580956694	5.939696296954392	4.847328650633986	2.012069935487028	5.4081234795403805	7.431721191716444	6.286885245662785	5.816832050896187	2.486193173807194	7.146569710807964	5.778944954586812	7.068065625465397	5.79442594972595	4.668302047387255	5.854053482534389
248	-0.8160801509280295	0.37434017563721833	0.6647728068733983	1.662456150626005	2.3244857729398314	2.0559794850893023	1.5593846996991014	0.6938704830770944	2.8160319257210134	3.8539934061021217	4.203330029365639	3.3307087337324925	-0.020191824012679258	5.063579069704706	6.596571905647503	6.213588222074649	4.241284359714149	1.8504502726565535	4.679912078485872	7.728266219654263	6.8468718355880664	5.563785538931308	2.1006464905154694	5.293323503481346	7.813653449358115	7.0267090620016965	6.326419814349591	2.5042679246618285	7.177829724309363	6.2203764758416895	7.3396415525141085	5.578180775863957	4.64841746110323	5.826623901915165
252	-0.06958962959362833	0.9487829184419557	1.2253060309945345	2.2659597339640603	3.1645851055355814	2.831640236381069	2.025019163741078	1.1552365989128368	3.2923543370092596	4.5580053214389205	5.013966070867564	3.8961851498463056	0.05260865004489314	5.748102650434945	7.157093506862937	7.046466332764803	4.765756118186128	2.255361312894017	4.863917338488832	8.233448961451309	7.569257717095516	6.055747493713393	2.2037060205134478	5.1448259223743324	8.112566927454749	7.594465236563123	6.681148512184456	2.748424999927349	7.129438382268453	6.483595354876833	7.476890068250353	5.270636545225637	4.533081520079728	5.675039753890896
256	0.2489998632343271	1.0260806057773155	1.2480269638976798	2.6644725732289083	3.694772472589931	3.3389694606403473	2.329790824730026	1.4424719774066923	3.661078682239209	5.061861979102352	5.596175179657637	4.2881164442516715	0.18394021643451375	5.959347709868644	7.651751022093539	7.703479747396287	5.12377308505566	2.906386368089326	5.013835417486546	8.703750588376705	8.135769823514332	6.391457064704187	2.3813178479153625	5.050397383336619	8.382784822280327	8.022060374033353	6.936102372777332	3.224592200720992	7.074102383873007	6.630620462843033	7.548980216994124	4.970083224146082	4.40271090349604	5.483372674449272
260	0.3381891242071897	0.9163615084400412	1.1084823580411949	2.9518937990047043	4.055160512222641	3.7192475701843875	2.6966707638367025	1.7047740177982154	3.9883346456921416	5.4885482649513415	6.074233516615939	4.673865306497964	0.5642899856625545	5.770397648547601	8.1747159751494	8.280353525236695	5.46104525140994	3.686322918167905	5.206763731208433	9.199650741238447	8.639147736672136	6.7044038603313085	2.624885314036254	5.100792871948396	8.707952477404183	8.400481202850882	7.183025818809183	3.827777376047461	7.110176545311469	6.779026968053059	7.654669265494374	4.795821654609243	4.359341133555489	5.366572366516626
264	0.3996589173716955	0.9060806609165594	1.1474258870719003	3.2179551043327197	4.396230209695263	4.101956357136231	3.2557685293013368	2.039006704904493	4.32427548270408	5.953136905898729	6.565685255640035	5.17189739828865	1.2218900888110813	5.387638555275694	8.77685544659057	8.857966400670453	5.88819549981269	4.3617253193404855	5.467562184834648	9.74904916209256	9.155769325028436	7.098028641899757	2.8572010921820126	5.332815156824022	9.13479802686361	8.809227921179248	7.487069587877972	4.385656822575963	7.303393345513341	7.030240041149276	7.862859229263179	4.830817210398574	4.473859775691895	5.412389741584053
268	0.5162509666760228	1.095065710163997	1.4766250811488941	3.4772267253822235	4.771559703223966	4.51242350392705	3.9532985587444665	2.4201340614251494	4.651421535192324	6.4741277531246135	7.091957074379686	5.767514691096384	1.9847915122465736	5.035351740521822	9.413484549597493	9.435523962993999	6.405860884705662	4.6909217716038265	5.733884796924699	10.31113335867148	9.686677908282746	7.57733581537224	2.981766216379235	5.696261391563147	9.631047224524275	9.259385085570054	7.84465024874885	4.733067500562361	7.64248512245873	7.407003860846232	8.17036340558031	5.078070627743069	4.747037398750967	5.634991154748845
272	0.6254078134005503	1.365604874024103	1.9378315161416864	3.6600816157439233	5.109036909555756	4.858074175966964	4.576885211833147	2.715888970193821	4.885520922723839	6.95631836088547	7.559573631274019	6.314503176959024	2.567510359957479	4.852987754013253	9.95659158100216	9.924494718290228	6.8997292344414305	4.554061878150536	5.883519157813999	10.78703877586593	10.152236912844629	8.043514231401064	2.951557151971863	6.068779453214182	10.092784856109965	9.682169889800477	8.184449175198068	4.78178309187003	8.036211947178776	7.835084895379445	8.499587991235916	5.455574021870531	5.1056985726196045	5.964931949814262
276	0.5892409071350514	1.485479589526502	2.2224452439463604	3.6673333552275675	5.271209226651193	4.995501505637082	4.878083216748966	2.7728812624541037	4.929033266974333	7.252329808044608	7.819218138980296	6.618702394940994	2.730608933230387	4.8496713515863235	10.263974163844257	10.203226063716869	7.205625992702319	4.031746854139666	5.808844551679292	11.072146387755966	10.44149396167487	8.352567651641285	2.811642401272257	6.3142447312199295	10.398817036123441	9.969271634681084	8.410160997137966	4.555434692325537	8.357040384173938	8.180887201635285	8.738771416535355	5.835453972388477	5.437845693210456	6.283210261693792
280	0.3073596052515947	1.2714577881183078	2.0712928719677537	3.449795714251529	5.161471353850862	4.831521975716619	4.716192710413314	2.518368714650031	4.741806495138685	7.261511784339785	7.762482623529057	6.552129252103704	2.418287271116091	4.929382788610413	10.26329991610426	10.195198987015944	7.205331307339293	3.3814501677016726	5.494209752516393	11.118360491338018	10.483710262532641	8.402287462001595	2.6885120800804456	6.354050143411912	10.480317089323435	10.040309880656514	8.460122087099718	4.178079594553902	8.508536317324163	8.324816682778245	8.80375001591964	6.106804355461928	5.648132786795744	6.481861098136827
284	-0.2066988492753844	0.7055233699151969	1.4300665819302005	3.0575010699325293	4.803129660877413	4.392817962999777	4.139527787247672	2.0132086226179426	4.381926048659601	7.002056580984837	7.396057587070158	6.130584701318637	1.7941963627338835	4.967606531952628	10.000228856587787	9.922297452670776	6.898130399454012	2.915443413049369	5.051384913088764	10.96990201087788	10.298967335447802	8.197453478143752	2.7284092834251497	6.211895927004459	10.366555187755187	9.898812269014249	8.35069368161428	3.823935737492097	8.480530717419285	8.232249239164299	8.68974397372701	6.229722960956032	5.706547722713934	6.521438582167763
288	-0.8263309577106204	-0.05758144319420709	0.47906890390559487	2.6267070703945694	4.341793049340761	3.823602666737933	3.362980595681043	1.4274055921755662	3.9881918329636203	6.612805826657541	6.8495282953897085	5.512479768186819	1.1535776824436366	4.888739096696427	9.623014425777466	9.50080010876425	6.4085340338078	2.848396294078022	4.680463302239363	10.749626132527771	9.996109937225627	7.854814509587445	3.0201373024029623	6.000976547348991	10.17676827722361	9.64140222022567	8.176890352585318	3.651235571225852	8.356317499043929	7.979400614619575	8.48211572412915	6.247664912662442	5.661193833363109	6.451810343665579
292	-1.3806258405160248	-0.7819942812249645	-0.4659009266057719	2.311877483253036	3.9707128901366566	3.315073958610223	2.6603805951661195	0.9560064053240478	3.7119023706179712	6.283002837530497	6.313277705465535	4.922675120322905	0.7643527369274641	4.701777923157228	9.309794402459383	9.083032585099774	5.9279308169425935	3.1951613345538425	4.570710170650008	10.599472019137343	9.718025182983876	7.545372943901425	3.547569981201328	5.858480915537127	10.058904622430855	9.412117934305535	8.067933062210994	3.74780868537717	8.264322260018382	7.716665248461629	8.31661317632923	6.250383838131651	5.606033787878596	6.38226221380577
296	-1.7427674487935998	-1.2768940893359668	-1.1140899630075056	2.2048144284848923	3.8264300726603597	3.011161319759609	2.2371127548956564	0.7263730150003435	3.638855209700103	6.152580722533854	5.945776924380446	4.547444332085702	0.7337992172788048	4.486044395564696	9.18075940675245	8.782231308698579	5.625072465046104	3.7735164070224694	4.7996129868445445	10.608836147226494	9.568857168834121	7.409181576142248	4.194496621032228	5.867603764024836	10.111052487594606	9.329151130010612	8.122866610045932	4.107546795964891	8.302803972262533	7.590862731841994	8.310696580885184	6.312234385766021	5.624196515188697	6.41881845760996
300	-1.88107811929706	-1.4783126078475144	-1.3271708454956512	2.2889678420450084	3.9184558292639546	2.9455099031467986	2.1525180285467376	0.7491650562445263	3.745720853885249	6.24165056560121	5.803654179225355	4.458191860387214	0.9751176809487091	4.3408274540978375	9.2428197627359	8.624974229017491	5.574087605708276	4.311630714974775	5.282292352691326	10.768884631624656	9.565123533894818	7.490014057322442	4.797819125459913	6.009704574670705	10.327546093615394	9.424502348947119	8.36031530176821	4.6417398335566125	8.479174592544778	7.667941550922291	8.500953652853562	6.441286547610606	5.737130150615236	6.601563913844128
304	-1.8477468443949463	-1.4454436265691115	-1.1513293952483852	2.455567592143183	4.133234013612439	3.0420529765572253	2.3247554243521145	0.9359766817303614	3.917958726527783	6.446978552753706	5.830914959491001	4.59973524839655	1.2842907873153389	4.333063114670419	9.393917060022874	8.555999734257552	5.7354836319121185	4.596127498466695	5.803382382045866	10.977021189631877	9.637418722616099	7.724693278836868	5.220335947208103	6.175143226291587	10.60016057199205	9.630055403237717	8.709028222030373	5.220259653262983	8.69976136872125	7.8982777396107675	8.819993950509977	6.569149954422792	5.887677654660189	6.8762688463170685
308	-1.7175960497406353	-1.2842262950898546	-0.7476901989179278	2.5712525779656086	4.307718266101596	3.1738490978217624	2.603893511873677	1.1675374478426566	4.018904198990205	6.604536039843704	5.90811918674359	4.841579901869204	1.4775367937930768	4.475831497336086	9.4811420201298	8.487552621393256	5.9942316857632365	4.5833344343815625	6.118538364221365	11.088817568438973	9.679119085669996	7.988997916078499	5.40738628929566	6.227343066705449	10.773611995199147	9.816786741267242	9.043496109064339	5.721743569233185	8.81641957918111	8.142591455882362	9.125920272674598	6.587364656983005	5.967228874399527	7.117038232000688
312	-1.5320925673903831	-1.0677936050158723	-0.2877346866018784	2.552351468317895	4.322164047772888	3.2361581243825865	2.856817238270628	1.3614915574985385	3.9658596415527185	6.577314360224932	5.924187168422992	5.051806437135552	1.499819036511783	4.734747397866468	9.378440833255306	8.357055642962962	6.224860652466111	4.4086756594929435	6.071070655753563	10.98897358980922	9.609034514008563	8.167893389107055	5.39468191692173	6.0814051474572075	10.72382352028823	9.862544034852888	9.24334905198017	6.0700869406986735	8.703838326413592	8.24294660394442	9.268167472327665	6.408560259851435	5.871843800024873	7.187554818126362
316	-1.2848449913010611	-0.80518239533268	0.12427239088630798	2.4058923660570533	4.159814824092204	3.193004838511314	3.0168561859256506	1.503275509853581	3.7738742733087975	6.321406825318058	5.830276474537779	5.153347956044223	1.4410482608651818	5.054554449671338	9.04714295964107	8.159833887479454	6.348304255670071	4.295108784321909	5.66502808094254	10.648050281343796	9.413598990515174	8.211748102436275	5.275072084460043	5.754330620542513	10.420357677853724	9.713491415295127	9.247764564053982	6.249342425780765	8.328222253753534	8.103089312122233	9.158910728218746	6.019518837036062	5.559436307222318	7.0106897177123075
320	-0.9485875344168753	-0.4663727569726227	0.47144180417242526	2.21704410946903	3.9029865166351643	3.0768961828748944	3.083147279584576	1.6301361281245974	3.5421521574235024	5.898074612031401	5.648974881215004	5.138638483425111	1.459278937470155	5.379157529601306	8.549733140340269	7.939548472386208	6.353193267040783	4.419182289410264	5.056960569965556	10.13535783116117	9.144992805280253	8.147818544797389	5.1473655570725105	5.357645498100442	9.938915227592197	9.404498076536687	9.075374580358366	6.288745864249396	7.767037848889871	7.732869128730777	8.810975052522492	5.49381302400177	5.074864374699406	6.607102854259831
324	-0.524033604729341	-0.042542699617025816	0.7842521647680005	2.0923609680754507	3.672881593967832	2.9483439847894233	3.0828699987777806	1.7832916929997575	3.391138068220426	5.430845723745708	5.440078721616684	5.044121729513352	1.662512894247688	5.652690873179499	8.014726618558706	7.747238616456949	6.276820166952845	4.803285586627752	4.47328852477781	9.582894301061865	8.880119301310323	8.045238474560772	5.0719699731564205	5.03744171778095	9.418986296714952	9.030228592007994	8.801815010736538	6.2297077021670075	7.16957185842445	7.235465508313016	8.323743799174997	4.957456576228743	4.529731262214651	6.082636817833737
328	-0.06622034294575527	0.41444569721488617	1.0870780917378136	2.0972375816800817	3.5566575437394192	2.850086443381006	3.0364563388455257	1.967462057868329	3.390362969421724	5.040220724731942	5.253935800638896	4.913217532150982	2.026305670390662	5.8111748548655475	7.576928119603005	7.601248245121437	6.167779430076047	5.295396314602821	4.10252713121316	9.123018241737102	8.670815445942768	7.961835841104351	5.053612219449108	4.897599684747787	8.993960357846632	8.689083077427409	8.512206056084429	6.096313461170788	6.682887537296032	6.750018102769854	7.828987578652896	4.528639305125123	4.04983424117896	5.573983178370893
332	0.3350453666334161	0.8072778562191131	1.372856971135615	2.2247636262036905	3.566439142759523	2.7865493227223297	2.950983040034836	2.1453938430025907	3.5204758555220534	4.793551909741927	5.103872286308297	4.774255263672482	2.3977179466746157	5.779575333308365	7.323805313693007	7.475506763657898	6.056617244687759	5.646412358333291	4.017100800862434	8.832241989724658	8.516387917951313	7.907240847650882	5.054266440028511	4.9498500699002905	8.731626488574879	8.433448770211495	8.25625799001921	5.885475620669167	6.384372218225492	6.383738024806683	7.4270205310227455	4.266125668245182	3.7192418481385037	5.183428751256362
336	0.6086337551009208	1.0531883213155644	1.6177660185977234	2.408814662573723	3.648415556279359	2.7354571750241767	2.838535778508435	2.2664613666532234	3.6877005007144756	4.691053855496316	4.970222937433083	4.641949165068535	2.580356352967038	5.496629701088164	7.268752079731661	7.320904236429824	5.949971184013411	5.633717045865343	4.16075133226855	8.70534036345814	8.371729829632457	7.842729548680457	5.019755350790692	5.1148199905958425	8.612661339949456	8.251636484293574	8.02909086107615	5.582552895756483	6.25525616020187	6.168384059591122	7.145624142725635	4.151962746627897	3.548445692640157	4.936182009632065
340	0.7517204861735298	1.1457434863727176	1.8168578102016932	2.567339652255273	3.7274908925360117	2.676406138338549	2.737732641937377	2.307110542194515	3.779288520807945	4.684190261458468	4.825909602378738	4.532301414490877	2.449662917628062	4.957568632960637	7.355130177047757	7.101488095473786	5.845146164441643	5.169215666117686	4.397763717992173	8.667186715178003	8.181255319920488	7.7143630786676365	4.903986918465791	5.269238458681315	8.55268857703935	8.086933115568785	7.785862426173886	5.192853437664452	6.204700931142497	6.060602172808802	6.941479665396812	4.113733758076956	3.4813232333980038	4.781837451305927
344	0.8390703180109457	1.1712254256241779	2.007109160124187	2.6483542852294417	3.7544796372035893	2.6120383673523806	2.712373011416687	2.2946662844897276	3.7292268182060675	4.7078647494663235	4.660811412487954	4.471786010896105	2.0316102453436997	4.252276409857296	7.4836487581136595	6.818960172603116	5.748280033857349	4.346843231670539	4.591211784215189	8.61366174430484	7.915013293309969	7.4956741143760235	4.686882960884043	5.312050805985334	8.452637651083458	7.879171828404123	7.480187397191003	4.76865433442637	6.128275378967289	5.981621250309235	6.740857107309585	4.072463978975829	3.4362747582462374	4.637927997323561
348	0.9774599646685339	1.2587499586749893	2.250511879007335	2.65040921495753	3.7230379487453744	2.5622665817419583	2.8173363137639846	2.2954695166806927	3.5554647355911855	4.704247939630484	4.484067428711777	4.486292350886336	1.4984167776423374	3.566883078152689	7.547637920397171	6.506515009665158	5.677870259254844	3.409296742414692	4.665294158600903	8.457921006783009	7.58254621498677	7.209884625351479	4.383224953075267	5.212326990319143	8.247619608083012	7.601015548588822	7.101315480422953	4.408501137093482	5.965799316602844	5.868694290602893	6.492695315181006	3.986933698124878	3.3561620627545325	4.447314251161748
352	1.2345494000736752	1.4959886036296082	2.588227027080467	2.609902613726181	3.6513969806034967	2.5367193157999894	3.0529947203803083	2.3744292199267734	3.3474206839924228	4.62888478064107	4.3031706701352945	4.573884475604151	1.0860718461272558	3.1269640843598134	7.4629349520136135	6.195650561902652	5.647803769157414	2.651795142154348	4.6224307897210855	8.159497240446614	7.21609447564708	6.91555307549645	4.0373229878536145	5.01357268021304	7.928804854401858	7.266314488185081	6.685673219967222	4.217747677644668	5.724318489880981	5.705661282439072	6.199950202547314	3.8676428697212244	3.2363684095688234	4.213164795728749
356	1.5909756381874574	1.8694573593624104	3.002764455843431	2.5694940025305955	3.549885979272873	2.5107138093501438	3.343885174891852	2.5543913776755374	3.2140400328551775	4.448043335174799	4.1002750293206525	4.68477963218452	0.9838489865258773	3.1017634790309825	7.187390309307197	5.882229790141473	5.64453886514344	2.3127164782307763	4.515366066022892	7.728119353809907	6.839280111211481	6.667444689129455	3.713349094552307	4.797817694948442	7.5330619621820185	6.91068266077486	6.298422797513538	4.249685276746162	5.4581589560986234	5.518633828535051	5.913411602349123	3.756755342535368	3.1179041783768278	3.9936363596222377
360	1.9430890034254706	2.2639121952119057	3.410357466670437	2.548608296635451	3.3992311868675955	2.4240024028613054	3.5598874002223533	2.798344605056441	3.222797385662047	4.138962735216627	3.8268895052611285	4.726801860319391	1.2495237557335004	3.5184984118319775	6.728656274973446	5.517971501723979	5.616618142252507	2.491452926067474	4.400372494078116	7.207492810171971	6.4451455907222	6.47788475308461	3.478843441763029	4.635415065506175	7.113621693770789	6.560848696356592	5.996255859494698	4.461134899320213	5.224434839409668	5.344878660058946	5.694336876797498	3.690895548084949	3.0526556891616816	3.8616704843298093
364	2.1603174155051956	2.526967995939355	3.696131935324536	2.5354342396618765	3.1598532120080995	2.2106690350985287	3.575513353857218	3.0264651698949208	3.364194623082763	3.701187124444463	3.4283809575306936	4.601981628243174	1.7890491440426555	4.232505310816637	6.143074496971917	5.038764940891623	5.490450368370611	3.122681133015646	4.301821697818143	6.653498155961541	6.001417144882058	6.305511935526646	3.3835151110100576	4.549014080006542	6.712475759724991	6.215583308739534	5.794622406634633	4.714640605467282	5.044120299001881	5.198072420347809	5.570106015447332	3.6712701227957534	3.0626368445319896	3.8546895883513406
368	2.165081495540775	2.562926524367245	3.776977767945127	2.5018055375830843	2.806740992135462	1.8446255875745186	3.337263814129761	3.1574380318078985	3.5581154733469442	3.171391955951745	2.8859512733075454	4.25857638237557	2.4043893753381917	4.974100100356644	5.523037896517096	4.414189804376482	5.208745943270079	4.007129182235266	4.205658425203266	6.117848857692344	5.4800653319283255	6.079827293304697	3.4362883481052116	4.508610237182527	6.348196013635432	5.849860176575738	5.65756271841256	4.83261345596899	4.891328322458933	5.051594244600687	5.509501920141359	3.6584391501566396	3.1168956677897746	3.9431455035790606
372	1.9805515954558257	2.3918647705724503	3.6483037379660423	2.425995582177562	2.3622753560505987	1.369418259977915	2.8965246604268464	3.147763959566698	3.6958629991679883	2.626002066657946	2.248021358536328	3.7285952473916217	2.8797223495256645	5.4574909072416675	4.972516524158249	3.686330547562417	4.770259845133986	4.8808455343994614	4.080940713115805	5.642215237677384	4.891602980661364	5.747776493819559	3.5975999741322653	4.4580430871942305	6.022644504600192	5.439599977111057	5.517347798722624	4.6847672344184375	4.716545569909494	4.852065074114459	5.434758649456044	3.59564947174156	3.141987792665388	4.039248933130734
376	1.7149260000800182	2.1345608180513036	3.3836905870838336	2.3072788657109355	1.9021432351725256	0.8894964434100601	2.3861131607847255	3.0065474434284845	3.6941766645622605	2.1615073626304873	1.6259487826304087	3.1252484242689302	3.0613310259775472	5.499522672119679	4.575994480023873	2.9693128987684645	4.244389046443372	5.49810980362349	3.910362472198207	5.259599672389733	4.299069870585101	5.3128046855305495	3.789096584290262	4.355477798909481	5.7370819900623795	4.989474283972613	5.312246309219703	4.26171635505441	4.4875450020977725	4.554771411840151	5.264458643019554	3.4464385422476758	3.0615062636327446	4.041983594226124
380	1.4945533237870403	1.93606078135917	3.091262571159546	2.1639189665520107	1.5257003268822298	0.5230002390054791	1.953032727078954	2.78177260650209	3.5328612238379513	1.8554705334547306	1.148581621131177	2.5960042411111246	2.9020287917300887	5.092050539511972	4.368917931016662	2.402471059455584	3.746241083223535	5.701869950203772	3.706853141962507	4.99259566000233	3.7966380023467834	4.839856612383808	3.921257724398482	4.201860894084924	5.500914082943803	4.5413918380519105	5.019272314750651	3.6908399965561585	4.217834462007241	4.15612410449703	4.9605874890015995	3.221078626129643	2.8401682305154217	3.8908765217774333
384	1.387157436683311	1.8752632093767436	2.8525299953920484	2.0189247080374706	1.3065056767856187	0.34131741437568314	1.6849691825286988	2.5299134190581394	3.2596101678567013	1.7285155014266282	0.8984934664929661	2.254404539138498	2.4636037287500914	4.399994362212615	4.323418129495796	2.0811827130224962	3.3827853117412707	5.4630336623546265	3.511262407974514	4.846190917177386	3.4632637413323937	4.422968376436838	3.9299807449300475	4.043107499405172	5.327323900124019	4.157389630311705	4.6650590778825025	3.181954852653592	3.96435307455518	3.7040622140825903	4.553578842110496	2.976584426994124	2.508592122420076	3.599938145131611
388	1.3687653507006938	1.9243022154861473	2.6882748535948386	1.887579078677009	1.2562215296500008	0.3332744530369656	1.5757652481349176	2.291444295819884	2.963571064142458	1.731574292579489	0.8675602056534015	2.1283516830114384	1.8854322385869091	3.6819620039485685	4.3592638859360555	2.0055854269889957	3.199807635811643	4.8793682928870785	3.372896424360842	4.7991061089466545	3.318267098632069	4.134181965880553	3.800019731464222	3.9454364676998632	5.219592081243183	3.886418332778069	4.309390534011192	2.9240031168546623	3.7944748305840568	3.279509059255436	4.130363453927304	2.7887360979243283	2.153624767588133	3.2526464380158844
392	1.3537963594588849	1.9819140384226617	2.5699889594995606	1.7760466292363113	1.3229800429320744	0.4150773574362986	1.5465005597169825	2.0857753701001345	2.735445969350987	1.768900389973653	0.9588952040304384	2.1525919383060725	1.3358235325465593	3.1801087776002697	4.377660263453086	2.0784695095991705	3.1596457878448048	4.134596814207143	3.325556985088273	4.801493632591749	3.3066818630656156	3.9842607874413187	3.566992750698799	3.9587473769374966	5.159222589818453	3.7356429005720706	4.012406339051776	2.9890587254398024	3.7427246476092444	2.959415905156367	3.7919056319821447	2.712417834109445	1.8790017318969068	2.9609808847056382
396	1.2698943582897966	1.960082526026609	2.467802041498891	1.6934281544845757	1.4277535640908865	0.48332539078754844	1.5078196487504945	1.925983185673859	2.6371307306465726	1.7495288804705595	1.0389583084578151	2.211056465288591	0.9642696952316213	3.03703402706123	4.30663060054648	2.1580836718432326	3.165713063830463	3.437871447466449	3.377296677645631	4.788801657983901	3.327754965963461	3.921286334627902	3.3000817215570106	4.089742650196853	5.109211908792375	3.667159309665263	3.8067915343493466	3.297169200202059	3.7868075275180875	2.7844455171856493	3.6057402996579775	2.7543473174172792	1.7587400630416028	2.8127891946348402
400	1.1274157734062953	1.8652601194972138	2.3999130665268615	1.6640511709161674	1.5151256284607473	0.47835397599564144	1.4221692049359793	1.836235041750671	2.688340418703926	1.6374421078348502	1.0104268763780555	2.2032148782417385	0.8609343149383188	3.256952515962166	4.13487528710683	2.13564514574632	3.1198947350887214	2.962090246351397	3.510930052476086	4.7070836902031585	3.290149441995295	3.866144170536776	3.0695779246078487	4.294556606894103	5.030729281121872	3.6211879161961247	3.687900772320415	3.6590216067439143	3.8562161825094736	2.746128313760662	3.5767435937222762	2.8700258659380853	1.804744239065285	2.8322369980830535
404	1.0343857977500601	1.8175106002696253	2.4462315974462956	1.7270560220983429	1.5860800703058355	0.420840768943659	1.3276880946017062	1.8554190350417745	2.871985189816195	1.4722198210739568	0.8661771394795253	2.099846596184603	1.0318661902124764	3.7237639333169055	3.9180302521013326	1.995969290462371	2.982889644721125	2.798583262053519	3.6924481298681386	4.540513027171561	3.1649005333149365	3.765952100782412	2.91944455363375	4.496273506256643	4.906073081027663	3.554286232557662	3.6273243335695478	3.876634111153602	3.871076574088776	2.8002121377818288	3.652304401713266	2.9878427906894545	1.966340536875067	2.973933927656944
408	1.1445653409670618	1.9927966544382767	2.715547316370831	1.9195731829816076	1.6943410592216508	0.4012646963002127	1.313330289385881	2.022548193593508	3.149488202726407	1.3480918373404138	0.6943065506571702	1.9592001388675822	1.3986901009532051	4.256898392420089	3.7535028362874763	1.8276455356230654	2.8039967942969315	2.940979950155306	3.8829336068347184	4.3262047658412985	3.006460659065911	3.6345276740817565	2.8607170509591464	4.61974142815561	4.754274833119901	3.470346203625303	3.600674143283439	3.8461134336641307	3.7894813918759604	2.8969576285654015	3.7572822475938525	3.0466704291670275	2.160563940315364	3.1514711300437885
412	1.5639109572026275	2.5153846677215297	3.278682462043778	2.2473411503318683	1.9042590808474205	0.5235102759495344	1.4590862952587271	2.3481070936046806	3.47090601044762	1.3588573898339853	0.626875816193017	1.8917734575192633	1.822803611921606	4.669307696951366	3.731451978799204	1.7721890166361876	2.6986119679028464	3.2944881832868314	4.0410723584190995	4.140779484784795	2.9242875502188124	3.5507709890362635	2.8764996456000853	4.621621120228501	4.623758781203328	3.4207284364165913	3.60734485669128	3.6057913212337764	3.630653133762559	3.005549900096042	3.833665122843509	3.0220127029414403	2.311517471199502	3.279169312781074
416	2.2800290526999007	3.3759636793732395	4.1186523333514025	2.6647601060345787	2.24067329794697	0.840791044496622	1.7841072037475154	2.7945537496582973	3.7796378040254472	1.5423810443083767	0.7642239908950743	1.9981627413845673	2.1567738001729557	4.818953501932433	3.888221254068683	1.9427814434592061	2.787333481427015	3.7112040426015462	4.124473561364049	4.064153661003647	3.021704666138019	3.616479149270757	2.939253084391233	4.504161346507725	4.56639717856495	3.4734506519359467	3.6705560591531468	3.3044257080572734	3.4608762176872983	3.1198065202146763	3.8636262319292416	2.9286444113223142	2.3790521561638807	3.30583738446057
420	3.14948295751768	4.414254177392677	5.116698252157263	3.077878467418313	2.6600091390208167	1.317448135864437	2.229118341539986	3.275916806533182	4.014574040767495	1.8548668576139695	1.1154998512714631	2.3111855925382305	2.2994086684346633	4.644552695945751	4.184975136681268	2.3570589959716055	3.126379243586754	4.0324792760128165	4.097056855348065	4.137848843617878	3.334914914294383	3.894116630259243	3.0225706024151293	4.309191692916723	4.607418048670122	3.668618669784259	3.815658798120904	3.10719846894646	3.3514549647592147	3.245781413466567	3.8652026555702808	2.80215691812665	2.365101093042976	3.226438514192893
424	3.9531037707658325	5.380134568935997	6.085460170640329	3.3736779604611637	3.0613241118387706	1.8399051381388047	2.684258454221434	3.682073107006149	4.1172461405754115	2.190284723473969	1.5897604186928447	2.7747616697827304	2.233155960166877	4.179796208319099	4.52297161867703	2.921962969078441	3.6695561316349194	4.130711545051913	3.940756311003916	4.340144146451857	3.8070630931102576	4.361770142033243	3.103368989738599	4.095349778326007	4.72853087185067	3.98752926773397	4.043046941086233	3.1025140207160993	3.3347844993319433	3.3839840803539665	3.8689110181402637	2.6737792424406406	2.299962037955361	3.0723583620703114
428	4.4942922478693115	6.04536817931699	6.8385395831066615	3.4660229595413696	3.3335568820712487	2.2710535468937043	3.0432579440529626	3.9187559982542854	4.048313130648133	2.4338009296004826	2.0416209646177412	3.2684333241912364	2.025157684935186	3.5506191164017595	4.788052546810255	3.477431288522576	4.280943859736089	3.948260058925034	3.66980551746803	4.593178260650654	4.310939777934283	4.910166728020501	3.1604688087777855	3.911881675380406	4.875329482167294	4.353914726708838	4.311947334847022	3.2564082063474515	3.385579577481286	3.5199284464658183	3.891362180421837	2.5548052723278127	2.2198154870255093	2.8897087501046994
432	4.675376403448495	6.291157706589498	7.246129971329304	3.332933655907051	3.408854952788732	2.512434237812597	3.244945517930347	3.9380438228363257	3.806741228029283	2.518461936314224	2.3427600801446697	3.6587169078005917	1.7848123266934282	2.942597381791847	4.90290497495656	3.8727948567840227	4.788977610894833	3.5166497141742914	3.3360361968690664	4.80053852776628	4.707335460222054	5.383155809162744	3.1715133110082014	3.781168212880836	4.986054407882614	4.667870986597327	4.546818244898561	3.438664427658539	3.4396738919199064	3.6310870555754287	3.9233715435154597	2.4408638415699553	2.1511387770701176	2.719901554869969
436	4.520010936769221	6.136281951670464	7.261525135780181	3.028640024167994	3.295262089992641	2.5435779030476877	3.28465055590078	3.7499816323016155	3.4429471405841277	2.4556741652477725	2.4415488181459843	3.851725807002012	1.601855750807998	2.5435812409077867	4.861639487389847	4.035648335758233	5.0561294428009065	2.950859777629751	3.019822113042186	4.896011817014979	4.908820139889135	5.643159375248242	3.1179311196761983	3.6980457212541524	5.026092039770054	4.854673373363245	4.666960704464615	3.5034809024094438	3.439416161436548	3.7054769899274067	3.9390430350988175	2.3311920107158683	2.109003776947616	2.5905268126886747
440	4.138930787127109	5.7008166169239605	6.915976506891865	2.6629838876247565	3.0711676996892843	2.418783420177949	3.1934709468322806	3.412094107596228	3.0523183268731047	2.3233516157619087	2.378533118918487	3.82127832401614	1.497292753254001	2.4740412172796473	4.728726851922197	3.9963428873253655	5.028491007506918	2.421694987858586	2.804072134567737	4.876099097338692	4.9143671865365075	5.627200112440635	2.9962236805608726	3.6427738574563224	5.00662373232409	4.899973380115329	4.6229362371075045	3.372935048170559	3.3751852427144384	3.755926837975082	3.91597603762898	2.245033735329149	2.1032717174833286	2.514055245727816
444	3.6686198618771515	5.136940943146193	6.29727361996517	2.359091514353315	2.84771966215224	2.2297575417489433	3.0077624245045187	3.006498567619892	2.74758576653103	2.2228200379517618	2.254493469268278	3.6058351902522205	1.4187467062416173	2.7285056045308633	4.605594623381757	3.8602108857922346	4.746842849190911	2.102309936937661	2.740365975136905	4.797977912233194	4.800365435878289	5.369079576288128	2.823996298335793	3.5972490219847137	4.976541029763323	4.852893340256167	4.421697605413435	3.0761752050935116	3.2959971344701553	3.817630519765096	3.8519291780494718	2.2206683102808027	2.1429464762942922	2.4888570245847705
448	3.2263195433222216	4.577504623300089	5.535810456604477	2.2111542169057756	2.723388426580526	2.061493391554263	2.7557990481417636	2.6194412642147937	2.621038668690741	2.2304162922813378	2.1739916746564623	3.2840204155978054	1.2862466541240605	3.1684253135794744	4.582684028499415	3.7483739758267927	4.3209309468848875	2.099339241449556	2.8267517018475132	4.744641768874202	4.677131164186252	4.98003576928697	2.632350676566234	3.555764189325781	4.992714392454422	4.796648967076637	4.126942147325834	2.7266971996129437	3.281314841568992	3.927724828340284	3.766496887234284	2.293872350623324	2.232011550990079	2.499191754706993
452	2.8988535331016307	4.122163285338388	4.79648159723453	2.2582240047660616	2.7522394587647643	1.9655771205867112	2.4680342611943495	2.3287262857770257	2.7106201580275577	2.368831866959338	2.1976530496424993	2.94589900226691	1.0620706054575675	3.5795359521136634	4.699916350896303	3.7420656586582717	3.884856929507475	2.405811065321785	3.0078291817064984	4.777187335350871	4.637208450053649	4.60108135969076	2.4519820151411276	3.5241632372571283	5.085751520668013	4.805167662886428	3.8351609610050157	2.458250754825618	3.3902277860877144	4.09946011461934	3.6886534597727385	2.46842669817456	2.3598992764972713	2.5167043145535253
456	2.753256790839222	3.8474297426360273	4.259454239581605	2.481861346654435	2.937069408630755	1.960145468531333	2.1971456949074524	2.1964323465205813	2.9859845562886282	2.6100811892414773	2.3276431501749015	2.6730246476396893	0.7970585206888842	3.769191732427065	4.934347140251932	3.859180440695959	3.5553150087238876	2.898231975867482	3.196358195817911	4.901420104049665	4.722379195688223	4.350799549562162	2.299808496390807	3.5081882388233403	5.240945802807923	4.909955965997107	3.637996664398926	2.352757209559737	3.6189894584837794	4.308134544939656	3.639194717755886	2.698583119254848	2.4951624807303494	2.506851666797029
460	2.846323721375125	3.817451467412643	4.082036484902589	2.823768131756169	3.244219771777394	2.048510784699223	2.0261075445519285	2.2615771236540803	3.362001887416302	2.9027814791824116	2.5291337903064455	2.5306827958109577	0.6224451049348249	3.6582477000381046	5.218871103461801	4.069727410531811	3.407361260394432	3.384639016189105	3.3109266674372226	5.068540083486125	4.922379958122723	4.290629376069058	2.174707884066275	3.501660576562599	5.40660284584671	5.094218718064848	3.588973274706414	2.4055957733453996	3.8950002095111627	4.500500667653442	3.6214017776610388	2.899312488865242	2.592012160432727	2.4429252085996627
464	3.2126991667696956	4.073411931243943	4.3456683049156934	3.2113985934239806	3.6248595623050184	2.2367434445175607	2.0489101358182102	2.5305883820538715	3.7344937230237023	3.2032179751585015	2.768581144972285	2.565532439430246	0.686099467929478	3.3207604801260175	5.47922228383475	4.332670677690208	3.4690122516785977	3.6893362905815614	3.3078682339122296	5.207404123510283	5.197714315642902	4.4172620661790285	2.067713493848739	3.482763043193563	5.522962079409132	5.312570081649306	3.6886920835824557	2.5433597500483605	4.11127947722988	4.623384464035084	3.6253838447591393	2.982750885108438	2.609849684801754	2.3220426977659456
468	3.8343391321649274	4.603197562993522	5.011348711712795	3.5794088750113233	4.029531468708247	2.5337278778955548	2.3263893068705723	2.967658750670834	4.019921769483242	3.4899744899374405	3.0396947783972856	2.7984173227228832	1.0632386180736373	2.9504585191621366	5.6669635629628	4.625503528360789	3.7243947888756157	3.7332842255749736	3.191526166487459	5.266021238383042	5.505276666093188	4.675357806799372	1.977887506259671	3.4209396752771424	5.55234240083764	5.518410191908418	3.8889725110095354	2.666559212627937	4.180278290684826	4.6526331784082595	3.6384236720730185	2.900454275437677	2.534118884364294	2.1705722754036207
472	4.617008674408847	5.3177385195940206	5.915344700183598	3.880823602414997	4.412443149870394	2.934358350974636	2.843566648933355	3.494576922176797	4.1805143250775405	3.757882585574514	3.360963812925515	3.212054482933433	1.69413935710424	2.75998353261301	5.772982105938537	4.948305117511613	4.118877400489506	3.5728523641025838	3.0022506638067643	5.237517343649098	5.811015114417953	4.980807768644151	1.9245852183388263	3.2925717747528513	5.493522630173158	5.6817607736188	4.1129226580728995	2.6962504318828078	4.07666062279458	4.604307163057859	3.65334939034283	2.668608897147298	2.385795110401007	2.0334446378866757
476	5.404487596218262	6.064774021095388	6.824624998028267	4.0899181262706295	4.731105315661308	3.4014542016935256	3.499732485518273	4.009118546854267	4.226085652171956	4.0003356832594985	3.7487690354113665	3.743297567453379	2.3919794499087086	2.866473905955598	5.816931709861999	5.303191171608288	4.567523467929782	3.3703102980398567	2.7892887521892904	5.154447065691106	6.085453018082974	5.2455129490976615	1.9410747240650168	3.0949172895493664	5.371914373186487	5.788320049930574	4.281555164971362	2.600846999277609	3.8434724710700907	4.519653308901472	3.667231788913127	2.3593211114444097	2.210458273075135	1.948895330276961
480	6.0363006439394935	6.686799509332054	7.536367874191495	4.200627793196925	4.949748026748693	3.864000549097486	4.143785943059675	4.419414509105723	4.195068348783471	4.195111740964758	4.186146725576015	4.291905869138344	2.9246790335247086	3.2329406656657342	5.821448788250253	5.6677212572052715	4.972072588765083	3.3079082882334174	2.5856413775966387	5.057091223346574	6.292668326702872	5.399528012948313	2.0565090127521497	2.8496742176587797	5.214750276751014	5.826557144713186	4.338357914461739	2.3979225098149684	3.5603933244459296	4.434271324406348	3.6723444369104725	2.0619723744784686	2.052085871283825	1.922219509993664
484	6.4176015691852974	7.090723496654529	7.964833716310405	4.2227835548597366	5.048237311015412	4.236663807662827	4.636833656048247	4.676770198458404	4.1267857447383385	4.305026520350335	4.60903118877225	4.747108924324516	3.1276571671675115	3.689268341286689	5.7888760420556356	5.9840092507914875	5.245983110534462	3.4909922988490556	2.3984746872427736	4.958864676353361	6.388214095199435	5.407434926685674	2.2724728526915126	2.5940799647640542	5.030089842494336	5.778506264402373	4.264873017033745	2.1358258670288226	3.2965469277121753	4.353350628352108	3.6493806746851254	1.8379609538404296	1.9284683417268496	1.9170138787507034
488	6.55822227729584	7.28404520103094	8.163709619891545	4.178956021248466	5.033305632281139	4.453466404161351	4.909712302209881	4.790790068928588	4.04467772416317	4.297222126601729	4.924922453843842	5.025964247411978	2.9863934441507554	4.024312962862047	5.699726090345903	6.178572639124725	5.344540105677476	3.891135444353684	2.2201077882027502	4.837453829949689	6.337596877309653	5.280298696537912	2.5501937801824734	2.3682875573446234	4.808674800176158	5.629364953133411	4.087434758356977	1.8749843788491884	3.0812542360712887	4.254386414277017	3.5753879456849273	1.6985844330817867	1.827857251320773	1.8764361095736726
492	6.5540399385918	7.352269154105762	8.269427278621215	4.098970879696259	4.941382872503455	4.495842445466716	4.981807696162379	4.816029536485714	3.9551367659846988	4.16757153412511	5.055094229333061	5.104981409535477	2.6404392652604116	4.097085465577484	5.532475934365581	6.2023234210777	5.285285936362967	4.359930981118698	2.0496876188026976	4.658240783374571	6.145410999041213	5.07713602691535	2.824295990488967	2.2037775460869975	4.5465998534806555	5.391003595092638	3.871986856221487	1.6756348567618604	2.907727472593386	4.11558579359474	3.4439167889428854	1.6160582263199306	1.728004808831482	1.7632011130639091
496	6.514123423342237	7.384168129397539	8.39124105242255	4.010538091070654	4.825858103965782	4.396343220101472	4.929343211126382	4.813669192558567	3.8582997224669815	3.9521198172923646	4.975217329815493	5.025699125952687	2.3039646090512127	3.9050252338999143	5.290696607583437	6.065032466834482	5.142793165574045	4.702109324981342	1.9078730296603175	4.414577472985123	5.873753532838655	4.888923155839029	3.0303614063047615	2.1172423309276702	4.27187823170722	5.121125208322844	3.70502041834958	1.586858626173926	2.762754194913754	3.950319757024692	3.284421912483999	1.5577881296881788	1.6250388581255648	1.5946694572241518
500	6.484019739946563	7.399686317834922	8.524480798179903	3.9323940177816206	4.736537444553844	4.219759930447204	4.830351340496185	4.814271914725015	3.7632298374531037	3.720904817723538	4.734487998453061	4.8728871222491446	2.1511738246011567	3.5744252114649457	5.023533331585597	5.843998417404746	5.017685400692158	4.773698794710264	1.8350371076029997	4.159606446254595	5.634215817531564	4.808208453436612	3.133610479072647	2.1123371070936194	4.055307378066997	4.920078742003044	3.6660287287660176	1.635618563337196	2.6587328843701084	3.8218634032077783	3.165420047397487	1.5196466407555462	1.5513545235566562	1.449226614154165
504	6.420158846858284	7.334796886998996	8.549577691427087	3.8731880090199686	4.701343047670044	4.032979478190509	4.72088431120103	4.803718077929151	3.694042196483987	3.553711166946321	4.43953560661962	4.734539973703174	2.227308029273438	3.2867834485040377	4.820281970251833	5.655777440096755	4.991175638948786	4.546833026850428	1.86996590619035	4.00015591565131	5.546871171298231	4.891738402413952	3.1383378426471373	2.1816298906558544	3.9888164896392895	4.894307124178707	3.7961654567241974	1.8113059951827513	2.63828157712499	3.818493356600686	3.168740502940251	1.5311177930321873	1.5629585941908108	1.4302639925131981
508	6.232648356914222	7.096117478574504	8.320625284168221	3.835640897603535	4.71953200102378	3.8806624314559315	4.589725005959666	4.741126525352804	3.681823005917303	3.508963099203464	4.21042822728473	4.665376174591907	2.4348196921864114	3.179047576507368	4.7772898553396255	5.604265675700443	5.088347422150716	4.1124763384939484	2.020213837291418	4.049895753172213	5.683973774864434	5.133310781869959	3.0729997080464755	2.3055429400408802	4.138712395709203	5.1013402810046315	4.076477517326292	2.058748716878575	2.7452952792473844	3.9990863699081602	3.3446235572294656	1.6280499655627256	1.7008962588282084	1.6045402247926144
512	5.873064979983948	6.653981192001582	7.793445567481645	3.8222625159081867	4.770491587992288	3.7805287742533	4.414628017723764	4.598616111589073	3.7451193238116947	3.6014711765913634	4.13193558603393	4.673417556407542	2.6029193335619274	3.274778119402268	4.951614367381188	5.733365998097884	5.270806776090685	3.628831138985665	2.244309181269089	4.364238727995028	6.029489501988916	5.462809548890837	2.965341083669239	2.4499466357364765	4.499215114678171	5.507645116252004	4.428635109210617	2.291530126508144	2.9810511990623145	4.341631401544538	3.672448625829277	1.8111758186388907	1.9499382923486075	1.9500157783866199
516	5.406701074301052	6.108437522724651	7.106553536592589	3.8396661184643444	4.832592951971239	3.735960474118632	4.209427822929345	4.39628313861969	3.874890317670456	3.7995226287280506	4.223581303423396	4.7331247210212	2.597504132388466	3.487493744628152	5.32607315626121	6.009777530755725	5.4627899985674	3.2460074342789844	2.4607722697118297	4.8958487387072855	6.479651434751292	5.775274738989389	2.822529547240863	2.5693638259867346	4.977234827826757	5.988291725298497	4.741542804190865	2.4237952171165893	3.278989306754307	4.73114155528524	4.053410996693612	2.022908444065621	2.2253081742369836	2.3482897222358114
520	5.009497629869324	5.669396862974967	6.546028597517056	3.8966526886787434	4.897412287745086	3.7509689236351824	4.0430512326206465	4.206694592345426	4.035114754979551	4.041298379231517	4.440584171527861	4.812094199429	2.4047629772507007	3.679242124805045	5.8062410208020765	6.3438434440663425	5.5942268230341385	3.045801155029818	2.578686230824648	5.499953256072449	6.8874378030454615	5.976793274094618	2.631115191492449	2.6172799998006946	5.4218654495679415	6.375394328233511	4.914799201000749	2.4109265743420725	3.5211946875362297	5.002817618136922	4.346022594923344	2.1634404604649617	2.4029273926148322	2.6327819757747397
524	4.882471549104829	5.5519399502771325	6.402768595742522	3.9973533052610466	4.971937643849652	3.835510959478253	4.013430585265011	4.12372015865599	4.180144299443708	4.262656201090855	4.703276622341677	4.893959986728412	2.1403272097908954	3.7410769368132337	6.254934295120895	6.637165529660004	5.637071118427675	3.0318674964651433	2.5373957093071926	5.9926171151496375	7.131231766815927	6.025347694443221	2.3825919567988647	2.56244587251299	5.6883044099243	6.535675509164289	4.900939452195409	2.275433534599321	3.5939614682057828	5.024171816538819	4.431682575480999	2.142256016090957	2.3826239048883835	2.67193602841026
528	5.133790003212742	5.84989641619967	6.804927808746943	4.137295712515758	5.072042929241442	3.9998493093593592	4.192185391332253	4.214613903848869	4.283061493550323	4.425644386561918	4.94065760318766	4.98584698371932	1.9834662625779835	3.6512200740182497	6.552079661039376	6.833452207478637	5.61713741791648	3.166625014893224	2.3377301633940633	6.236723407257937	7.174768906598585	5.948092445614835	2.104147667340736	2.4074547230019614	5.706818089381953	6.439441664650176	4.727986800654533	2.1001632160568504	3.454554072241224	4.774066912995468	4.278429974244389	1.937502975340514	2.151520246795717	2.444334023980017
532	5.701201424509659	6.466401560669755	7.627199630553963	4.302838791474023	5.210257040220609	4.241346825381717	4.573502052204238	4.481789100775635	4.352769363857726	4.532467830658669	5.122857080877064	5.106409059983533	2.0750009961191584	3.4764952571833865	6.647716505432926	6.94281004106484	5.594461426915382	3.4139277848834686	2.041953796953327	6.206208690232929	7.083241921661211	5.824151501256124	1.8715366077855053	2.1925408784823106	5.515030846976765	6.178974612848075	4.487928379172	1.9873989770303346	3.163815728782763	4.367619503438153	3.9636418719355153	1.620806093892172	1.8046842767927924	2.0586531110285966
